#lambda/nm	C1
208.295	514.6
208.67	470.4
209.045	426.8
209.419	435.6
209.794	609.8
210.169	600
210.544	724.8
210.919	616.8
211.295	611.4
211.67	621.8
212.045	617.4
212.421	618
212.796	653.4
213.172	613.2
213.547	611.2
213.923	608.4
214.299	608.2
214.675	623.8
215.051	620.2
215.427	623.2
215.803	640.4
216.179	621.8
216.555	608.8
216.932	622
217.308	622.8
217.684	617.6
218.061	618
218.438	616.4
218.814	605.2
219.191	621.2
219.568	605.4
219.945	618.4
220.322	627.4
220.699	626.8
221.076	632.2
221.453	619.8
221.83	610.2
222.208	617.8
222.585	613
222.962	612.4
223.34	617.6
223.717	611.6
224.095	609.2
224.473	621.4
224.851	605
225.229	603.4
225.607	631
225.985	603
226.363	607.8
226.741	611.8
227.119	606.8
227.497	626
227.876	599.6
228.254	618.8
228.633	612.8
229.011	604.6
229.39	617.6
229.769	609.6
230.148	617.4
230.527	638.4
230.905	616
231.284	612.8
231.664	603.8
232.043	631.6
232.422	619.4
232.801	604.8
233.181	620.6
233.56	615.6
233.94	608.6
234.319	598.2
234.699	621.8
235.079	660.4
235.458	648
235.838	632.4
236.218	604.4
236.598	612.4
236.978	609.6
237.358	606.2
237.738	610.2
238.119	624.2
238.499	603.8
238.88	607.2
239.26	632.2
239.641	608.6
240.021	610.6
240.402	608.4
240.783	615.4
241.163	619.4
241.544	610.6
241.925	614.4
242.306	627.8
242.687	616.4
243.069	619.2
243.45	613.8
243.831	603.6
244.212	611
244.594	650
244.975	623.6
245.357	626
245.739	608.8
246.12	620.4
246.502	624.8
246.884	609.6
247.266	611.2
247.648	618
248.03	644
248.412	615
248.794	622.6
249.176	607.8
249.559	624.8
249.941	607.4
250.323	605.2
250.706	617.8
251.089	619
251.471	616
251.854	615.8
252.237	611.6
252.62	631.6
253.002	615.4
253.385	614.4
253.769	626
254.152	613.4
254.535	629.8
254.918	611.8
255.301	614
255.685	611
256.068	615.8
256.452	632.8
256.835	627.6
257.219	619.6
257.603	626.2
257.986	610.8
258.37	620
258.754	600
259.138	622.2
259.522	624.2
259.906	610.6
260.29	619.8
260.675	610
261.059	616
261.443	604.2
261.828	617.2
262.212	624
262.597	604.8
262.981	618.2
263.366	627
263.751	613
264.136	612.4
264.521	615.8
264.906	605
265.291	624
265.676	615.4
266.061	621.4
266.446	631.8
266.831	615.4
267.217	632.4
267.602	616.6
267.987	620
268.373	622.8
268.759	627.6
269.144	621.2
269.53	623.6
269.916	616.4
270.302	619.8
270.688	619.2
271.074	621
271.46	634.6
271.846	654.4
272.232	620
272.618	615.2
273.004	613.6
273.391	629.6
273.777	627.4
274.164	624.6
274.55	629.8
274.937	620.8
275.324	621.6
275.71	623.2
276.097	627.2
276.484	611
276.871	618.4
277.258	623.8
277.645	600.2
278.032	623
278.419	618.4
278.807	614.2
279.194	604.2
279.581	615.2
279.969	623.2
280.356	615.4
280.744	620.8
281.131	645
281.519	624
281.907	614
282.295	612.4
282.682	622.4
283.07	619.2
283.458	619.2
283.846	618.4
284.235	632
284.623	629.2
285.011	610.6
285.399	625
285.788	613.4
286.176	609.6
286.565	629.4
286.953	610.8
287.342	612
287.731	610.4
288.119	610.8
288.508	615.2
288.897	618.4
289.286	597
289.675	614.6
290.064	626.2
290.453	621.2
290.821	618.6
291.21	637.2
291.599	610.2
291.989	622.4
292.378	621.4
292.768	636.8
293.157	623.4
293.547	634.2
293.936	613
294.326	607
294.716	623.4
295.106	615.4
295.496	617
295.886	626.2
296.276	620.6
296.666	611.4
297.056	618.2
297.446	604.2
297.836	639.6
298.227	607.4
298.617	616.6
299.008	629.4
299.398	612.8
299.789	615.4
300.179	619
300.57	628.2
300.961	614
301.352	619.2
301.742	630.4
302.133	613.4
302.524	616
302.915	619.2
303.307	608.2
303.698	623.8
304.089	624.4
304.48	621
304.872	618
305.263	617.4
305.655	612.4
306.046	623
306.438	627
306.829	608.6
307.221	630
307.613	621.8
308.005	629.2
308.397	632.8
308.789	644.6
309.181	647.6
309.573	640.4
309.965	625.8
310.357	615
310.749	626.4
311.142	608.8
311.534	602
311.926	619.8
312.319	613.2
312.711	614.4
313.104	642.6
313.497	612.8
313.889	665.8
314.282	641.8
314.675	639.4
315.068	620.2
315.461	625
315.854	652.6
316.247	617.8
316.64	620.8
317.033	619.6
317.405	620.8
317.798	624.8
318.192	621.2
318.585	618.8
318.979	628.6
319.372	609.6
319.766	613.4
320.16	622.6
320.553	632.2
320.947	638.8
321.341	617.4
321.735	611
322.129	605.8
322.523	637.8
322.917	610.2
323.311	629
323.705	614.2
324.099	622.6
324.494	638
324.888	625.6
325.282	613.4
325.677	624.4
326.071	622
326.466	624.8
326.861	616.2
327.255	617.8
327.65	629.2
328.045	633.4
328.44	613.4
328.835	619.4
329.23	606.8
329.625	639
330.02	618.4
330.415	635.6
330.81	614.4
331.206	615
331.601	614
331.996	624
332.37	642.4
332.766	608.8
333.161	644
333.557	610.4
333.953	616.6
334.348	979.2
334.744	620.8
335.14	613.4
335.536	609.8
335.932	632
336.328	614.4
336.724	630.4
337.12	611.4
337.516	615.8
337.913	619.6
338.309	629.2
338.705	618.8
339.102	638.2
339.498	612.8
339.895	633.6
340.291	617.6
340.688	623
341.085	601
341.481	620.6
341.878	619
342.275	633.8
342.672	606.4
343.069	607
343.466	605.6
343.842	617.8
344.239	614.2
344.636	612.4
345.033	618.6
345.431	611.6
345.828	621.6
346.225	610.2
346.623	652.8
347.02	625.4
347.418	626.4
347.816	631.2
348.213	605.8
348.611	628.8
349.009	609.8
349.407	630
349.805	606.6
350.203	604.8
350.601	630.4
350.999	612.2
351.397	676.4
351.795	623.4
352.193	626.8
352.57	629.4
352.969	626.6
353.367	607.2
353.766	610.2
354.164	617
354.563	620.4
354.961	615.2
355.36	608.8
355.759	619.6
356.158	603
356.557	606.4
356.956	602.4
357.355	604.4
357.754	614.2
358.153	611
358.552	632.6
358.951	612.2
359.35	620.8
359.75	608.4
360.149	608.8
360.527	601
360.926	595.8
361.326	608.4
361.726	610
362.125	596.8
362.525	615.2
362.925	617.8
363.325	611
363.724	604.4
364.124	598.4
364.524	606.4
364.924	603.6
365.324	619.4
365.725	597.4
366.125	613.8
366.525	612.4
366.904	604
367.304	589.4
367.705	632.6
368.105	626.4
368.506	611.2
368.906	611
369.307	613
369.708	617.8
370.108	600.6
370.509	623.6
370.91	606.2
371.311	613.2
371.712	616
372.113	606
372.514	602.8
372.894	610.6
373.295	602.4
373.696	609
374.097	618
374.499	633.8
374.9	615.4
375.301	606.8
375.703	616.4
376.105	602.6
376.506	612.8
376.908	613
377.309	610.8
377.711	607.4
378.113	604.2
378.493	601.2
378.895	602
379.297	621.8
379.699	596.4
380.102	622.6
380.504	612
380.906	611.6
381.308	640.2
381.71	613
382.113	611.4
382.515	605.2
382.918	612.2
383.299	605.6
383.701	617.2
384.104	618
384.507	587
384.909	608
385.312	601.2
385.715	597.8
386.118	607.6
386.521	598.8
386.924	614.4
387.327	598.4
387.709	598.8
388.112	596
388.515	605.6
388.918	605
389.322	610.8
389.725	605.8
390.129	627.4
390.532	612
390.936	606.2
391.339	602.6
391.743	613
392.125	606.6
392.529	619.8
392.933	623.6
393.337	615
393.74	612.2
394.144	620.6
394.548	603
394.953	609.4
395.357	618
395.761	609.6
396.144	614
396.548	608.2
396.952	611.6
397.357	608.6
397.761	609.8
398.166	605
398.57	604.2
398.975	595.4
399.379	617.2
399.763	656
400.168	609.6
400.572	612.4
400.977	609.8
401.382	625.6
401.787	621.6
402.192	630.4
402.597	623.6
403.002	599.4
403.386	619.2
403.791	627.6
404.197	602.4
404.602	606.4
405.007	613.6
405.413	605.4
405.818	616.4
406.224	602.6
406.608	607.2
407.014	599.2
407.42	629.6
407.825	603.2
408.231	611
408.637	610.2
409.043	622.4
409.449	606.4
409.834	606.2
410.24	607.2
410.646	620.8
411.052	619.8
411.458	617.6
411.865	620
412.271	620.8
412.677	615
413.062	616
413.469	608.2
413.875	634.6
414.282	621.6
414.689	604.4
415.095	621
415.502	598.6
415.888	603.8
416.294	599.4
416.701	650
417.108	609.4
417.515	624.2
417.923	613.2
418.33	626.2
418.715	617
419.123	606.8
419.53	592.8
419.937	606.6
420.345	619.2
420.752	596.4
421.16	621
421.546	601.6
421.953	612.8
422.361	599.4
422.769	599.8
423.177	597.8
423.585	634
423.992	628.2
424.379	622.2
424.787	625
425.195	617
425.603	612
426.011	630
426.419	622.2
426.806	616.8
427.214	608.8
427.623	629.2
428.031	625.4
428.44	610.8
428.848	621.6
429.235	638
429.644	610.8
430.053	612.4
430.461	630.8
430.87	642.8
431.279	631.6
431.666	616
432.075	612.4
432.484	628.2
432.893	625.2
433.302	657.4
433.711	666
434.099	646.8
434.508	640.2
434.918	640.8
435.327	657.8
435.737	654.2
436.125	665.6
436.534	674.4
436.944	665.8
437.353	676
437.763	694
438.173	670.6
438.561	696.8
438.971	673.8
439.381	700.4
439.791	699.4
440.201	688.4
440.589	719.6
440.999	727.2
441.409	733.8
441.819	724.8
442.23	755.2
442.619	755.8
443.029	750
443.439	758
443.85	769.4
444.26	771.2
444.649	778.8
445.06	776.4
445.471	765.2
445.881	775.8
446.292	796
446.682	797.8
447.092	771.2
447.503	847.8
447.914	792.8
448.325	788
448.715	791.8
449.126	792
449.537	802.8
449.948	806.8
450.338	806
450.75	809.8
451.161	811.6
451.572	820.4
451.984	809.2
452.374	805.6
452.786	820.4
453.197	811.4
453.609	829.4
453.999	807.6
454.411	804.8
454.823	829
455.235	835.8
455.647	827.2
456.037	823.4
456.449	816.4
456.862	829.2
457.274	830.2
457.665	820
458.077	840
458.489	860.4
458.902	841.4
459.293	836.2
459.705	829.4
460.118	822.4
460.53	832.4
460.921	836
461.334	835.4
461.747	837.6
462.16	849.8
462.551	850
462.964	843.8
463.377	826.8
463.79	833.2
464.182	846.6
464.595	839.8
465.008	852.6
465.421	859
465.813	840.6
466.226	854.6
466.64	840.8
467.053	895.4
467.445	864.4
467.859	868.4
468.272	856
468.686	873.4
469.078	851
469.492	849.8
469.906	859.8
470.298	856.8
470.712	840
471.126	899.8
471.54	854.6
471.933	835.6
472.347	847.8
472.761	850.8
473.175	841.6
473.568	848
473.982	828.6
474.397	842.2
474.79	845
475.204	851
475.619	851
476.033	848
476.426	838.2
476.841	843
477.256	860.6
477.649	837.2
478.064	836.8
478.479	834.8
478.872	827.6
479.287	828
479.702	824.4
480.118	847.2
480.511	832.6
480.927	831
481.342	832
481.736	833.6
482.151	818.4
482.566	840.6
482.96	839.6
483.376	849.8
483.792	815.8
484.186	840.4
484.602	825.6
485.017	835.4
485.412	835
485.827	828.4
486.243	820.4
486.638	850.2
487.054	838.6
487.47	835.6
487.865	818.8
488.281	812.2
488.697	812.8
489.092	818.6
489.508	807.4
489.925	821.8
490.32	807.8
490.736	821
491.153	813.2
491.548	807
491.964	819.2
492.381	787.2
492.776	808.8
493.193	808.8
493.61	810.8
494.006	799.8
494.422	797.4
494.84	797.2
495.235	798.2
495.652	803.2
496.069	796.4
496.465	780.4
496.883	789
497.3	818.6
497.696	774
498.113	803.8
498.509	773.2
498.927	781.6
499.344	770.4
499.741	771.8
500.158	786.6
500.576	785.4
500.973	770.6
501.39	763.4
501.787	758.4
502.205	776.8
502.623	758.4
503.02	760.2
503.438	757
503.856	758
504.253	770.2
504.671	750.6
505.068	752.8
505.486	750.8
505.905	771.2
506.302	766.8
506.72	767.4
507.118	739.8
507.536	752.8
507.955	737.2
508.352	755.2
508.771	752.2
509.169	754.2
509.587	739
510.006	743.2
510.404	726.8
510.823	736.6
511.221	742.8
511.64	727.2
512.038	753.8
512.457	734
512.877	733.4
513.275	721.4
513.694	727.2
514.092	727.8
514.512	731.6
514.91	720.4
515.33	718.8
515.749	719
516.148	722.6
516.568	714.2
516.966	725.4
517.386	706.4
517.785	716.6
518.205	708.2
518.603	707
519.024	700.4
519.444	707.4
519.843	718.2
520.263	714.4
520.662	713.6
521.082	699.2
521.481	699.2
521.902	707.6
522.301	701
522.722	707.8
523.121	701.4
523.542	693.2
523.963	691.8
524.362	709
524.783	700.4
525.183	692.8
525.604	695.4
526.003	693.4
526.425	693
526.824	702.8
527.246	691.8
527.646	693.4
528.067	690.2
528.467	689
528.888	690.4
529.289	688
529.71	687.6
530.11	676
530.532	673.4
530.932	674
531.354	672.8
531.755	722
532.176	690.8
532.577	670.6
532.999	678.6
533.4	674.2
533.822	679.8
534.223	687
534.645	670.6
535.046	675.2
535.468	674
535.869	681.4
536.292	669.8
536.693	709.8
537.115	669.6
537.516	666
537.939	662.4
538.34	676.4
538.742	680.6
539.165	668.4
539.566	666.2
539.989	661.4
540.391	659.2
540.814	660.8
541.216	663
541.639	656.8
542.041	666.6
542.464	653.2
542.866	656.2
543.268	654.6
543.691	666.2
544.093	659.2
544.517	674.4
544.919	651
545.343	679.2
545.745	653.8
546.147	662.4
546.571	662
546.974	648.6
547.398	655.6
547.8	671.4
548.224	649.6
548.627	646.8
549.03	658.8
549.454	647.4
549.857	645.8
550.281	635.4
550.684	644.8
551.087	655.2
551.512	651
551.915	645.2
552.34	649.4
552.743	645.2
553.146	642.6
553.571	633
553.975	655.4
554.399	639.6
554.803	694.2
555.207	641.2
555.632	630.8
556.036	642
556.461	640.4
556.865	638.8
557.268	626.8
557.694	641
558.098	644.4
558.502	648.6
558.927	630.8
559.332	635.8
559.736	642
560.162	653.6
560.566	634.6
560.992	638
561.396	642.2
561.801	632
562.227	638.8
562.631	628
563.036	634.4
563.462	641.8
563.867	629.2
564.272	620.4
564.698	626.4
565.103	623.4
565.508	648.6
565.935	631
566.34	622
566.745	642.4
567.172	624.4
567.577	658.2
567.982	636.8
568.409	634
568.815	617
569.22	626.2
569.626	625.8
570.053	605.8
570.459	635.4
570.865	621.2
571.292	629.6
571.698	626.6
572.104	604.8
572.531	623
572.937	641.4
573.343	621
573.75	622
574.177	624
574.583	628
574.99	625
575.396	630
575.824	620
576.231	629.8
576.637	621.2
577.065	646.6
577.472	621
577.879	621.4
578.286	633
578.714	615.6
579.121	618.4
579.528	624.4
579.935	631.8
580.364	630.2
580.771	609.6
581.178	612
581.585	614.2
582.014	624.6
582.421	608.8
582.829	615.4
583.236	624.2
583.644	610
584.073	611.2
584.481	611.6
584.889	614.6
585.296	621.6
585.726	614.8
586.134	606.6
586.542	606.2
586.95	627
587.358	596
587.787	614.6
588.196	630
588.604	613.2
589.012	610.4
589.421	605.4
589.851	600
590.259	613.6
590.668	604.8
591.076	642.6
591.485	604.8
591.894	613.6
592.324	620.6
592.733	621.4
593.142	595.8
593.551	606
593.96	616.4
594.369	599.4
594.8	594.4
595.209	610.8
595.618	594.4
596.028	596.6
596.437	600
596.847	603.6
597.256	608.4
597.687	615.4
598.097	605.6
598.507	603.8
598.917	606.6
599.327	609.2
599.736	611.6
600.146	614.4
600.556	598.8
600.988	614.2
601.398	606.4
601.808	615.8
602.219	593.4
602.629	605.6
603.039	604.2
603.45	626.2
603.86	601.6
604.271	615.6
604.703	605.8
605.114	604.8
605.525	608.8
605.935	605.4
606.346	622
606.757	606
607.168	603
607.579	598.6
607.99	609.8
608.402	605.2
608.813	603.8
609.224	590.4
609.636	588.6
610.047	594.2
610.48	596.2
610.892	604.8
611.303	601.4
611.715	597.8
612.127	584.4
612.539	593.4
612.95	597.6
613.362	584.2
613.774	589.4
614.186	587.6
614.599	593.8
615.011	605
615.423	593
615.835	590
616.248	586.4
616.66	603.4
617.073	586.6
617.485	591
617.898	595.8
618.311	592.8
618.723	596
619.136	627.2
619.549	609.2
619.962	612.2
620.375	592.4
620.788	604.8
621.201	599.2
621.614	604.8
622.028	594.4
622.441	599.2
622.854	613.2
623.268	585.2
623.681	598.2
624.095	595.8
624.509	607.6
624.922	605.8
625.336	591.2
625.728	595.8
626.142	611.6
626.556	619.8
626.97	605.4
627.384	599.4
627.799	602.8
628.213	602.6
628.627	597.4
629.041	595
629.456	593.4
629.87	595.8
630.285	600.6
630.699	607.4
631.093	597.4
631.507	593
631.922	603.8
632.337	606.6
632.752	586
633.167	595.8
633.582	590.2
633.997	593.4
634.412	594
634.806	599.4
635.221	582.4
635.637	599.2
636.052	590
636.468	593.2
636.883	612
637.299	596.8
637.715	589.8
638.109	599.6
638.525	588.8
638.941	609.2
639.357	596.2
639.773	603.2
640.189	595.2
640.584	597.6
641	605
641.416	590.2
641.832	593.8
642.249	587.2
642.665	591.2
643.06	604.2
643.477	606.6
643.894	586.8
644.31	590
644.727	586.8
645.123	595.4
645.54	580.8
645.957	593.4
646.374	605.2
646.77	590.4
647.187	620.8
647.604	589.2
648.021	578.4
648.439	582.4
648.835	599.6
649.252	602
649.67	596
650.088	587.2
650.484	598.6
650.902	601
651.32	595.8
651.738	585.2
652.134	597.6
652.552	612.2
652.971	599.2
653.389	593
653.786	598
654.204	610
654.622	589
655.019	589.6
655.438	601.6
655.857	596.6
656.275	597.2
656.673	592.6
657.091	604.4
657.51	587.8
657.908	606.8
658.327	610.2
658.746	580
659.144	592.2
659.563	609
659.982	602.2
660.38	584.8
660.8	599.8
661.219	609.6
661.617	591.6
662.037	595.6
662.457	611.8
662.855	576.2
663.275	617.6
663.695	585.4
664.094	593.2
664.514	595.6
664.934	586.2
665.333	597.6
665.753	585.4
666.152	580.8
666.572	583.8
666.993	600.8
667.392	591.6
667.812	587.6
668.212	586.6
668.632	589.2
669.053	593.2
669.453	587.2
669.874	592.4
670.273	600.4
670.694	586.4
671.116	600.8
671.515	600.2
671.937	590
672.337	584.4
672.758	592.8
673.158	597
673.58	580.8
673.98	592.4
674.402	601.4
674.824	587.6
675.224	591
675.646	583.2
676.047	588.4
676.469	593
676.869	600.8
677.292	596.2
677.693	586.6
678.115	582.6
678.516	604.6
678.939	594.4
679.34	588.8
679.762	605.4
680.164	607
680.586	591.4
680.988	599
681.411	619.6
681.812	583.2
682.236	581.2
682.637	577.6
683.061	585.8
683.462	595
683.864	582
684.288	594.8
684.69	587.4
685.114	608.2
685.516	591
685.94	582.2
686.342	599.2
686.766	579.8
687.168	594.6
687.571	605.2
687.995	592.2
688.398	583.6
688.822	592
689.225	606.4
689.628	607.8
690.052	589.4
690.456	594.4
690.88	590.4
691.284	585.6
691.687	597
692.112	584.6
692.515	586.2
692.919	582.8
693.344	597.6
693.747	579.6
694.173	588.8
694.577	595.4
694.98	588.4
695.406	586.6
695.81	584
696.214	592.6
696.64	588
697.044	599.8
697.448	600.8
697.874	591.2
698.279	592.8
698.684	582.4
699.11	584.4
699.514	590.4
699.919	586.6
700.324	580
700.75	586.6
701.156	592.6
701.561	594.6
701.987	598.4
702.393	598.4
702.798	595
703.203	583.2
703.63	587
704.036	591.6
704.442	591.8
704.847	581.2
705.274	583.8
705.68	597.8
706.086	595.4
706.492	578
706.92	584.8
707.326	602.6
707.732	582
708.139	582.8
708.545	572.2
708.973	578.4
709.38	582.4
709.786	567.6
710.193	602
710.6	580.4
711.028	571.6
711.435	586.6
711.842	580.4
712.249	570.4
712.656	581.2
713.064	586.8
713.492	578.6
713.9	575.6
714.307	592.4
714.715	576.8
715.123	583.6
715.53	583.8
715.938	590.2
716.367	585.6
716.775	582
717.184	580.8
717.592	589.2
718	605
718.408	616.2
718.816	625.6
719.225	592.2
719.633	594.2
720.042	580.2
720.472	588.2
720.881	609
721.29	591.4
721.699	578.2
722.108	591.2
722.517	590.2
722.926	587.8
723.335	588.8
723.744	586.8
724.154	589.2
724.563	593.4
724.973	586.8
725.382	586
725.792	590.6
726.202	579.8
726.612	607
727.022	590
727.432	581
779.813	583.6
780.223	635
780.634	588
781.044	579.2
781.454	582.6
781.865	606.8
782.276	573.6
782.686	604.6
783.097	583.8
783.508	581.4
783.919	588.8
784.33	592.2
784.741	607.2
785.152	578.6
785.563	565.4
785.974	578
786.386	602.6
786.776	582.4
787.188	581.2
787.599	577.2
788.011	585.6
788.423	587.2
788.835	576.8
789.247	586
789.659	590.6
790.071	581.4
790.483	624.6
790.874	585.4
791.286	591.4
791.699	585.8
792.111	583
792.524	586.2
792.937	582.6
793.349	585
793.741	580
794.154	578.8
794.567	601.6
794.98	585
795.393	571.8
795.785	598.4
796.198	583.8
796.612	588.4
797.026	575.2
797.439	564.4
797.831	585.6
798.245	576.2
798.659	589.6
799.073	579.4
799.487	576.6
799.88	588.8
800.294	579.8
800.708	586.8
801.123	581.6
801.516	596.4
801.93	576
802.345	574.6
802.76	576.6
803.153	598.2
803.568	595.8
803.983	586.6
804.377	591.2
804.792	569.2
805.207	576.8
805.601	590.2
806.016	622.8
806.432	583.8
806.826	611.6
807.242	594.6
807.658	577.8
808.052	585.8
808.468	578.4
808.884	572.8
809.279	587.4
809.695	602
810.111	606.6
810.506	588
810.922	604.4
811.339	582.2
811.734	588.6
812.151	589.6
812.546	577
812.963	578.8
813.38	590.8
813.776	585.4
814.193	603.6
814.589	580.4
815.006	570.2
815.402	576.6
815.82	580.4
816.237	587
816.633	583.4
817.051	579.2
817.448	584
817.866	569.2
818.262	604.6
818.68	576.2
819.077	580.8
819.495	584.2
819.892	624.8
820.311	583.6
820.708	584.8
821.127	583.6
821.524	591.4
821.943	587.4
822.34	600.2
822.759	584.4
823.157	587.8
823.576	587
823.974	593.4
824.393	609.8
824.791	577
825.189	575.6
825.609	577.6
826.007	579
826.427	569.4
826.826	583.6
827.246	587.8
827.644	575.6
828.043	591.2
828.463	583.4
828.862	596.6
829.261	600.2
829.682	575.2
830.081	593.8
830.502	577
830.901	589
831.301	601
831.722	578.8
832.121	584.4
832.521	575.6
832.943	579.4
833.342	577.4
833.742	577.2
834.164	576.8
834.564	576.6
834.965	581
835.386	578.8
835.787	576.2
836.188	583
836.588	588
837.01	584.6
837.411	582.4
837.812	594.4
838.213	588.8
838.636	573.8
839.037	660
839.438	588.2
839.84	586.2
840.263	585
840.664	580.6
841.066	580.6
841.468	587
841.891	585.8
842.293	591
842.695	587
843.098	604.4
843.5	583.4
843.902	588.8
844.326	583.8
844.729	586.8
845.131	599.8
845.534	585.2
845.937	597.4
846.34	600
846.764	580
847.167	578.6
847.571	575.4
847.974	584.4
848.377	579
848.781	631.2
849.184	594
849.588	579.2
849.992	579
850.396	590
850.821	602.4
851.225	590.6
851.63	571.6
852.034	582
852.438	583.6
852.843	611.8
853.247	576.6
853.652	576.4
854.057	596
854.462	586.8
854.867	591.4
855.272	609
855.677	586.6
856.082	572.4
