#lambda/nm	C1
208.295	508.8
208.67	465.6
209.045	431.4
209.419	432.6
209.794	606.4
210.169	602.6
210.544	722.2
210.919	620
211.295	611
211.67	619.2
212.045	620.4
212.421	615.8
212.796	651.8
213.172	603.8
213.547	603.2
213.923	611.8
214.299	611.2
214.675	624.8
215.051	615.8
215.427	624.8
215.803	630.6
216.179	623
216.555	614.6
216.932	631.6
217.308	619.8
217.684	622.8
218.061	619.8
218.438	612
218.814	609.6
219.191	621.8
219.568	613.2
219.945	611.4
220.322	629.8
220.699	617.8
221.076	625.4
221.453	622.4
221.83	609.4
222.208	617.8
222.585	611
222.962	616.6
223.34	619.8
223.717	622.6
224.095	609.2
224.473	616.2
224.851	606.2
225.229	607
225.607	628
225.985	600.2
226.363	619.2
226.741	614.6
227.119	617.8
227.497	630
227.876	602.8
228.254	620.6
228.633	623.4
229.011	614.8
229.39	620.6
229.769	620.6
230.148	625.4
230.527	634.4
230.905	617.8
231.284	617.6
231.664	611
232.043	628.8
232.422	623.2
232.801	607.2
233.181	630.8
233.56	616.4
233.94	617.8
234.319	602
234.699	616.8
235.079	660.2
235.458	652.6
235.838	638.6
236.218	612.2
236.598	597.8
236.978	614
237.358	612.6
237.738	616.4
238.119	621
238.499	606.8
238.88	611.6
239.26	626.6
239.641	602.8
240.021	616.2
240.402	613.8
240.783	612.2
241.163	615.4
241.544	618
241.925	613.2
242.306	627.8
242.687	621.4
243.069	628.2
243.45	623.4
243.831	619.4
244.212	608.6
244.594	654.8
244.975	625.4
245.357	620
245.739	614
246.12	617.2
246.502	626
246.884	614.8
247.266	617.8
247.648	626.2
248.03	644.6
248.412	620.2
248.794	617.6
249.176	611
249.559	621.2
249.941	607.4
250.323	608.2
250.706	618
251.089	621.8
251.471	618.4
251.854	620
252.237	607.2
252.62	623.2
253.002	615.8
253.385	616
253.769	625.6
254.152	621.4
254.535	626.2
254.918	617.8
255.301	613.6
255.685	613.8
256.068	614.4
256.452	637.6
256.835	624.2
257.219	624.6
257.603	625.6
257.986	614
258.37	626.2
258.754	611.8
259.138	629.8
259.522	623.2
259.906	614.8
260.29	626
260.675	610.8
261.059	618.2
261.443	609.2
261.828	621
262.212	625.8
262.597	608.4
262.981	609.6
263.366	624
263.751	614
264.136	606
264.521	613.4
264.906	604
265.291	621
265.676	610.8
266.061	615.4
266.446	634.4
266.831	613.6
267.217	634.4
267.602	615.6
267.987	615.4
268.373	610.4
268.759	626.6
269.144	623
269.53	615
269.916	608.2
270.302	608
270.688	611.8
271.074	624.6
271.46	630.2
271.846	651.8
272.232	612.8
272.618	617.4
273.004	615.6
273.391	628.8
273.777	623.8
274.164	618
274.55	634
274.937	616.8
275.324	620.8
275.71	624.6
276.097	628.8
276.484	610.8
276.871	613
277.258	619.6
277.645	598.4
278.032	614
278.419	608.2
278.807	616
279.194	601
279.581	606.8
279.969	617
280.356	610
280.744	617.2
281.131	632.8
281.519	624
281.907	615.6
282.295	611.8
282.682	621.2
283.07	621.2
283.458	619.6
283.846	624.8
284.235	636.2
284.623	627.4
285.011	607
285.399	614.4
285.788	604
286.176	606.8
286.565	625
286.953	600.6
287.342	605.8
287.731	607.4
288.119	608.4
288.508	606.8
288.897	614.4
289.286	593.8
289.675	618.6
290.064	619.2
290.453	609.6
290.821	607.2
291.21	636
291.599	605.2
291.989	613.8
292.378	618.4
292.768	631.4
293.157	628.8
293.547	620
293.936	615.4
294.326	604.4
294.716	618
295.106	608.8
295.496	620.6
295.886	621.6
296.276	616
296.666	609.4
297.056	616.2
297.446	608
297.836	629.4
298.227	618
298.617	609.2
299.008	621.6
299.398	616.2
299.789	610.2
300.179	612.8
300.57	629.2
300.961	609.8
301.352	612.4
301.742	628
302.133	622.6
302.524	615.2
302.915	618.6
303.307	608.6
303.698	624.2
304.089	625
304.48	616
304.872	621.4
305.263	619.4
305.655	615.4
306.046	625.6
306.438	623
306.829	618.2
307.221	627.2
307.613	623.8
308.005	636.6
308.397	631.2
308.789	644.6
309.181	637.8
309.573	633.2
309.965	631.8
310.357	617.8
310.749	629.8
311.142	618.8
311.534	615
311.926	623.4
312.319	625
312.711	608.8
313.104	635
313.497	621.8
313.889	652.6
314.282	633.6
314.675	646.4
315.068	623.8
315.461	628.2
315.854	653
316.247	623
316.64	617.8
317.033	621
317.405	626.4
317.798	619.6
318.192	626.6
318.585	612.8
318.979	637.4
319.372	610.2
319.766	617.2
320.16	633.2
320.553	626.8
320.947	633.6
321.341	619.4
321.735	615.6
322.129	599
322.523	635.2
322.917	614.8
323.311	626.8
323.705	628.8
324.099	627.4
324.494	637.2
324.888	626.8
325.282	614
325.677	624
326.071	627.2
326.466	634.6
326.861	629
327.255	631.6
327.65	627
328.045	627.2
328.44	620.2
328.835	625
329.23	612.4
329.625	646
330.02	610
330.415	643.2
330.81	617.8
331.206	617.8
331.601	616.8
331.996	619.6
332.37	632.4
332.766	606
333.161	646
333.557	614.2
333.953	618.4
334.348	850.2
334.744	624.8
335.14	616.8
335.536	616.8
335.932	641
336.328	618.2
336.724	624.2
337.12	617.2
337.516	623
337.913	613
338.309	636.8
338.705	614.4
339.102	637.2
339.498	617.6
339.895	639
340.291	619
340.688	620.8
341.085	612.6
341.481	613.8
341.878	610.4
342.275	636.6
342.672	609.6
343.069	611
343.466	604.2
343.842	619.6
344.239	613
344.636	611.6
345.033	607.8
345.431	603
345.828	610.8
346.225	607.4
346.623	645.2
347.02	622.2
347.418	624.6
347.816	625.4
348.213	618.4
348.611	622.2
349.009	609.8
349.407	620.6
349.805	605
350.203	600.6
350.601	620.8
350.999	615
351.397	667.2
351.795	619.4
352.193	628.6
352.57	626.2
352.969	628.6
353.367	611.4
353.766	615.6
354.164	614.2
354.563	620.6
354.961	619.6
355.36	602.4
355.759	619.8
356.158	605.4
356.557	610
356.956	601.8
357.355	606.4
357.754	616
358.153	618.2
358.552	633.6
358.951	615.8
359.35	627.4
359.75	615.2
360.149	598.2
360.527	601.6
360.926	606.6
361.326	614.2
361.726	615.6
362.125	609.2
362.525	616.8
362.925	605
363.325	615.4
363.724	614.8
364.124	605
364.524	595.8
364.924	608
365.324	622
365.725	594.2
366.125	619
366.525	607.8
366.904	602.6
367.304	590.2
367.705	622
368.105	621.2
368.506	608.2
368.906	606
369.307	610.8
369.708	618
370.108	603.2
370.509	630.2
370.91	600.8
371.311	607.6
371.712	609.4
372.113	611.8
372.514	599.6
372.894	606
373.295	601.6
373.696	618.8
374.097	620.8
374.499	639.4
374.9	612.2
375.301	604
375.703	612.4
376.105	603.8
376.506	608.4
376.908	614.4
377.309	604.8
377.711	611.2
378.113	608.8
378.493	609
378.895	601.8
379.297	614
379.699	599.6
380.102	613.2
380.504	607
380.906	605.8
381.308	632.4
381.71	607.4
382.113	612.6
382.515	605.6
382.918	604.8
383.299	606.4
383.701	618
384.104	611.4
384.507	590.6
384.909	608.4
385.312	585.2
385.715	602
386.118	608.8
386.521	597.2
386.924	614
387.327	598.2
387.709	587
388.112	592.8
388.515	593.6
388.918	598.8
389.322	607
389.725	596.8
390.129	625.2
390.532	617
390.936	607.8
391.339	596.8
391.743	613
392.125	598.6
392.529	612.8
392.933	624
393.337	606.6
393.74	596.8
394.144	608.6
394.548	608.4
394.953	596.6
395.357	615.2
395.761	607.6
396.144	615.4
396.548	611.4
396.952	605.2
397.357	614
397.761	600.4
398.166	598.4
398.57	609.6
398.975	598.4
399.379	607.4
399.763	645.2
400.168	603.6
400.572	610.6
400.977	604.8
401.382	626.6
401.787	612
402.192	632.2
402.597	630.2
403.002	597.2
403.386	618.6
403.791	623.2
404.197	607.6
404.602	613.2
405.007	607.4
405.413	609.6
405.818	614.4
406.224	596.8
406.608	607.8
407.014	599
407.42	618
407.825	611
408.231	620
408.637	615.2
409.043	622.2
409.449	603.6
409.834	613.2
410.24	604
410.646	621.6
411.052	616.4
411.458	616.2
411.865	617.8
412.271	617
412.677	609.8
413.062	613.6
413.469	591.8
413.875	626.8
414.282	630.8
414.689	622.2
415.095	623.8
415.502	602.8
415.888	603.8
416.294	599.6
416.701	654.6
417.108	599.8
417.515	620
417.923	607.4
418.33	635
418.715	612.2
419.123	610.2
419.53	608
419.937	608.6
420.345	623.8
420.752	601.6
421.16	617.8
421.546	614.6
421.953	626.2
422.361	595.8
422.769	609
423.177	607.8
423.585	634.8
423.992	623.4
424.379	622
424.787	619
425.195	622.8
425.603	618.6
426.011	616.2
426.419	624.8
426.806	617.6
427.214	615
427.623	621.2
428.031	629.4
428.44	622.8
428.848	635.8
429.235	633.2
429.644	621
430.053	613.6
430.461	628.8
430.87	634.6
431.279	626
431.666	611
432.075	614.4
432.484	622.6
432.893	614.2
433.302	639.8
433.711	654.2
434.099	625
434.508	618.4
434.918	610.6
435.327	637.4
435.737	634.4
436.125	624.4
436.534	640.6
436.944	634.2
437.353	642.4
437.763	660.2
438.173	638.6
438.561	649.6
438.971	637.8
439.381	650.6
439.791	657.2
440.201	642.8
440.589	669.6
440.999	670.8
441.409	677.6
441.819	663
442.23	693.4
442.619	684
443.029	687.6
443.439	690.6
443.85	709
444.26	714
444.649	705.4
445.06	705.8
445.471	703.8
445.881	709.2
446.292	731.2
446.682	737
447.092	697.4
447.503	772.4
447.914	723.8
448.325	718.6
448.715	726.4
449.126	730.6
449.537	734
449.948	744
450.338	734.2
450.75	738.6
451.161	742.8
451.572	746.2
451.984	738.6
452.374	731.8
452.786	750.8
453.197	750.4
453.609	763
453.999	731.4
454.411	742.2
454.823	758.4
455.235	752.8
455.647	750
456.037	752.8
456.449	738
456.862	758.4
457.274	754.2
457.665	749
458.077	771.4
458.489	795
458.902	757.8
459.293	767
459.705	761
460.118	769.6
460.53	763.6
460.921	766.4
461.334	764.6
461.747	763.4
462.16	777.4
462.551	780
462.964	770.6
463.377	750
463.79	774.8
464.182	781.2
464.595	764.6
465.008	782.4
465.421	786.6
465.813	775
466.226	787.8
466.64	780.6
467.053	820.8
467.445	792.6
467.859	813.6
468.272	792.2
468.686	803.4
469.078	786.4
469.492	780.2
469.906	782
470.298	791.6
470.712	787
471.126	829.4
471.54	767.6
471.933	778.4
472.347	790.6
472.761	787.6
473.175	775
473.568	788
473.982	780.2
474.397	783.8
474.79	784
475.204	793.6
475.619	792.6
476.033	787.2
476.426	787
476.841	785.8
477.256	816.4
477.649	783.6
478.064	782.2
478.479	772.8
478.872	787.6
479.287	770.2
479.702	775.4
480.118	774.2
480.511	780.2
480.927	786
481.342	778
481.736	780.8
482.151	777.6
482.566	790.6
482.96	785.2
483.376	796
483.792	759.6
484.186	789.8
484.602	772.8
485.017	774.2
485.412	770.6
485.827	770.6
486.243	777.8
486.638	803.2
487.054	778.4
487.47	792.4
487.865	765.4
488.281	767.2
488.697	761
489.092	770
489.508	754.6
489.925	770.8
490.32	772.8
490.736	774
491.153	771.8
491.548	769
491.964	767.2
492.381	756.8
492.776	768.4
493.193	770.8
493.61	763
494.006	766
494.422	775.8
494.84	761.8
495.235	764.6
495.652	759.4
496.069	752.2
496.465	744.4
496.883	757.6
497.3	776.8
497.696	744
498.113	760
498.509	748.2
498.927	746.8
499.344	739.4
499.741	747.2
500.158	755
500.576	753.2
500.973	750.2
501.39	741.8
501.787	725
502.205	741.2
502.623	745.2
503.02	732
503.438	721.2
503.856	742
504.253	739.2
504.671	739.8
505.068	726.4
505.486	725.4
505.905	745.8
506.302	721.8
506.72	737.8
507.118	722.6
507.536	734.4
507.955	734.8
508.352	730
508.771	730.6
509.169	722.2
509.587	713.8
510.006	721
510.404	704
510.823	724.2
511.221	715.8
511.64	723.2
512.038	724
512.457	709.2
512.877	713.4
513.275	701.6
513.694	710.2
514.092	707.8
514.512	711
514.91	712.2
515.33	704.6
515.749	701.4
516.148	701.4
516.568	705
516.966	706
517.386	699.6
517.785	694
518.205	695.2
518.603	689.2
519.024	693.2
519.444	688.8
519.843	699.6
520.263	703
520.662	690.6
521.082	696
521.481	690.2
521.902	695.4
522.301	685
522.722	698
523.121	685.4
523.542	679.8
523.963	677.4
524.362	685
524.783	685.2
525.183	684.2
525.604	697.8
526.003	673.8
526.425	670.8
526.824	693
527.246	687.8
527.646	685
528.067	674.2
528.467	681.4
528.888	682.6
529.289	672.4
529.71	666.6
530.11	670.8
530.532	675.4
530.932	663.4
531.354	669
531.755	702.6
532.176	674.8
532.577	658.2
532.999	666.8
533.4	666.8
533.822	668.6
534.223	673
534.645	666
535.046	665
535.468	664.4
535.869	674.6
536.292	648.2
536.693	690.6
537.115	665.4
537.516	656.6
537.939	659.4
538.34	673.4
538.742	665.8
539.165	657.6
539.566	663
539.989	649
540.391	655
540.814	656.4
541.216	654.4
541.639	658.4
542.041	665.8
542.464	645.6
542.866	651
543.268	658
543.691	659.2
544.093	662.4
544.517	665.8
544.919	644.2
545.343	681.2
545.745	646.4
546.147	651.6
546.571	646.4
546.974	642
547.398	650.2
547.8	665
548.224	642
548.627	635
549.03	651.6
549.454	641.6
549.857	638.8
550.281	640
550.684	636
551.087	652.8
551.512	642.6
551.915	651.2
552.34	640.4
552.743	636.4
553.146	638.6
553.571	643.4
553.975	665.2
554.399	636.6
554.803	690.8
555.207	641.2
555.632	636.6
556.036	646.2
556.461	632.8
556.865	635.4
557.268	632.4
557.694	631.2
558.098	631.6
558.502	638.8
558.927	624.8
559.332	628
559.736	634.2
560.162	628.4
560.566	623.2
560.992	639.2
561.396	626.4
561.801	637.6
562.227	632.8
562.631	621.6
563.036	626.8
563.462	630.6
563.867	629.2
564.272	619.8
564.698	631.8
565.103	616
565.508	648.4
565.935	626.4
566.34	621.6
566.745	640.4
567.172	620.8
567.577	641.4
567.982	632
568.409	620.4
568.815	625
569.22	634.4
569.626	628.4
570.053	608
570.459	626
570.865	621.4
571.292	624
571.698	625.8
572.104	600.6
572.531	616
572.937	631.8
573.343	619.2
573.75	615.8
574.177	618.6
574.583	620.6
574.99	623.2
575.396	625.8
575.824	616
576.231	623
576.637	610.6
577.065	646.4
577.472	613.6
577.879	608.2
578.286	630.4
578.714	610.4
579.121	612.6
579.528	616.2
579.935	621.2
580.364	613
580.771	606.6
581.178	601.2
581.585	617.8
582.014	625.2
582.421	605.6
582.829	607.4
583.236	611.4
583.644	603
584.073	609.8
584.481	610.4
584.889	605
585.296	618.2
585.726	611.4
586.134	607.2
586.542	608
586.95	635.2
587.358	605.8
587.787	602.6
588.196	616
588.604	609.4
589.012	611.4
589.421	599.6
589.851	602.2
590.259	611.4
590.668	601.4
591.076	642.2
591.485	603
591.894	609.6
592.324	620.8
592.733	621.4
593.142	596.8
593.551	596.2
593.96	604
594.369	601.6
594.8	598
595.209	603.4
595.618	584.6
596.028	601
596.437	594.2
596.847	611
597.256	610
597.687	607.6
598.097	603.2
598.507	594.8
598.917	604.4
599.327	608.4
599.736	612.6
600.146	619
600.556	606.2
600.988	612
601.398	602.2
601.808	614.2
602.219	584.2
602.629	598.4
603.039	604.8
603.45	629.4
603.86	605.4
604.271	623.2
604.703	606.2
605.114	602.4
605.525	609.2
605.935	606
606.346	626.6
606.757	606.4
607.168	600.6
607.579	598
607.99	610
608.402	596.2
608.813	603.2
609.224	587.2
609.636	590.6
610.047	596.2
610.48	597.6
610.892	599
611.303	609.2
611.715	599.2
612.127	588.4
612.539	592.2
612.95	594.4
613.362	595.8
613.774	592
614.186	604
614.599	589
615.011	598.4
615.423	592.6
615.835	598.6
616.248	590.6
616.66	606
617.073	591.6
617.485	595.4
617.898	614
618.311	601.2
618.723	604.8
619.136	621.6
619.549	617
619.962	632.6
620.375	600.4
620.788	607.6
621.201	590.6
621.614	601.2
622.028	599.2
622.441	604.8
622.854	605.6
623.268	584.6
623.681	598.6
624.095	596.2
624.509	605
624.922	606.2
625.336	589.8
625.728	596
626.142	613.2
626.556	616.8
626.97	607.6
627.384	594.4
627.799	596.2
628.213	607.8
628.627	596.6
629.041	595.6
629.456	595.8
629.87	599
630.285	612.4
630.699	610
631.093	603.6
631.507	604.6
631.922	605.2
632.337	612.8
632.752	592.2
633.167	596.2
633.582	591.8
633.997	594.8
634.412	598.2
634.806	593.2
635.221	587
635.637	608.8
636.052	591.8
636.468	597.4
636.883	613
637.299	589
637.715	584.4
638.109	598
638.525	581.6
638.941	603.2
639.357	600.6
639.773	608.8
640.189	585.8
640.584	597.4
641	598.6
641.416	590.2
641.832	594
642.249	589.4
642.665	593
643.06	602.4
643.477	597.4
643.894	587
644.31	590.6
644.727	586.8
645.123	593
645.54	591.8
645.957	593.4
646.374	607.2
646.77	595.6
647.187	628.2
647.604	602.6
648.021	586.6
648.439	580.4
648.835	594
649.252	596
649.67	592.8
650.088	593
650.484	607.8
650.902	606.6
651.32	594.6
651.738	587.2
652.134	589.8
652.552	610.4
652.971	607.4
653.389	598.6
653.786	605.8
654.204	618.4
654.622	583.4
655.019	593.2
655.438	598.4
655.857	600.4
656.275	601
656.673	599
657.091	594.8
657.51	585
657.908	606.8
658.327	609
658.746	580.6
659.144	597.2
659.563	613.4
659.982	587.4
660.38	589.4
660.8	597
661.219	605.4
661.617	595.4
662.037	585.2
662.457	602
662.855	586.2
663.275	634
663.695	588.6
664.094	594.6
664.514	597.8
664.934	580.6
665.333	600.8
665.753	591.6
666.152	581.8
666.572	581
666.993	599.6
667.392	589.6
667.812	584.4
668.212	578.8
668.632	599.2
669.053	589.2
669.453	588.4
669.874	590.8
670.273	591.2
670.694	577.2
671.116	598.6
671.515	589
671.937	592.2
672.337	593.6
672.758	586.2
673.158	592.4
673.58	580.4
673.98	591.8
674.402	597
674.824	587
675.224	583.4
675.646	578.2
676.047	588.2
676.469	586.6
676.869	595
677.292	584.8
677.693	581.4
678.115	585.8
678.516	587
678.939	595.8
679.34	589.6
679.762	597.2
680.164	583.6
680.586	591.4
680.988	592
681.411	601.8
681.812	585.6
682.236	586.2
682.637	582.2
683.061	583.4
683.462	588.8
683.864	587.6
684.288	595
684.69	577
685.114	610.2
685.516	597
685.94	576.6
686.342	587.8
686.766	589.4
687.168	590.4
687.571	616
687.995	589
688.398	577
688.822	592.4
689.225	607.6
689.628	594
690.052	591.6
690.456	599.4
690.88	593.8
691.284	585
691.687	593.6
692.112	585.8
692.515	576.4
692.919	591.6
693.344	591.2
693.747	587.8
694.173	583
694.577	601.6
694.98	588.6
695.406	583.4
695.81	600.6
696.214	593.6
696.64	594.2
697.044	602.8
697.448	601
697.874	586.4
698.279	584.8
698.684	592
699.11	585.6
699.514	586.8
699.919	588
700.324	579
700.75	589
701.156	599
701.561	596.6
701.987	597
702.393	600.8
702.798	601.8
703.203	592.4
703.63	587.8
704.036	593.2
704.442	589
704.847	575.4
705.274	577.2
705.68	597.6
706.086	591.8
706.492	576.4
706.92	587.6
707.326	596.4
707.732	582.2
708.139	577.6
708.545	582.2
708.973	577.6
709.38	592.2
709.786	578.8
710.193	593.6
710.6	584.8
711.028	578.8
711.435	592.2
711.842	585
712.249	579.6
712.656	584.4
713.064	597.4
713.492	581
713.9	583
714.307	591.6
714.715	585
715.123	595.2
715.53	594.6
715.938	608.2
716.367	592.2
716.775	585.8
717.184	585.8
717.592	595.4
718	602
718.408	618
718.816	636
719.225	591.2
719.633	585.4
720.042	590
720.472	580
720.881	600.6
721.29	596
721.699	586
722.108	591.2
722.517	592.6
722.926	588.4
723.335	601.2
723.744	588.8
724.154	588.4
724.563	590.6
724.973	591.4
725.382	587.2
725.792	588.8
726.202	583.2
726.612	607.4
727.022	587
727.432	579.6
779.813	587.6
780.223	640.8
780.634	583.4
781.044	578.6
781.454	589.6
781.865	600
782.276	580.4
782.686	598.2
783.097	579
783.508	584.8
783.919	594.2
784.33	600.4
784.741	599.2
785.152	579.2
785.563	577.6
785.974	583.6
786.386	595.4
786.776	577.4
787.188	589
787.599	578.6
788.011	599
788.423	590
788.835	591.8
789.247	581
789.659	584.4
790.071	584
790.483	624.6
790.874	587.6
791.286	598.8
791.699	583.8
792.111	588.2
792.524	589.6
792.937	585.4
793.349	579.2
793.741	568.2
794.154	575
794.567	608.8
794.98	582.2
795.393	575.4
795.785	601.4
796.198	576
796.612	588.6
797.026	573
797.439	567.4
797.831	593.4
798.245	580.6
798.659	587.6
799.073	586.2
799.487	586.6
799.88	588.8
800.294	579.8
800.708	589
801.123	583
801.516	599.2
801.93	568.4
802.345	575
802.76	590.2
803.153	593.4
803.568	592.4
803.983	589.8
804.377	590.2
804.792	579.2
805.207	572.4
805.601	583
806.016	626.8
806.432	581.8
806.826	610
807.242	601.6
807.658	582
808.052	578
808.468	578.6
808.884	582
809.279	588.2
809.695	592.4
810.111	607.6
810.506	582
810.922	600.4
811.339	591.8
811.734	592.6
812.151	578
812.546	577
812.963	579
813.38	593
813.776	587
814.193	606.8
814.589	580
815.006	582.4
815.402	572.4
815.82	572.4
816.237	574.4
816.633	585.8
817.051	570
817.448	582.2
817.866	574.8
818.262	600.6
818.68	575.6
819.077	581.8
819.495	587
819.892	622.6
820.311	575
820.708	574.2
821.127	580.2
821.524	589
821.943	581.4
822.34	606
822.759	580.4
823.157	590.6
823.576	595.8
823.974	585.2
824.393	629.6
824.791	576.2
825.189	569
825.609	579
826.007	583.6
826.427	572
826.826	577
827.246	580
827.644	564.6
828.043	596.8
828.463	572.8
828.862	591.6
829.261	586
829.682	570.8
830.081	587.6
830.502	574.8
830.901	579.2
831.301	589.6
831.722	578.6
832.121	575.8
832.521	574.8
832.943	586.8
833.342	581
833.742	573.2
834.164	585.8
834.564	572.8
834.965	573.6
835.386	578.4
835.787	585.4
836.188	577
836.588	591.4
837.01	584
837.411	580
837.812	594.2
838.213	585.2
838.636	577
839.037	649
839.438	586.4
839.84	589.4
840.263	590.6
840.664	582.6
841.066	581
841.468	576.6
841.891	577.8
842.293	595
842.695	585.2
843.098	599
843.5	580.2
843.902	582.8
844.326	584.2
844.729	582
845.131	598.8
845.534	589.8
845.937	592.2
846.34	598.4
846.764	580.2
847.167	589
847.571	580.8
847.974	575.2
848.377	588.8
848.781	636
849.184	604.4
849.588	570.4
849.992	573.2
850.396	591.6
850.821	604.8
851.225	588
851.63	582.8
852.034	589.4
852.438	579
852.843	609.4
853.247	578.8
853.652	576.6
854.057	598.2
854.462	575.8
854.867	593.4
855.272	609.4
855.677	589.8
856.082	577
856.487	569.6
856.893	584.4
857.298	573.8
857.704	578
858.11	584.8
858.516	587.2
858.922	582
