#lambda/nm	C1
208.295	504.6
208.67	465.8
209.045	423.4
209.419	425.6
209.794	610.6
210.169	595.6
210.544	716.2
210.919	611.6
211.295	611.6
211.67	613
212.045	606
212.421	610.4
212.796	647
213.172	611.8
213.547	608.2
213.923	604.8
214.299	609.6
214.675	626.2
215.051	617.4
215.427	615.6
215.803	634.8
216.179	618.4
216.555	612.8
216.932	614
217.308	616.4
217.684	615.8
218.061	616.8
218.438	622.2
218.814	600.8
219.191	619.2
219.568	608.6
219.945	610.6
220.322	626
220.699	620.6
221.076	624.4
221.453	622.2
221.83	604.6
222.208	615.8
222.585	618.2
222.962	613.8
223.34	622
223.717	620.2
224.095	608.8
224.473	614.8
224.851	601.8
225.229	608.2
225.607	633.8
225.985	607.4
226.363	616.8
226.741	613.4
227.119	611.4
227.497	624.6
227.876	602.4
228.254	622
228.633	613.8
229.011	620.6
229.39	621
229.769	619.4
230.148	620
230.527	636.8
230.905	606
231.284	614.8
231.664	613.8
232.043	629.8
232.422	618.2
232.801	603.2
233.181	618.4
233.56	609.2
233.94	614.4
234.319	601.6
234.699	611.4
235.079	657.8
235.458	655.2
235.838	627.8
236.218	605.2
236.598	611
236.978	609.4
237.358	609
237.738	603.6
238.119	618.2
238.499	601
238.88	615
239.26	624.8
239.641	602.2
240.021	608.6
240.402	606.6
240.783	605.4
241.163	598
241.544	607.6
241.925	613.8
242.306	628
242.687	616
243.069	610.4
243.45	619.6
243.831	610
244.212	610
244.594	648.4
244.975	618.6
245.357	614.4
245.739	611.2
246.12	610
246.502	627.6
246.884	604
247.266	612.6
247.648	614
248.03	635.6
248.412	613.6
248.794	622.4
249.176	609.4
249.559	621.6
249.941	605
250.323	600.8
250.706	606.8
251.089	614.2
251.471	619.2
251.854	617.8
252.237	610.6
252.62	621.4
253.002	612.6
253.385	617
253.769	632
254.152	612.2
254.535	621
254.918	603.2
255.301	613.4
255.685	609.6
256.068	603.6
256.452	634.4
256.835	625
257.219	623.2
257.603	629.6
257.986	606
258.37	620.6
258.754	606
259.138	621.6
259.522	614.8
259.906	606.6
260.29	614.8
260.675	614.2
261.059	619.8
261.443	606.4
261.828	614.6
262.212	609.2
262.597	600.8
262.981	611.4
263.366	616.8
263.751	615.4
264.136	610.6
264.521	607.8
264.906	603
265.291	620.8
265.676	605.2
266.061	620.8
266.446	626.4
266.831	617.2
267.217	638.4
267.602	612.8
267.987	616.2
268.373	606
268.759	616.8
269.144	624.2
269.53	609
269.916	608.2
270.302	613.8
270.688	611.8
271.074	618.6
271.46	627
271.846	641.4
272.232	612
272.618	608.4
273.004	611.8
273.391	624
273.777	627.8
274.164	616
274.55	633
274.937	615.8
275.324	611.2
275.71	614.2
276.097	619.4
276.484	604.4
276.871	621.4
277.258	618.4
277.645	599.2
278.032	612.8
278.419	610
278.807	618.8
279.194	609
279.581	612.4
279.969	618.8
280.356	611.4
280.744	616.8
281.131	638.6
281.519	628.2
281.907	611.2
282.295	610.2
282.682	625.4
283.07	616.8
283.458	630.4
283.846	624.2
284.235	621.6
284.623	622
285.011	606.4
285.399	615
285.788	614.6
286.176	606.4
286.565	626.6
286.953	605.2
287.342	606.8
287.731	604.8
288.119	597.4
288.508	609.4
288.897	624
289.286	597.2
289.675	610
290.064	634.8
290.453	606.6
290.821	613
291.21	624.6
291.599	611.6
291.989	621.2
292.378	628.6
292.768	631.6
293.157	617.4
293.547	624.8
293.936	610.8
294.326	613.4
294.716	614
295.106	607.4
295.496	627
295.886	630
296.276	615.4
296.666	615.4
297.056	611.6
297.446	607
297.836	632.2
298.227	610.2
298.617	610.4
299.008	626.8
299.398	607.6
299.789	615
300.179	618
300.57	629.4
300.961	606.4
301.352	613.2
301.742	626.4
302.133	623.6
302.524	609.4
302.915	613
303.307	603.4
303.698	625.8
304.089	619.4
304.48	616.8
304.872	622.4
305.263	616.2
305.655	607.8
306.046	619
306.438	623.8
306.829	610.6
307.221	627.6
307.613	618
308.005	626
308.397	625.8
308.789	636.4
309.181	641.8
309.573	627
309.965	629.6
310.357	619.4
310.749	627.8
311.142	609
311.534	611
311.926	624.8
312.319	617.2
312.711	609
313.104	625
313.497	616
313.889	651.4
314.282	636.6
314.675	644.8
315.068	619
315.461	615
315.854	643.2
316.247	634.8
316.64	624.4
317.033	619.8
317.405	628
317.798	617
318.192	619
318.585	612.4
318.979	630.8
319.372	612.2
319.766	617.4
320.16	631.6
320.553	620.4
320.947	645.4
321.341	614.8
321.735	613.6
322.129	603.2
322.523	655
322.917	598.2
323.311	627.4
323.705	618
324.099	624.2
324.494	635
324.888	623
325.282	616
325.677	630.6
326.071	631.8
326.466	628.8
326.861	618.8
327.255	626.8
327.65	630
328.045	634.6
328.44	622.2
328.835	620.6
329.23	613.6
329.625	646.2
330.02	609.4
330.415	638.6
330.81	629
331.206	620
331.601	615.8
331.996	618.4
332.37	634.4
332.766	608.6
333.161	644.4
333.557	611.2
333.953	617.4
334.348	930.2
334.744	618
335.14	609.2
335.536	609.2
335.932	637.2
336.328	616.2
336.724	624
337.12	620.2
337.516	618.2
337.913	616.4
338.309	629.2
338.705	614.4
339.102	623
339.498	603.8
339.895	628.8
340.291	608.6
340.688	620.2
341.085	598.2
341.481	606.8
341.878	614
342.275	645.4
342.672	617
343.069	602.4
343.466	600.2
343.842	628.6
344.239	601.8
344.636	619.4
345.033	606.2
345.431	604.6
345.828	612.2
346.225	608.2
346.623	643.8
347.02	616.8
347.418	624.8
347.816	628.8
348.213	603.8
348.611	629
349.009	611
349.407	624.4
349.805	607.6
350.203	603.4
350.601	623.2
350.999	608.4
351.397	673.2
351.795	616.6
352.193	619.2
352.57	622.4
352.969	622
353.367	606.2
353.766	605.8
354.164	602
354.563	619.8
354.961	607.2
355.36	605.6
355.759	611.6
356.158	612.2
356.557	594.4
356.956	599
357.355	600
357.754	616.2
358.153	620.6
358.552	626.6
358.951	605.4
359.35	620.2
359.75	612
360.149	611
360.527	588.4
360.926	603
361.326	607.4
361.726	609.2
362.125	600.4
362.525	618.4
362.925	615
363.325	610
363.724	600.8
364.124	599.8
364.524	598.8
364.924	603.4
365.324	618.6
365.725	593.6
366.125	609.2
366.525	610
366.904	600.6
367.304	590.4
367.705	618.6
368.105	619.8
368.506	607.2
368.906	607.2
369.307	597.8
369.708	612.2
370.108	595.4
370.509	623
370.91	594.8
371.311	610
371.712	617.2
372.113	607.2
372.514	592.6
372.894	605
373.295	605
373.696	610.8
374.097	622.6
374.499	634.2
374.9	611
375.301	597.8
375.703	608.8
376.105	600.4
376.506	612.4
376.908	614.2
377.309	604.8
377.711	602.8
378.113	604.4
378.493	612.8
378.895	600.6
379.297	617
379.699	595.6
380.102	616.4
380.504	609.4
380.906	599.8
381.308	625.6
381.71	606
382.113	619.6
382.515	607.4
382.918	600.4
383.299	600.2
383.701	615
384.104	607.8
384.507	584.4
384.909	607
385.312	592.4
385.715	597.2
386.118	609.4
386.521	591.6
386.924	619.8
387.327	597.2
387.709	590.8
388.112	585
388.515	604.4
388.918	602.6
389.322	606.6
389.725	598.2
390.129	632.4
390.532	613.8
390.936	596.4
391.339	597.4
391.743	616.6
392.125	602
392.529	618.4
392.933	619.6
393.337	606.6
393.74	606
394.144	605.8
394.548	604.8
394.953	612
395.357	616.6
395.761	606.4
396.144	615
396.548	609.6
396.952	606.6
397.357	605.8
397.761	598.4
398.166	598.2
398.57	607.2
398.975	588.6
399.379	601.4
399.763	652.2
400.168	607.2
400.572	600.8
400.977	596.6
401.382	624.2
401.787	619.4
402.192	630
402.597	625
403.002	598
403.386	613
403.791	619.6
404.197	595.4
404.602	607.2
405.007	598.6
405.413	607.6
405.818	615.6
406.224	601.2
406.608	606.8
407.014	598.8
407.42	628.6
407.825	604.4
408.231	617
408.637	604.4
409.043	614.6
409.449	605.2
409.834	608.4
410.24	599.8
410.646	621.8
411.052	617.4
411.458	614
411.865	614.2
412.271	614.2
412.677	601
413.062	612
413.469	602.4
413.875	631.4
414.282	625.4
414.689	616.6
415.095	606.4
415.502	598
415.888	608.8
416.294	596.6
416.701	650.4
417.108	602.8
417.515	617
417.923	608.2
418.33	632.8
418.715	616.6
419.123	601.2
419.53	602.2
419.937	608.8
420.345	623
420.752	603.6
421.16	626
421.546	616.2
421.953	613.6
422.361	596.4
422.769	609.4
423.177	599.8
423.585	634.8
423.992	636.6
424.379	618.2
424.787	618.6
425.195	635.4
425.603	616.6
426.011	622.6
426.419	627.6
426.806	616
427.214	620.2
427.623	619.6
428.031	633.6
428.44	616.2
428.848	621.2
429.235	634.8
429.644	618.2
430.053	602.8
430.461	631
430.87	640
431.279	622
431.666	609
432.075	616.8
432.484	612.4
432.893	607.4
433.302	633
433.711	652.8
434.099	612.2
434.508	602.2
434.918	599.2
435.327	611.6
435.737	607.2
436.125	611.2
436.534	626
436.944	611.8
437.353	622.2
437.763	640.4
438.173	611
438.561	637.2
438.971	602.6
439.381	627.2
439.791	627.2
440.201	611
440.589	626.2
440.999	641.6
441.409	639.4
441.819	618
442.23	655.6
442.619	655
443.029	639.6
443.439	643.8
443.85	661
444.26	672.6
444.649	664.8
445.06	660.6
445.471	656.8
445.881	657.6
446.292	685.4
446.682	689
447.092	652
447.503	718
447.914	674.4
448.325	674.4
448.715	685.6
449.126	668
449.537	679
449.948	669.2
450.338	688.6
450.75	690.6
451.161	686.6
451.572	687.4
451.984	679.4
452.374	669.8
452.786	683.2
453.197	682.8
453.609	695.8
453.999	668.6
454.411	682
454.823	694
455.235	690.4
455.647	679.6
456.037	696.6
456.449	666
456.862	693
457.274	692.4
457.665	681.6
458.077	686.8
458.489	712.4
458.902	682.6
459.293	695.6
459.705	690.2
460.118	687.4
460.53	686
460.921	682.2
461.334	693.8
461.747	693.2
462.16	702.6
462.551	704.8
462.964	696.4
463.377	672.4
463.79	684.6
464.182	701.2
464.595	695
465.008	706.2
465.421	713.6
465.813	698
466.226	706.8
466.64	701
467.053	739.8
467.445	708.2
467.859	706.4
468.272	700.2
468.686	717
469.078	701.4
469.492	698.2
469.906	709
470.298	708.6
470.712	695.6
471.126	757.6
471.54	694.8
471.933	696.2
472.347	700.4
472.761	698.8
473.175	695.6
473.568	706
473.982	695.4
474.397	706.4
474.79	702.2
475.204	711.6
475.619	701
476.033	700.8
476.426	709.2
476.841	690.4
477.256	715
477.649	695
478.064	684.6
478.479	692
478.872	688.6
479.287	681.2
479.702	689.4
480.118	703.4
480.511	691.2
480.927	691.8
481.342	695.4
481.736	705.2
482.151	691.4
482.566	709
482.96	700.8
483.376	708.4
483.792	687.6
484.186	700.2
484.602	695.4
485.017	699.4
485.412	693.4
485.827	702.2
486.243	696.2
486.638	719.2
487.054	704.8
487.47	710.6
487.865	688.2
488.281	682
488.697	689.4
489.092	697.8
489.508	681.6
489.925	693
490.32	688.4
490.736	704.6
491.153	695.2
491.548	700.8
491.964	692.8
492.381	682.2
492.776	694.2
493.193	696.8
493.61	689.2
494.006	692.6
494.422	695
494.84	676
495.235	698.2
495.652	678.8
496.069	675.4
496.465	676.2
496.883	685.4
497.3	705.4
497.696	681.6
498.113	687.4
498.509	679.6
498.927	671.8
499.344	672
499.741	673.2
500.158	689.8
500.576	686.6
500.973	683.4
501.39	673.4
501.787	671.8
502.205	680
502.623	670.2
503.02	665.2
503.438	674
503.856	682.4
504.253	668.6
504.671	679.6
505.068	675.8
505.486	671.4
505.905	689
506.302	668.4
506.72	674.6
507.118	660
507.536	674.6
507.955	657.4
508.352	674.8
508.771	671.2
509.169	671
509.587	661.4
510.006	666.2
510.404	657.2
510.823	658.2
511.221	667
511.64	664.4
512.038	673.4
512.457	657
512.877	664
513.275	657.4
513.694	661.2
514.092	658.6
514.512	653.2
514.91	670.4
515.33	649.6
515.749	663.6
516.148	658.4
516.568	660.2
516.966	661.4
517.386	649
517.785	658
518.205	650.8
518.603	648.2
519.024	655
519.444	661
519.843	661.8
520.263	664.4
520.662	651
521.082	651
521.481	658.6
521.902	655.4
522.301	656
522.722	656
523.121	655
523.542	653.8
523.963	656.2
524.362	656.4
524.783	654.6
525.183	651.4
525.604	655.6
526.003	644
526.425	635.8
526.824	648.4
527.246	657.8
527.646	656.4
528.067	646.4
528.467	644.4
528.888	648.6
529.289	640.4
529.71	647
530.11	639.6
530.532	631.4
530.932	633
531.354	628.2
531.755	665.8
532.176	645.6
532.577	628
532.999	639.2
533.4	633
533.822	645.8
534.223	649.8
534.645	632
535.046	635
535.468	636.2
535.869	642.4
536.292	629.2
536.693	670
537.115	633.4
537.516	630.6
537.939	632
538.34	650.4
538.742	652
539.165	632.8
539.566	623.4
539.989	638.6
540.391	630.2
540.814	636.8
541.216	632
541.639	634
542.041	637.6
542.464	632.4
542.866	624.2
543.268	629
543.691	637
544.093	641.6
544.517	651.2
544.919	622
545.343	650.8
545.745	628
546.147	635.4
546.571	635.4
546.974	614.4
547.398	629.6
547.8	639.2
548.224	624.8
548.627	617.4
549.03	636.8
549.454	623.6
549.857	617.8
550.281	614.4
550.684	616.8
551.087	630
551.512	630.4
551.915	630.4
552.34	629.8
552.743	619.6
553.146	616
553.571	626.8
553.975	641
554.399	626.8
554.803	664.6
555.207	620
555.632	608.8
556.036	620.2
556.461	614.4
556.865	632.8
557.268	614.6
557.694	614.8
558.098	628.8
558.502	623.4
558.927	617.8
559.332	626.4
559.736	621.4
560.162	616.8
560.566	620
560.992	626.2
561.396	619.4
561.801	623
562.227	615.4
562.631	617
563.036	617.2
563.462	634.8
563.867	611.6
564.272	612
564.698	622.2
565.103	608.6
565.508	633.8
565.935	614.8
566.34	616.2
566.745	636.6
567.172	613.4
567.577	642
567.982	625.2
568.409	616
568.815	605.8
569.22	617
569.626	622.6
570.053	600.2
570.459	612
570.865	613.6
571.292	617.2
571.698	624
572.104	611.6
572.531	609.4
572.937	627.6
573.343	616.6
573.75	608
574.177	616
574.583	616.2
574.99	604.4
575.396	615
575.824	609.6
576.231	616.4
576.637	605.8
577.065	637.6
577.472	607.8
577.879	609.2
578.286	639.4
578.714	605.2
579.121	610
579.528	612.6
579.935	616.8
580.364	609.4
580.771	590.6
581.178	599.6
581.585	614
582.014	606
582.421	599.6
582.829	605.6
583.236	617.4
583.644	608.2
584.073	612.6
584.481	615.8
584.889	601.8
585.296	602
585.726	608.8
586.134	598.2
586.542	599.6
586.95	617.4
587.358	594
587.787	607.4
588.196	620
588.604	596.8
589.012	607.6
589.421	596.2
589.851	596.6
590.259	609
590.668	600.2
591.076	643
591.485	595.4
591.894	607
592.324	619.8
592.733	619.6
593.142	598
593.551	598
593.96	633.2
594.369	596.4
594.8	587.8
595.209	598.4
595.618	586.2
596.028	590.4
596.437	603
596.847	605.2
597.256	598.2
597.687	591.2
598.097	603
598.507	596.4
598.917	603
599.327	598.4
599.736	606.2
600.146	614.2
600.556	605.2
600.988	611.2
601.398	601.4
601.808	611
602.219	586.8
602.629	596.2
603.039	610.4
603.45	625
603.86	592
604.271	612.2
604.703	599.4
605.114	592.8
605.525	594.4
605.935	599.2
606.346	621.4
606.757	603.8
607.168	593.2
607.579	599.6
607.99	607
608.402	600
608.813	605.6
609.224	588.4
609.636	589.4
610.047	597.6
610.48	593
610.892	603
611.303	607.2
611.715	585.6
612.127	587
612.539	601.2
612.95	595.6
613.362	576.6
613.774	578.8
614.186	585
614.599	586.8
615.011	605
615.423	592
615.835	596.8
616.248	589.6
616.66	606.4
617.073	583.8
617.485	592.2
617.898	596.6
618.311	596.4
618.723	588
619.136	626.8
619.549	613
619.962	615.4
620.375	590
620.788	593.4
621.201	595.6
621.614	601
622.028	595.4
622.441	595.6
622.854	606.2
623.268	578.6
623.681	601.4
624.095	595.6
624.509	600
624.922	604.2
625.336	589
625.728	593.2
626.142	610.4
626.556	616
626.97	591.8
627.384	585
627.799	586.4
628.213	605.8
628.627	595.2
629.041	583.6
629.456	586.4
629.87	581.6
630.285	606.4
630.699	599.4
631.093	592.8
631.507	599
631.922	595.6
632.337	601.8
632.752	586
633.167	584.6
633.582	588.6
633.997	589
634.412	588.8
634.806	596.6
635.221	587.2
635.637	602.4
636.052	586.6
636.468	594.2
636.883	611.8
637.299	597.6
637.715	578.8
638.109	591.2
638.525	583.4
638.941	598.2
639.357	591.4
639.773	601.4
640.189	585.4
640.584	592.2
641	594.8
641.416	581.2
641.832	588
642.249	591.8
642.665	596.6
643.06	593
643.477	599.8
643.894	585.8
644.31	590.6
644.727	593.6
645.123	594.6
645.54	582.6
645.957	584.4
646.374	606
646.77	594.6
647.187	626.6
647.604	584.2
648.021	572.8
648.439	583.6
648.835	590.6
649.252	595.6
649.67	590.2
650.088	587.4
650.484	592
650.902	598.6
651.32	590.8
651.738	588.8
652.134	586.8
652.552	609.4
652.971	597.6
653.389	581.8
653.786	599.2
654.204	609.8
654.622	577.8
655.019	587
655.438	590.6
655.857	593.2
656.275	587.8
656.673	587.4
657.091	590.2
657.51	578.8
657.908	597
658.327	594.8
658.746	578.2
659.144	584
659.563	596
659.982	590.2
660.38	582.2
660.8	594.6
661.219	599.2
661.617	598
662.037	600.6
662.457	603.6
662.855	576.2
663.275	619
663.695	585.2
664.094	588.8
664.514	591
664.934	579.4
665.333	593.8
665.753	587
666.152	583.8
666.572	588.4
666.993	596.2
667.392	586.2
667.812	589.2
668.212	589.8
668.632	600.6
669.053	584
669.453	592.6
669.874	595.2
670.273	598
670.694	582.8
671.116	598
671.515	595.4
671.937	581
672.337	588.8
672.758	583.8
673.158	592.8
673.58	577.4
673.98	591.8
674.402	594.8
674.824	586.2
675.224	575.6
675.646	579.8
676.047	584.8
676.469	592.6
676.869	587
677.292	586
677.693	583
678.115	576.8
678.516	600.6
678.939	596.8
679.34	588.6
679.762	594.6
680.164	588.6
680.586	581.8
680.988	583.8
681.411	617.2
681.812	584.4
682.236	572.2
682.637	575.8
683.061	568.6
683.462	591.2
683.864	581.8
684.288	597.2
684.69	576.8
685.114	593
685.516	599.2
685.94	586.2
686.342	593.2
686.766	576.6
687.168	580.4
687.571	598.4
687.995	583.4
688.398	577
688.822	587.2
689.225	598.4
689.628	608.2
690.052	585.6
690.456	586.2
690.88	587.6
691.284	571.2
691.687	592
692.112	573.8
692.515	576.8
692.919	582.6
693.344	591.8
693.747	579.4
694.173	574.4
694.577	594.4
694.98	589.8
695.406	590.8
695.81	591.8
696.214	587.4
696.64	594.8
697.044	595.6
697.448	592.2
697.874	575
698.279	582.8
698.684	569
699.11	584.8
699.514	588
699.919	589.6
700.324	574
700.75	584
701.156	589.8
701.561	591
701.987	594.8
702.393	593.8
702.798	607.4
703.203	584.8
703.63	589.8
704.036	583.4
704.442	591.2
704.847	576.8
705.274	583.4
705.68	592.2
706.086	591
706.492	577.2
706.92	578.4
707.326	598.2
707.732	582.2
708.139	577.2
708.545	577.4
708.973	582.6
709.38	585
709.786	575.6
710.193	604
710.6	581.8
711.028	580.2
711.435	583
711.842	594
712.249	584.6
712.656	586
713.064	585
713.492	580.6
713.9	582
714.307	592.2
714.715	583.2
715.123	593.4
715.53	581.8
715.938	591.2
716.367	577.8
716.775	586.2
717.184	569.8
717.592	577.4
718	596.6
718.408	616.8
718.816	629.2
719.225	593
719.633	576.8
720.042	583
720.472	581
720.881	604.6
721.29	595.6
721.699	578.8
722.108	590.6
722.517	592
722.926	581.8
723.335	597.2
723.744	580.2
724.154	588
724.563	590.6
724.973	589.8
725.382	581.8
725.792	573.2
726.202	569.6
726.612	606.2
727.022	578.6
727.432	582
779.813	584.6
780.223	623.4
780.634	577.2
781.044	586
781.454	577.6
781.865	598.2
782.276	584.4
782.686	600.6
783.097	582.4
783.508	581.4
783.919	588
784.33	594.4
784.741	599.2
785.152	582
785.563	579.6
785.974	572.8
786.386	587.4
786.776	575.4
787.188	582
787.599	573.2
788.011	590.2
788.423	585.2
788.835	583
789.247	568.4
789.659	574.4
790.071	579.2
790.483	624
790.874	573.4
791.286	595.2
791.699	588
792.111	589.2
792.524	589
792.937	586.6
793.349	580.4
793.741	581.4
794.154	576.8
794.567	606.4
794.98	578
795.393	580.2
795.785	595.2
796.198	582.8
796.612	579
797.026	581
797.439	571.6
797.831	580.2
798.245	569.6
798.659	582.4
799.073	574.4
799.487	573.8
799.88	583.8
800.294	572.4
800.708	586.4
801.123	585.4
801.516	598.6
801.93	574.8
802.345	566
802.76	583.2
803.153	591.4
803.568	591.2
803.983	591
804.377	577
804.792	570
805.207	564.8
805.601	580.8
806.016	618.4
806.432	574.2
806.826	607.2
807.242	585.6
807.658	578
808.052	582.4
808.468	582.2
808.884	572.4
809.279	576.6
809.695	587.6
810.111	602.8
810.506	583.6
810.922	610
811.339	572
811.734	584.4
812.151	577.4
812.546	581.2
812.963	579.2
813.38	587.6
813.776	584.6
814.193	602
814.589	579.4
815.006	577.6
815.402	582.4
815.82	579.2
816.237	583.4
816.633	576.4
817.051	579.2
817.448	589.8
817.866	571.2
818.262	600.8
818.68	577.4
819.077	578.6
819.495	586
819.892	609.6
820.311	573.6
820.708	580.2
821.127	574
821.524	586.6
821.943	582.2
822.34	589.2
822.759	582
823.157	576.2
823.576	591
823.974	588.2
824.393	629.4
824.791	569.6
825.189	569.4
825.609	578
826.007	586.4
826.427	565.4
826.826	578.6
827.246	583.2
827.644	565.2
828.043	586.8
828.463	570
828.862	581.4
829.261	579.4
829.682	563.8
830.081	577.4
830.502	572
830.901	577.6
831.301	591.2
831.722	566.6
832.121	574
832.521	569
832.943	579.8
833.342	581.4
833.742	573.8
834.164	577.6
834.564	573.2
834.965	580
835.386	580.8
835.787	577.4
836.188	569
836.588	581.2
837.01	576.2
837.411	577
837.812	591.6
838.213	588.4
838.636	571.4
839.037	647
839.438	582.2
839.84	575
840.263	586.6
840.664	580.2
841.066	581.4
841.468	584.6
841.891	579.8
842.293	588.6
842.695	592.6
843.098	586.6
843.5	580.4
843.902	587
844.326	586.2
844.729	575
845.131	592.2
845.534	580.2
845.937	597.6
846.34	587.6
846.764	574
847.167	576.2
847.571	566.4
847.974	575.2
848.377	575
848.781	631.6
849.184	601
849.588	581
849.992	574.4
850.396	584.6
850.821	597.4
851.225	575.4
851.63	579.8
852.034	592.8
852.438	593.4
852.843	600.6
853.247	578.2
853.652	580.6
854.057	595.2
854.462	579
854.867	584
855.272	608
855.677	580.8
856.082	574.4
856.487	564.4
856.893	590.4
857.298	577.8
857.704	573.2
858.11	578.2
