#lambda/nm	C1
208.295	515
208.67	465.2
209.045	426.8
209.419	434
209.794	612.4
210.169	596.8
210.544	721.8
210.919	624.6
211.295	604.2
211.67	616.6
212.045	613.4
212.421	614.8
212.796	653.2
213.172	613.6
213.547	608.8
213.923	613
214.299	614
214.675	629.4
215.051	626.8
215.427	624.4
215.803	630.8
216.179	625
216.555	607
216.932	623.8
217.308	614.6
217.684	611.2
218.061	616.8
218.438	615
218.814	605.6
219.191	621.4
219.568	605.8
219.945	609
220.322	628.6
220.699	613.8
221.076	630.8
221.453	616
221.83	609.8
222.208	618.8
222.585	614.4
222.962	614
223.34	619
223.717	610.2
224.095	612.6
224.473	612
224.851	610.4
225.229	605.8
225.607	627.4
225.985	609
226.363	620.8
226.741	613.4
227.119	623.6
227.497	629.8
227.876	611.2
228.254	622.8
228.633	623.2
229.011	621.2
229.39	616.6
229.769	616
230.148	622.6
230.527	638.8
230.905	618.4
231.284	618
231.664	616
232.043	634.2
232.422	622.6
232.801	620
233.181	626.6
233.56	620.6
233.94	612.8
234.319	600.8
234.699	621.8
235.079	663.8
235.458	655.6
235.838	634.8
236.218	602
236.598	599.6
236.978	610
237.358	613.8
237.738	609.6
238.119	621
238.499	603.2
238.88	618.8
239.26	626.6
239.641	603.4
240.021	614.6
240.402	612.8
240.783	618.2
241.163	610.4
241.544	616.4
241.925	625.4
242.306	629.6
242.687	619.4
243.069	618.6
243.45	625.8
243.831	616.6
244.212	615.8
244.594	651
244.975	617
245.357	619.8
245.739	609.2
246.12	618.2
246.502	625.6
246.884	612.6
247.266	613.2
247.648	625
248.03	626.8
248.412	627.8
248.794	617.6
249.176	602.4
249.559	626.4
249.941	606.8
250.323	603.8
250.706	607.8
251.089	614.6
251.471	615.4
251.854	616.4
252.237	617.8
252.62	625.6
253.002	616
253.385	612.6
253.769	626.6
254.152	623.6
254.535	620
254.918	608.4
255.301	618.2
255.685	611.8
256.068	607.4
256.452	637
256.835	623.8
257.219	623.6
257.603	626.8
257.986	610.4
258.37	624.2
258.754	611
259.138	626.2
259.522	624.6
259.906	614.4
260.29	616.4
260.675	618.4
261.059	620.2
261.443	602.6
261.828	623.2
262.212	621.4
262.597	599
262.981	615.2
263.366	621.2
263.751	614.2
264.136	606.8
264.521	605.6
264.906	598.8
265.291	619.2
265.676	608.4
266.061	622
266.446	625.8
266.831	607.8
267.217	639
267.602	615
267.987	614
268.373	612.6
268.759	622
269.144	626
269.53	618.6
269.916	612.4
270.302	613.8
270.688	619.2
271.074	616.2
271.46	632.2
271.846	647
272.232	615.8
272.618	605.2
273.004	612.4
273.391	627.8
273.777	632.6
274.164	628.6
274.55	630.8
274.937	622.8
275.324	616.4
275.71	616.4
276.097	626.2
276.484	607.8
276.871	618.6
277.258	612.4
277.645	596
278.032	614.6
278.419	606.8
278.807	617.4
279.194	607.4
279.581	608.6
279.969	619.2
280.356	619.2
280.744	610.8
281.131	642.4
281.519	624.4
281.907	608.6
282.295	607.8
282.682	632
283.07	617.2
283.458	627.8
283.846	626.8
284.235	628.6
284.623	625
285.011	611.6
285.399	625.6
285.788	617.8
286.176	609.4
286.565	636
286.953	613.6
287.342	616.6
287.731	607.8
288.119	612.6
288.508	612.2
288.897	621.4
289.286	614
289.675	621.6
290.064	632.4
290.453	612.8
290.821	622
291.21	634.8
291.599	615.4
291.989	619.8
292.378	623.8
292.768	632.4
293.157	630.6
293.547	631.6
293.936	620.2
294.326	610.2
294.716	617
295.106	615.8
295.496	626
295.886	620.6
296.276	611.8
296.666	610.6
297.056	611.6
297.446	606.8
297.836	636.8
298.227	611.6
298.617	615.6
299.008	632.4
299.398	614.2
299.789	610.2
300.179	625
300.57	634.8
300.961	619.6
301.352	622.4
301.742	618.2
302.133	624
302.524	629.4
302.915	620.4
303.307	609.6
303.698	628.4
304.089	624.2
304.48	613
304.872	621.8
305.263	618.2
305.655	611.4
306.046	622.2
306.438	625.8
306.829	606.2
307.221	635.2
307.613	624.6
308.005	621
308.397	627.6
308.789	641.4
309.181	651.2
309.573	630
309.965	637
310.357	619.6
310.749	630.4
311.142	616.6
311.534	619.2
311.926	623.6
312.319	628.4
312.711	606.2
313.104	638
313.497	612.6
313.889	656.6
314.282	636.6
314.675	645
315.068	616.4
315.461	626
315.854	653.6
316.247	619
316.64	615.4
317.033	620.6
317.405	618.8
317.798	624
318.192	619.4
318.585	609
318.979	619.2
319.372	601.2
319.766	609.6
320.16	623
320.553	633
320.947	630.8
321.341	612.8
321.735	612.8
322.129	597.2
322.523	638.6
322.917	605.2
323.311	630.4
323.705	617
324.099	620.2
324.494	638
324.888	628.4
325.282	614.6
325.677	631.4
326.071	627.6
326.466	625.8
326.861	621.8
327.255	625.6
327.65	624.2
328.045	641.8
328.44	631
328.835	618.2
329.23	619.8
329.625	646.6
330.02	612.4
330.415	645.4
330.81	635.6
331.206	620.8
331.601	614
331.996	623
332.37	646
332.766	606.2
333.161	640.2
333.557	614
333.953	614.8
334.348	1045.2
334.744	620.6
335.14	613
335.536	613
335.932	639.4
336.328	620
336.724	639.4
337.12	619.4
337.516	626.6
337.913	625
338.309	633.8
338.705	617
339.102	631.8
339.498	622.2
339.895	638.2
340.291	612.6
340.688	627.6
341.085	610
341.481	614
341.878	618.4
342.275	646.4
342.672	615.2
343.069	617
343.466	615.4
343.842	628.6
344.239	612
344.636	622
345.033	609.2
345.431	605.2
345.828	613.4
346.225	611.2
346.623	645.6
347.02	614.8
347.418	630.2
347.816	630.2
348.213	604.6
348.611	619.4
349.009	610.2
349.407	629
349.805	605.2
350.203	604.8
350.601	634.6
350.999	610.4
351.397	680
351.795	622
352.193	622.4
352.57	626.2
352.969	626
353.367	608.4
353.766	613
354.164	612.4
354.563	622.2
354.961	610.4
355.36	616.2
355.759	620.2
356.158	612.4
356.557	610.2
356.956	606
357.355	601.6
357.754	624.2
358.153	619.6
358.552	642.6
358.951	609.4
359.35	609.2
359.75	608.6
360.149	596.2
360.527	599.4
360.926	594.8
361.326	616.8
361.726	602
362.125	594.8
362.525	615.2
362.925	608.6
363.325	608
363.724	611
364.124	599
364.524	604
364.924	602.6
365.324	616.4
365.725	588.6
366.125	618
366.525	605.4
366.904	602.8
367.304	595.6
367.705	626
368.105	623.6
368.506	612
368.906	612.2
369.307	609.6
369.708	617.4
370.108	603.6
370.509	613
370.91	598.6
371.311	612.2
371.712	605.8
372.113	606.6
372.514	593.6
372.894	611.6
373.295	601.4
373.696	613.4
374.097	616
374.499	638
374.9	614.6
375.301	602
375.703	611.8
376.105	597.6
376.506	607.6
376.908	617.4
377.309	607.2
377.711	611
378.113	604.6
378.493	609.8
378.895	610.2
379.297	610.6
379.699	598.6
380.102	610.6
380.504	607.2
380.906	605.4
381.308	637.4
381.71	615.8
382.113	625.8
382.515	613.6
382.918	609.6
383.299	613
383.701	615.6
384.104	616.4
384.507	594.4
384.909	606
385.312	598
385.715	597.8
386.118	604.6
386.521	601.6
386.924	614.2
387.327	608.2
387.709	599.8
388.112	589.2
388.515	607.2
388.918	610.4
389.322	621.4
389.725	603.8
390.129	634.8
390.532	615
390.936	604
391.339	598.4
391.743	609.8
392.125	593.6
392.529	621
392.933	621.6
393.337	612.4
393.74	615.2
394.144	604.8
394.548	597.8
394.953	606.4
395.357	619.8
395.761	599.4
396.144	611.2
396.548	612.2
396.952	615.8
397.357	617
397.761	604
398.166	609.8
398.57	611
398.975	601.2
399.379	610.2
399.763	657.6
400.168	609
400.572	612.8
400.977	609.6
401.382	626.6
401.787	614.6
402.192	624.2
402.597	619
403.002	594.8
403.386	614.6
403.791	628.2
404.197	601.4
404.602	608.6
405.007	608
405.413	597
405.818	607.6
406.224	608.4
406.608	607
407.014	601
407.42	627.2
407.825	600.6
408.231	614.8
408.637	616.4
409.043	618.8
409.449	613
409.834	597.2
410.24	608
410.646	603.8
411.052	623
411.458	616
411.865	618.6
412.271	620
412.677	601.4
413.062	605.6
413.469	599.8
413.875	631
414.282	619.2
414.689	616
415.095	611.4
415.502	608.2
415.888	609.6
416.294	596.2
416.701	649
417.108	602.4
417.515	618
417.923	601.6
418.33	622.2
418.715	615.6
419.123	601
419.53	603.8
419.937	603.6
420.345	622.8
420.752	607.2
421.16	631
421.546	616.8
421.953	617
422.361	604.4
422.769	609.6
423.177	601.6
423.585	636
423.992	629.2
424.379	626
424.787	625.2
425.195	619.4
425.603	616
426.011	626
426.419	622
426.806	619.8
427.214	618.4
427.623	627.2
428.031	634
428.44	622
428.848	624.8
429.235	635
429.644	616
430.053	621.8
430.461	632.8
430.87	637.6
431.279	621.4
431.666	611.6
432.075	620.6
432.484	620
432.893	603.2
433.302	632.8
433.711	664
434.099	623.6
434.508	611.6
434.918	612.4
435.327	628.4
435.737	637.2
436.125	637.4
436.534	638.4
436.944	648.6
437.353	643
437.763	672.2
438.173	646
438.561	669.6
438.971	645.8
439.381	653.8
439.791	670.4
440.201	641.8
440.589	673.2
440.999	679.6
441.409	684.6
441.819	667
442.23	694.2
442.619	704.2
443.029	700.6
443.439	710.6
443.85	717.6
444.26	722.4
444.649	719.6
445.06	710.8
445.471	710
445.881	731.6
446.292	743.8
446.682	750
447.092	713
447.503	779
447.914	736.8
448.325	737.6
448.715	747.2
449.126	728.4
449.537	747.4
449.948	740.2
450.338	746.2
450.75	760.4
451.161	748
451.572	753
451.984	747.4
452.374	746.4
452.786	759.8
453.197	764
453.609	770.6
453.999	749.8
454.411	752.6
454.823	766.6
455.235	773.2
455.647	761.2
456.037	763.2
456.449	758.8
456.862	769.2
457.274	771.4
457.665	762
458.077	780.8
458.489	793.2
458.902	767.4
459.293	777.4
459.705	767.2
460.118	776.2
460.53	788.2
460.921	782.2
461.334	781.6
461.747	780.8
462.16	792.2
462.551	803.6
462.964	798
463.377	779
463.79	784.4
464.182	807.4
464.595	776.6
465.008	792.8
465.421	800.8
465.813	792.6
466.226	806.2
466.64	778.8
467.053	832
467.445	807
467.859	811.4
468.272	804.6
468.686	813
469.078	796.4
469.492	793.4
469.906	795.2
470.298	810.4
470.712	795
471.126	854.4
471.54	788.6
471.933	792.2
472.347	798.6
472.761	802.2
473.175	794.6
473.568	801.6
473.982	789
474.397	795.4
474.79	798
475.204	816
475.619	800.6
476.033	810.2
476.426	804.6
476.841	793
477.256	822.2
477.649	798.8
478.064	785.6
478.479	792.4
478.872	797.4
479.287	778.2
479.702	786.2
480.118	796.8
480.511	794.8
480.927	795.8
481.342	795.2
481.736	797
482.151	793.2
482.566	806.2
482.96	790
483.376	804
483.792	787.6
484.186	790.8
484.602	792.8
485.017	789.4
485.412	793.6
485.827	792.2
486.243	788.8
486.638	808.6
487.054	793.2
487.47	805.4
487.865	783.2
488.281	785.2
488.697	782
489.092	779
489.508	767.6
489.925	791
490.32	760.8
490.736	781.4
491.153	790.4
491.548	780
491.964	788.8
492.381	763.8
492.776	777.2
493.193	776
493.61	779.2
494.006	773.4
494.422	779.6
494.84	767.4
495.235	773.4
495.652	766.2
496.069	774.8
496.465	754
496.883	773.4
497.3	781.4
497.696	757.4
498.113	768.6
498.509	743.2
498.927	741.6
499.344	743.4
499.741	748.2
500.158	752.2
500.576	762.6
500.973	750.2
501.39	745.6
501.787	732
502.205	741.4
502.623	737.8
503.02	724.4
503.438	733.8
503.856	747.6
504.253	740.8
504.671	739
505.068	729.2
505.486	735.8
505.905	755.2
506.302	736.2
506.72	736.4
507.118	720.2
507.536	728.4
507.955	734.6
508.352	730.8
508.771	725.2
509.169	731
509.587	725.2
510.006	720.6
510.404	718
510.823	709.4
511.221	724.2
511.64	721.2
512.038	736.8
512.457	717.8
512.877	720.8
513.275	709.2
513.694	707.6
514.092	708.8
514.512	724.4
514.91	715.4
515.33	706.8
515.749	701.4
516.148	708.4
516.568	709
516.966	709.6
517.386	698
517.785	708.6
518.205	704.2
518.603	688.8
519.024	694.8
519.444	692.6
519.843	705.8
520.263	699.2
520.662	701.4
521.082	695.6
521.481	694.2
521.902	694
522.301	699
522.722	697.4
523.121	687.2
523.542	693.6
523.963	691.2
524.362	685.6
524.783	685.2
525.183	683.8
525.604	695.8
526.003	680.6
526.425	678.2
526.824	682.2
527.246	691.6
527.646	687.6
528.067	687.8
528.467	683
528.888	682.2
529.289	675.4
529.71	671.8
530.11	671.2
530.532	676.2
530.932	666.2
531.354	664.8
531.755	704
532.176	677.4
532.577	669.2
532.999	678
533.4	667.6
533.822	676.8
534.223	672.4
534.645	660.8
535.046	656.2
535.468	656
535.869	676.4
536.292	667.2
536.693	693.8
537.115	673.4
537.516	660.4
537.939	651.4
538.34	673
538.742	670.4
539.165	662.8
539.566	651.8
539.989	650.4
540.391	649
540.814	660
541.216	663.6
541.639	663.2
542.041	662.8
542.464	649.6
542.866	655.2
543.268	647.6
543.691	664.4
544.093	658
544.517	676.6
544.919	649
545.343	675.4
545.745	644.2
546.147	649.2
546.571	648.4
546.974	642
547.398	653.2
547.8	661.4
548.224	652
548.627	647
549.03	653.2
549.454	641.4
549.857	634.8
550.281	640
550.684	635.6
551.087	659
551.512	647.8
551.915	655.2
552.34	641.6
552.743	639.8
553.146	636.6
553.571	638.8
553.975	656.2
554.399	630.8
554.803	685.6
555.207	639.6
555.632	630.6
556.036	641.2
556.461	624.2
556.865	634.8
557.268	627
557.694	639.6
558.098	638.6
558.502	639.6
558.927	628.2
559.332	639.8
559.736	633.8
560.162	635.4
560.566	627.8
560.992	634
561.396	636.6
561.801	631
562.227	631.4
562.631	628.6
563.036	626.4
563.462	635.6
563.867	633
564.272	618.6
564.698	627.2
565.103	620.8
565.508	640.8
565.935	626.2
566.34	624
566.745	639
567.172	622.4
567.577	649.8
567.982	642.2
568.409	624.4
568.815	611.6
569.22	627.2
569.626	637
570.053	609.2
570.459	628
570.865	625.2
571.292	636.2
571.698	632.6
572.104	609.2
572.531	617
572.937	632.4
573.343	620
573.75	609
574.177	620.4
574.583	628.2
574.99	621.6
575.396	627.8
575.824	608
576.231	627.6
576.637	611.8
577.065	644
577.472	615.6
577.879	608.8
578.286	630
578.714	617
579.121	610.6
579.528	626.8
579.935	622.4
580.364	611.4
580.771	601.8
581.178	613
581.585	621
582.014	621.6
582.421	605.6
582.829	617.8
583.236	626.2
583.644	600.6
584.073	609.2
584.481	610.8
584.889	614.6
585.296	617.2
585.726	613.2
586.134	608
586.542	613.8
586.95	637
587.358	607.6
587.787	610
588.196	630.6
588.604	607
589.012	611.6
589.421	601.8
589.851	606.2
590.259	612.2
590.668	605.8
591.076	654.6
591.485	596.2
591.894	608
592.324	630.4
592.733	628
593.142	601.4
593.551	599.2
593.96	609
594.369	598.6
594.8	602.6
595.209	609.4
595.618	593.4
596.028	603.8
596.437	591.2
596.847	603.2
597.256	600.2
597.687	610.6
598.097	605
598.507	589.6
598.917	611.6
599.327	608.8
599.736	600
600.146	605.2
600.556	606.8
600.988	614.4
601.398	592.8
601.808	605
602.219	586
602.629	612.6
603.039	594.4
603.45	625.8
603.86	597.8
604.271	616.4
604.703	598
605.114	600.8
605.525	599.8
605.935	605.8
606.346	616.8
606.757	596.6
607.168	601.2
607.579	596.8
607.99	614.8
608.402	603.6
608.813	602.2
609.224	594.2
609.636	589.4
610.047	592.8
610.48	601.8
610.892	603.2
611.303	608.6
611.715	600
612.127	593
612.539	596.6
612.95	604.8
613.362	585
613.774	594.8
614.186	596
614.599	590.8
615.011	609.6
615.423	603
615.835	597.4
616.248	590
616.66	609.4
617.073	590.6
617.485	602
617.898	611.6
618.311	598
618.723	595.8
619.136	627.8
619.549	612.6
619.962	630.8
620.375	603.2
620.788	601.8
621.201	595.6
621.614	606.4
622.028	602.4
622.441	602.8
622.854	610.6
623.268	593.2
623.681	603.8
624.095	609.2
624.509	618
624.922	604.8
625.336	586.8
625.728	606.2
626.142	606.2
626.556	619.2
626.97	601.8
627.384	601
627.799	606
628.213	608.4
628.627	590.2
629.041	597.6
629.456	599.6
629.87	595.4
630.285	602
630.699	609
631.093	585.6
631.507	605.2
631.922	595
632.337	616.2
632.752	588
633.167	603.6
633.582	593.2
633.997	592.2
634.412	591.6
634.806	602.4
635.221	594.4
635.637	605
636.052	581.8
636.468	599
636.883	611.6
637.299	596.6
637.715	591.2
638.109	598.6
638.525	582.8
638.941	612.2
639.357	602.2
639.773	603.4
640.189	605.8
640.584	606.6
641	595
641.416	589.4
641.832	596.8
642.249	591.6
642.665	584.6
643.06	592.2
643.477	603.6
643.894	578.2
644.31	594.2
644.727	594.4
645.123	596
645.54	595
645.957	604.8
646.374	603
646.77	597
647.187	626.2
647.604	600.6
648.021	585.8
648.439	585.4
648.835	597
649.252	594.4
649.67	596.2
650.088	598.8
650.484	593.2
650.902	596.4
651.32	598.2
651.738	592.6
652.134	592.8
652.552	608.2
652.971	604
653.389	589.6
653.786	609.8
654.204	617.2
654.622	589.6
655.019	599.8
655.438	590.6
655.857	585.2
656.275	603.2
656.673	590.4
657.091	605
657.51	589.2
657.908	605.4
658.327	603.4
658.746	586.4
659.144	595
659.563	609.8
659.982	602.2
660.38	590.8
660.8	605.6
661.219	601.2
661.617	597.4
662.037	590
662.457	614
662.855	580.2
663.275	627.6
663.695	590.4
664.094	590.6
664.514	583.2
664.934	581.8
665.333	596.8
665.753	584.8
666.152	579.2
666.572	589.8
666.993	606
667.392	584.8
667.812	586.6
668.212	597
668.632	605.4
669.053	590.4
669.453	593
669.874	589.4
670.273	600.2
670.694	580
671.116	597.6
671.515	607.6
671.937	592.8
672.337	587
672.758	589
673.158	594.4
673.58	577.6
673.98	591.8
674.402	597.2
674.824	583.6
675.224	586.4
675.646	591.8
676.047	589.8
676.469	589.8
676.869	600.6
677.292	592.2
677.693	579.2
678.115	591.8
678.516	588
678.939	605
679.34	589.2
679.762	596.2
680.164	597.6
680.586	581.6
680.988	599.4
681.411	613.4
681.812	589.2
682.236	582.2
682.637	573.2
683.061	581.6
683.462	596.4
683.864	594.8
684.288	594.2
684.69	582.6
685.114	608
685.516	595.6
685.94	585.6
686.342	592.6
686.766	588.8
687.168	589.4
687.571	600.8
687.995	592.2
688.398	575.6
688.822	589.4
689.225	600.4
689.628	602.2
690.052	594.8
690.456	598
690.88	589.4
691.284	575.6
691.687	595.4
692.112	588
692.515	580.2
692.919	590.6
693.344	597.8
693.747	588
694.173	577.6
694.577	600
694.98	578.2
695.406	590.2
695.81	593.6
696.214	609
696.64	590.6
697.044	584.6
697.448	598.4
697.874	586
698.279	582.8
698.684	572.8
699.11	588.4
699.514	578.6
699.919	582.8
700.324	575.6
700.75	589.2
701.156	579.8
701.561	598
701.987	591.6
702.393	596.6
702.798	600.8
703.203	583
703.63	579.8
704.036	592.8
704.442	580.4
704.847	575.2
705.274	576.8
705.68	592.2
706.086	596.4
706.492	583.2
706.92	587
707.326	598
707.732	583.2
708.139	578
708.545	582.8
708.973	584
709.38	585.8
709.786	577
710.193	603.6
710.6	595.4
711.028	572.2
711.435	586.8
711.842	591
712.249	593.2
712.656	587.6
713.064	597.6
713.492	583.6
713.9	582.8
714.307	591.4
714.715	586.8
715.123	594.6
715.53	586.4
715.938	599.2
716.367	584.6
716.775	582.8
717.184	577.2
717.592	592
718	602
718.408	622.2
718.816	628
719.225	581.2
719.633	597.6
720.042	573.8
720.472	579
720.881	610.4
721.29	586.4
721.699	578.8
722.108	589.2
722.517	592
722.926	589.2
723.335	588.6
723.744	596
724.154	592.6
724.563	591.2
724.973	587
725.382	594
725.792	589.2
726.202	576.8
726.612	608.6
727.022	588.8
727.432	578
779.813	583.2
780.223	631.6
780.634	587.2
781.044	581.4
781.454	585.4
781.865	602.2
782.276	587.2
782.686	601.2
783.097	595
783.508	587.8
783.919	588.4
784.33	603.2
784.741	595.8
785.152	582.6
785.563	582
785.974	580.4
786.386	591.2
786.776	583.2
787.188	588
787.599	580.8
788.011	587.8
788.423	583.2
788.835	588.8
789.247	579.6
789.659	577.4
790.071	590
790.483	632
790.874	578
791.286	595
791.699	584.8
792.111	583.6
792.524	586.2
792.937	585.4
793.349	575
793.741	586
794.154	576.8
794.567	595.4
794.98	581.4
795.393	575.2
795.785	591.4
796.198	581.4
796.612	583
797.026	579.4
797.439	562.8
797.831	581.6
798.245	566.8
798.659	582
799.073	574.4
799.487	572
799.88	586.2
800.294	580.6
800.708	589.6
801.123	583.4
801.516	596.8
801.93	576.4
802.345	570.6
802.76	586.4
803.153	600.6
803.568	598.4
803.983	598.4
804.377	585.4
804.792	578.2
805.207	573.8
805.601	584.2
806.016	629.4
806.432	581.6
806.826	615.4
807.242	599
807.658	588.2
808.052	589
808.468	583.8
808.884	581.8
809.279	588
809.695	594
810.111	606.4
810.506	585.2
810.922	608
811.339	571.8
811.734	594.2
812.151	572.6
812.546	582.4
812.963	577.6
813.38	585.8
813.776	594.4
814.193	606.4
814.589	577.6
815.006	579.8
815.402	582.6
815.82	579
816.237	581
816.633	586.8
817.051	578.4
817.448	584.6
817.866	580.6
818.262	602
818.68	580.4
819.077	573
819.495	589.6
819.892	618
820.311	583
820.708	581.2
821.127	590.2
821.524	593.6
821.943	589.2
822.34	601.2
822.759	583.8
823.157	580.4
823.576	591.4
823.974	593.2
824.393	625.2
824.791	583.2
825.189	576.4
825.609	581.4
826.007	583.2
826.427	569.6
826.826	581.4
827.246	592.4
827.644	569
828.043	595.4
828.463	583.2
828.862	595
829.261	594.6
829.682	574.6
830.081	593.2
830.502	580.6
830.901	595
831.301	595.6
831.722	576.8
832.121	579.8
832.521	579.6
832.943	591.2
833.342	576.8
833.742	576.8
834.164	588
834.564	577
834.965	579.8
835.386	578.6
835.787	580.4
836.188	579.6
836.588	595
837.01	587
837.411	574.2
837.812	589.2
838.213	581.4
838.636	584
839.037	649.6
839.438	586.4
839.84	593.4
840.263	585.4
840.664	588
841.066	570.2
841.468	587.6
841.891	574.4
842.293	592.8
842.695	583.4
843.098	596.4
843.5	580.8
843.902	580.4
844.326	584
844.729	585.4
845.131	604
845.534	587.2
845.937	598.8
846.34	610.6
846.764	578.6
847.167	588.4
847.571	574.8
847.974	579.8
848.377	581.4
848.781	627.8
849.184	587.2
849.588	575
849.992	582.6
850.396	582.6
850.821	605.2
851.225	579
851.63	578
852.034	594.8
852.438	575.6
852.843	606.2
853.247	562.2
853.652	569.6
854.057	597.2
854.462	580.6
854.867	585
855.272	603.8
855.677	588.6
856.082	587.6
856.487	564.6
856.893	589.2
857.298	579.8
