#lambda/nm	C1
208.295	503.2
208.67	463.4
209.045	425.4
209.419	427.8
209.794	602.2
210.169	598.6
210.544	727.4
210.919	623.2
211.295	600.4
211.67	618.2
212.045	610.4
212.421	616.8
212.796	655.6
213.172	610
213.547	612.8
213.923	613.2
214.299	609.8
214.675	613.8
215.051	611.2
215.427	619
215.803	630.8
216.179	625.8
216.555	613.4
216.932	624
217.308	610.2
217.684	613.8
218.061	627.4
218.438	622.4
218.814	613.2
219.191	621.6
219.568	610.6
219.945	614
220.322	618.8
220.699	621.6
221.076	623.2
221.453	613.2
221.83	617
222.208	617
222.585	612.6
222.962	612.2
223.34	619
223.717	613.8
224.095	608.6
224.473	614.2
224.851	610.6
225.229	602.4
225.607	630.4
225.985	610.4
226.363	613
226.741	615.2
227.119	617.8
227.497	627.6
227.876	604.4
228.254	621
228.633	616.2
229.011	608.2
229.39	616
229.769	620.8
230.148	620.8
230.527	631.8
230.905	613.6
231.284	613.2
231.664	604.2
232.043	625.8
232.422	620
232.801	611.6
233.181	616.6
233.56	613.4
233.94	613.8
234.319	598.4
234.699	607
235.079	653.8
235.458	640
235.838	631.6
236.218	605.6
236.598	603.2
236.978	605.4
237.358	600
237.738	612.2
238.119	629
238.499	611.4
238.88	619.8
239.26	638.2
239.641	600.8
240.021	615
240.402	620
240.783	620.8
241.163	610
241.544	614.4
241.925	613.6
242.306	632.6
242.687	616
243.069	619.6
243.45	627
243.831	610.4
244.212	617.8
244.594	652
244.975	625.2
245.357	621.4
245.739	613.2
246.12	612.6
246.502	634
246.884	611.4
247.266	614.4
247.648	621.2
248.03	637.2
248.412	617.2
248.794	624.6
249.176	607.4
249.559	633
249.941	614.6
250.323	607.8
250.706	618
251.089	615
251.471	615.6
251.854	615
252.237	623.8
252.62	624.6
253.002	616
253.385	617.8
253.769	636.4
254.152	614.8
254.535	619.2
254.918	605.2
255.301	610.6
255.685	610
256.068	614.6
256.452	640.2
256.835	627.8
257.219	622.8
257.603	631.6
257.986	603.2
258.37	619.6
258.754	598.2
259.138	619.6
259.522	619.8
259.906	608.6
260.29	615.4
260.675	613
261.059	619.2
261.443	602.4
261.828	623.6
262.212	621.2
262.597	607
262.981	608.2
263.366	625
263.751	621.2
264.136	604.8
264.521	614.8
264.906	615
265.291	630.4
265.676	608
266.061	619
266.446	635.8
266.831	630.6
267.217	636.4
267.602	625.4
267.987	619.6
268.373	620.8
268.759	623.8
269.144	624
269.53	616.8
269.916	614.6
270.302	616.8
270.688	616
271.074	613.4
271.46	626.4
271.846	649.6
272.232	621.8
272.618	613
273.004	618.4
273.391	624.8
273.777	636.8
274.164	618
274.55	619.4
274.937	621.6
275.324	620
275.71	619.6
276.097	629.6
276.484	605.8
276.871	619.2
277.258	624
277.645	599.8
278.032	610
278.419	610.8
278.807	617.8
279.194	609.4
279.581	615.4
279.969	623.4
280.356	610.8
280.744	618.8
281.131	641.6
281.519	621.8
281.907	614.8
282.295	619.2
282.682	631.6
283.07	610
283.458	629.2
283.846	625.4
284.235	625
284.623	623.8
285.011	604.2
285.399	623.2
285.788	609.2
286.176	607.8
286.565	630
286.953	604
287.342	616.4
287.731	608.8
288.119	613.2
288.508	603.2
288.897	616
289.286	599.8
289.675	612.4
290.064	623
290.453	608
290.821	621.2
291.21	632
291.599	606.8
291.989	617.2
292.378	618
292.768	631.8
293.157	625
293.547	626.6
293.936	619.4
294.326	610.2
294.716	618.6
295.106	615.8
295.496	622.4
295.886	618.6
296.276	619.4
296.666	615.2
297.056	613.4
297.446	604.2
297.836	633.4
298.227	616.6
298.617	621.2
299.008	620.2
299.398	615.4
299.789	610.8
300.179	619
300.57	631.4
300.961	608.2
301.352	610.8
301.742	628.6
302.133	621.8
302.524	622
302.915	620
303.307	610
303.698	619.6
304.089	627.2
304.48	611.8
304.872	617
305.263	613
305.655	602.8
306.046	625
306.438	626.8
306.829	606.2
307.221	634
307.613	624.8
308.005	619.6
308.397	628.6
308.789	638.6
309.181	636.2
309.573	631.6
309.965	628
310.357	608
310.749	630
311.142	610.2
311.534	612.4
311.926	618.4
312.319	611
312.711	607.8
313.104	629.8
313.497	616.6
313.889	652
314.282	626.2
314.675	645.6
315.068	622.2
315.461	627
315.854	647
316.247	626.8
316.64	622
317.033	615
317.405	628.8
317.798	623.8
318.192	618.4
318.585	606.6
318.979	626
319.372	611.2
319.766	622.8
320.16	623.6
320.553	633.8
320.947	639.8
321.341	612.8
321.735	624.6
322.129	603.4
322.523	641
322.917	609.6
323.311	630.8
323.705	623.8
324.099	620.4
324.494	628.8
324.888	624.4
325.282	614.6
325.677	625.8
326.071	621.2
326.466	631.2
326.861	613.6
327.255	625.4
327.65	629.2
328.045	629.8
328.44	611.2
328.835	617.6
329.23	612.2
329.625	638.2
330.02	609
330.415	641.2
330.81	617.8
331.206	617.4
331.601	606.8
331.996	623.8
332.37	637
332.766	607.8
333.161	632.2
333.557	620.2
333.953	619.6
334.348	986.2
334.744	612.8
335.14	613.6
335.536	609.2
335.932	629.2
336.328	619.6
336.724	616.2
337.12	620.6
337.516	623.2
337.913	617.2
338.309	624.2
338.705	616.8
339.102	625.6
339.498	624.2
339.895	627.6
340.291	621.8
340.688	625.8
341.085	606
341.481	604.8
341.878	629
342.275	636
342.672	611.6
343.069	607
343.466	602.2
343.842	629.6
344.239	614.8
344.636	623
345.033	610.6
345.431	605
345.828	621.2
346.225	606.2
346.623	658.8
347.02	617
347.418	619.8
347.816	635.8
348.213	606.8
348.611	617.8
349.009	610.2
349.407	626.2
349.805	613.6
350.203	601.8
350.601	631.6
350.999	607.4
351.397	655.8
351.795	615.4
352.193	625.8
352.57	607.4
352.969	617.8
353.367	605.4
353.766	604.2
354.164	605
354.563	629
354.961	618.2
355.36	613.8
355.759	622.6
356.158	603
356.557	606.4
356.956	598.2
357.355	596
357.754	618.2
358.153	622
358.552	640.2
358.951	610.6
359.35	618.6
359.75	612.2
360.149	616.4
360.527	603.8
360.926	608.6
361.326	612.8
361.726	603
362.125	608.2
362.525	620.4
362.925	610.4
363.325	614
363.724	617
364.124	608.4
364.524	604
364.924	614.8
365.324	627.2
365.725	599.4
366.125	613.6
366.525	617.6
366.904	610.4
367.304	592.4
367.705	628.2
368.105	625.6
368.506	609.6
368.906	608.2
369.307	608.4
369.708	609
370.108	603.2
370.509	612.8
370.91	608
371.311	609.4
371.712	607.6
372.113	605.2
372.514	593.8
372.894	606.2
373.295	601.4
373.696	618.4
374.097	623.4
374.499	641.2
374.9	605.8
375.301	595.6
375.703	609.6
376.105	600.2
376.506	613
376.908	614.4
377.309	609
377.711	606.6
378.113	609.6
378.493	611.6
378.895	608.2
379.297	616.2
379.699	593.2
380.102	605.8
380.504	607.2
380.906	610.6
381.308	634.8
381.71	620.2
382.113	614.4
382.515	604.4
382.918	607.6
383.299	595
383.701	608.4
384.104	612.4
384.507	589.4
384.909	599.2
385.312	596.4
385.715	598.6
386.118	594.8
386.521	597.8
386.924	623
387.327	606.6
387.709	602.6
388.112	599.8
388.515	599.6
388.918	607.8
389.322	618.6
389.725	603.6
390.129	624.4
390.532	621
390.936	612.6
391.339	603.4
391.743	615
392.125	604
392.529	624
392.933	618.2
393.337	602.2
393.74	608.8
394.144	609.4
394.548	605.4
394.953	609.2
395.357	617
395.761	605.4
396.144	610
396.548	603
396.952	610.6
397.357	614.2
397.761	605.8
398.166	608.8
398.57	609.2
398.975	597
399.379	616.2
399.763	655.4
400.168	607.6
400.572	604.4
400.977	604
401.382	623.6
401.787	621.8
402.192	632.4
402.597	627.6
403.002	598
403.386	616.2
403.791	622.6
404.197	598.8
404.602	613.6
405.007	608.4
405.413	602
405.818	599.2
406.224	603.8
406.608	603.8
407.014	600
407.42	625.8
407.825	600.2
408.231	623.2
408.637	605.6
409.043	623.2
409.449	603.2
409.834	593.6
410.24	616.2
410.646	614.4
411.052	614.8
411.458	618.6
411.865	618.4
412.271	618.2
412.677	614.6
413.062	620.6
413.469	597.2
413.875	639
414.282	621.8
414.689	607.2
415.095	607
415.502	607.8
415.888	613.2
416.294	595.4
416.701	649
417.108	598.8
417.515	616
417.923	613.2
418.33	622.2
418.715	621.8
419.123	600.8
419.53	612.4
419.937	606.6
420.345	626.8
420.752	610.4
421.16	620
421.546	608.2
421.953	610.8
422.361	602.4
422.769	606.2
423.177	599
423.585	629.4
423.992	632.8
424.379	621.8
424.787	624.8
425.195	632.2
425.603	607.6
426.011	623.4
426.419	628
426.806	608.6
427.214	611
427.623	620
428.031	627.8
428.44	619
428.848	626
429.235	624.2
429.644	611.8
430.053	607.6
430.461	624.4
430.87	639.6
431.279	626
431.666	615.4
432.075	617
432.484	620
432.893	618.6
433.302	651
433.711	672.6
434.099	641.6
434.508	628.6
434.918	632.2
435.327	657.6
435.737	666.8
436.125	665.6
436.534	664.4
436.944	668
437.353	680.8
437.763	702
438.173	678.2
438.561	689.8
438.971	682.2
439.381	694
439.791	707.8
440.201	684
440.589	715.6
440.999	725.2
441.409	718.8
441.819	726.6
442.23	745
442.619	742.8
443.029	740.6
443.439	743
443.85	760.8
444.26	763.6
444.649	763.4
445.06	763.4
445.471	751.2
445.881	773.6
446.292	793.8
446.682	790.2
447.092	762
447.503	829.4
447.914	784
448.325	779.8
448.715	800.2
449.126	780.8
449.537	790.8
449.948	799.8
450.338	791.8
450.75	810
451.161	798.8
451.572	805.8
451.984	791.6
452.374	786.2
452.786	790.6
453.197	810.8
453.609	818.2
453.999	795.8
454.411	799
454.823	817.4
455.235	821.2
455.647	812.2
456.037	818.4
456.449	797.4
456.862	810
457.274	819.8
457.665	809.4
458.077	818.6
458.489	845.8
458.902	808
459.293	818.8
459.705	817.2
460.118	798.2
460.53	810.4
460.921	801.2
461.334	824.6
461.747	821.4
462.16	842.6
462.551	828
462.964	818.6
463.377	807.2
463.79	830.4
464.182	836.8
464.595	820
465.008	826.2
465.421	821.8
465.813	819.2
466.226	825.8
466.64	823.2
467.053	868.2
467.445	823.8
467.859	838
468.272	831
468.686	841.8
469.078	832.2
469.492	819
469.906	828.2
470.298	832
470.712	817.4
471.126	871.2
471.54	813.4
471.933	816
472.347	814.2
472.761	818.2
473.175	820.2
473.568	819.8
473.982	814
474.397	824.2
474.79	813.4
475.204	823.6
475.619	813.2
476.033	824.8
476.426	818.8
476.841	810.6
477.256	838.4
477.649	811.8
478.064	801
478.479	804.6
478.872	811
479.287	791.8
479.702	807.6
480.118	805.8
480.511	802
480.927	804.2
481.342	795
481.736	804.4
482.151	794.6
482.566	815.2
482.96	801.6
483.376	809.8
483.792	782.4
484.186	796.2
484.602	789.4
485.017	789.8
485.412	793
485.827	800.6
486.243	781.8
486.638	822.4
487.054	801.6
487.47	810.4
487.865	792.6
488.281	781.2
488.697	783
489.092	800.4
489.508	776.4
489.925	788.6
490.32	785.6
490.736	801.6
491.153	789.4
491.548	780.6
491.964	785
492.381	762.6
492.776	773
493.193	776
493.61	780.4
494.006	772.8
494.422	780.2
494.84	773.6
495.235	780.6
495.652	773.2
496.069	760
496.465	761
496.883	751.8
497.3	776.2
497.696	756.4
498.113	759.6
498.509	751.2
498.927	740.6
499.344	750.8
499.741	750.4
500.158	763.8
500.576	761.4
500.973	748.6
501.39	741
501.787	742.8
502.205	754
502.623	744.2
503.02	727.6
503.438	748.4
503.856	731.8
504.253	742.6
504.671	740
505.068	721.6
505.486	729.4
505.905	755.4
506.302	732.8
506.72	748.6
507.118	725.6
507.536	718.4
507.955	727.8
508.352	729.8
508.771	723.4
509.169	737.8
509.587	723
510.006	729
510.404	710
510.823	710.2
511.221	718
511.64	718.8
512.038	731.8
512.457	719
512.877	710.4
513.275	708.4
513.694	709.2
514.092	711.8
514.512	706.8
514.91	714
515.33	705.6
515.749	709
516.148	701.8
516.568	704.2
516.966	715.2
517.386	700.8
517.785	702
518.205	700.4
518.603	693.6
519.024	693
519.444	696.8
519.843	701.8
520.263	702.6
520.662	699.2
521.082	692.2
521.481	696.6
521.902	694.6
522.301	691.4
522.722	694.2
523.121	688.6
523.542	678.8
523.963	683.4
524.362	690.2
524.783	688.4
525.183	677.6
525.604	685.2
526.003	677.8
526.425	677.4
526.824	679.2
527.246	691.4
527.646	682.4
528.067	675.4
528.467	677
528.888	679.8
529.289	685
529.71	669.6
530.11	663.8
530.532	668.4
530.932	661.2
531.354	669.8
531.755	703.8
532.176	677.4
532.577	675.2
532.999	667
533.4	668.6
533.822	673.4
534.223	662.4
534.645	660
535.046	664.4
535.468	666.6
535.869	681.2
536.292	666.4
536.693	691.4
537.115	667.4
537.516	663.6
537.939	658
538.34	668.8
538.742	670.6
539.165	667.2
539.566	659.4
539.989	651.6
540.391	653
540.814	658
541.216	664.6
541.639	659.6
542.041	668.2
542.464	657.2
542.866	647.2
543.268	649.8
543.691	663.6
544.093	653.6
544.517	678
544.919	641.2
545.343	665.8
545.745	656.4
546.147	647.4
546.571	653.2
546.974	640.4
547.398	645.4
547.8	664
548.224	653.8
548.627	651
549.03	651.6
549.454	636.4
549.857	639
550.281	641.2
550.684	637.4
551.087	648
551.512	647.2
551.915	654.6
552.34	640.8
552.743	637.2
553.146	644.4
553.571	640.4
553.975	658.6
554.399	634.6
554.803	692.2
555.207	630.8
555.632	631.8
556.036	639.2
556.461	630.8
556.865	635.6
557.268	625.6
557.694	629.2
558.098	636
558.502	634.6
558.927	627.2
559.332	638.8
559.736	631.6
560.162	634
560.566	626.2
560.992	638.8
561.396	637
561.801	627.2
562.227	631.2
562.631	627.6
563.036	615.8
563.462	630
563.867	624.6
564.272	617.4
564.698	635.4
565.103	622.4
565.508	647
565.935	630.2
566.34	614.6
566.745	630.2
567.172	622
567.577	644.6
567.982	642.6
568.409	623.4
568.815	612.6
569.22	634
569.626	634.4
570.053	603
570.459	626.2
570.865	629
571.292	625.8
571.698	623.8
572.104	614.2
572.531	619.8
572.937	628.4
573.343	628.2
573.75	609.8
574.177	614.2
574.583	623.4
574.99	621
575.396	625.2
575.824	621
576.231	622.8
576.637	611
577.065	638
577.472	609.2
577.879	613.4
578.286	620.8
578.714	598.4
579.121	611.8
579.528	614.4
579.935	615
580.364	617
580.771	586.8
581.178	615.8
581.585	614.8
582.014	614.8
582.421	611.8
582.829	610.6
583.236	623.2
583.644	609.4
584.073	605.6
584.481	612.6
584.889	605.2
585.296	607.4
585.726	617.4
586.134	601.2
586.542	608.4
586.95	628.8
587.358	604
587.787	611.2
588.196	617
588.604	611
589.012	612.8
589.421	603
589.851	602.4
590.259	605.4
590.668	607.6
591.076	643.2
591.485	604.2
591.894	611.8
592.324	623
592.733	618.8
593.142	596.4
593.551	599.4
593.96	637.8
594.369	601
594.8	593.4
595.209	604.6
595.618	596.4
596.028	610
596.437	596.2
596.847	608.8
597.256	603
597.687	612.4
598.097	601.8
598.507	587.6
598.917	602.6
599.327	612.6
599.736	609.6
600.146	609
600.556	604.8
600.988	609
601.398	601.6
601.808	612.6
602.219	589.2
602.629	596.4
603.039	601.8
603.45	632.2
603.86	606
604.271	612
604.703	600.2
605.114	600.6
605.525	601.6
605.935	610.6
606.346	627.2
606.757	597.6
607.168	605.6
607.579	589
607.99	613.2
608.402	604.8
608.813	599.4
609.224	600
609.636	593.4
610.047	597
610.48	600.2
610.892	603.8
611.303	604
611.715	594.2
612.127	598.6
612.539	595.8
612.95	606.2
613.362	589.8
613.774	598.2
614.186	598.2
614.599	599.4
615.011	600.2
615.423	599.6
615.835	599
616.248	577.2
616.66	611.8
617.073	588.6
617.485	591.2
617.898	601.2
618.311	592.2
618.723	585.6
619.136	623
619.549	615.4
619.962	611.6
620.375	586.6
620.788	599.2
621.201	581
621.614	597
622.028	591
622.441	606.4
622.854	606.2
623.268	591.8
623.681	598
624.095	605.4
624.509	605.4
624.922	602.6
625.336	587.2
625.728	601.2
626.142	602.4
626.556	620.6
626.97	608.4
627.384	588.2
627.799	593.8
628.213	608.4
628.627	595.2
629.041	585.8
629.456	589.2
629.87	592.8
630.285	603.8
630.699	604.8
631.093	590
631.507	597.4
631.922	597.8
632.337	609.2
632.752	585.4
633.167	597.2
633.582	591.2
633.997	592.6
634.412	587.4
634.806	597.2
635.221	576.8
635.637	602
636.052	591.2
636.468	607.8
636.883	607
637.299	591.8
637.715	595.4
638.109	592.8
638.525	582
638.941	599
639.357	598.4
639.773	592
640.189	592.8
640.584	594
641	592.6
641.416	585
641.832	589.2
642.249	593.2
642.665	599.4
643.06	595.4
643.477	604.6
643.894	584.2
644.31	598.6
644.727	603.4
645.123	592.2
645.54	585.8
645.957	588.8
646.374	610.4
646.77	593.2
647.187	621.4
647.604	602
648.021	579.8
648.439	586
648.835	596.8
649.252	590.6
649.67	585
650.088	606.6
650.484	595
650.902	596.6
651.32	601.8
651.738	590.4
652.134	594.4
652.552	616
652.971	604.6
653.389	587.4
653.786	594.6
654.204	607
654.622	579.2
655.019	599.2
655.438	596.2
655.857	592.6
656.275	597.4
656.673	587.2
657.091	596.8
657.51	584.6
657.908	596.8
658.327	604
658.746	579.6
659.144	585.8
659.563	599.8
659.982	593.6
660.38	584.2
660.8	586.8
661.219	599.2
661.617	604.8
662.037	601.4
662.457	608.2
662.855	575.6
663.275	625.2
663.695	589.4
664.094	589
664.514	591.2
664.934	589
665.333	594
665.753	591.8
666.152	583.8
666.572	587.4
666.993	601
667.392	591.4
667.812	583
668.212	589.4
668.632	601.2
669.053	588.4
669.453	594
669.874	592.4
670.273	587.6
670.694	581.2
671.116	592.4
671.515	592.4
671.937	583.8
672.337	586.6
672.758	584.6
673.158	597.2
673.58	582.2
673.98	590.2
674.402	597.6
674.824	582.6
675.224	578.4
675.646	581.4
676.047	584.4
676.469	593.4
676.869	593
677.292	592.6
677.693	587.8
678.115	585.6
678.516	592.8
678.939	594.6
679.34	591.8
679.762	599.4
680.164	596
680.586	579.4
680.988	592.8
681.411	607.6
681.812	591.4
682.236	583
682.637	580.8
683.061	580
683.462	590
683.864	582.6
684.288	602.8
684.69	588.6
685.114	599.4
685.516	591.4
685.94	587.2
686.342	599
686.766	582.8
687.168	588.4
687.571	608.2
687.995	582.4
688.398	575.4
688.822	593.2
689.225	608.2
689.628	608.4
690.052	590.8
690.456	587.8
690.88	587.8
691.284	587
691.687	589.2
692.112	579
692.515	576.8
692.919	589.2
693.344	587.2
693.747	583
694.173	587.2
694.577	601.8
694.98	595.4
695.406	583.8
695.81	591.2
696.214	593.6
696.64	596.4
697.044	587
697.448	594.8
697.874	590.2
698.279	596.2
698.684	575.8
699.11	586.8
699.514	587.6
699.919	584.4
700.324	582.4
700.75	586
701.156	587.4
701.561	602.6
701.987	589.8
702.393	595
702.798	599.8
703.203	595.6
703.63	590
704.036	576.4
704.442	588
704.847	584.4
705.274	587.2
705.68	592.6
706.086	597.2
706.492	575.4
706.92	584.2
707.326	597.8
707.732	584.2
708.139	578.2
708.545	582.4
708.973	587.2
709.38	583
709.786	579.2
710.193	607.6
710.6	591.2
711.028	580.4
711.435	594.6
711.842	586.2
712.249	576.6
712.656	581
713.064	591.8
713.492	565.2
713.9	585.2
714.307	588.4
714.715	584.4
715.123	587.6
715.53	589.8
715.938	593.2
716.367	585.4
716.775	586
717.184	579.8
717.592	584.4
718	598.2
718.408	615.4
718.816	623.6
719.225	589.4
719.633	591.8
720.042	581.6
720.472	586.8
720.881	599.6
721.29	596.8
721.699	580.2
722.108	584.6
722.517	592.8
722.926	581.6
723.335	591
723.744	587.4
724.154	589
724.563	593
724.973	590
725.382	585.6
725.792	574.6
726.202	575.4
726.612	607.2
727.022	591.8
727.432	581.8
779.813	582.2
780.223	633.2
780.634	585.4
781.044	581
781.454	581
781.865	600
782.276	572
782.686	591.4
783.097	589.4
783.508	585
783.919	589.2
784.33	597.2
784.741	599.6
785.152	578.6
785.563	574.2
785.974	578
786.386	592.4
786.776	579.8
787.188	595
787.599	571.4
788.011	594.4
788.423	591.4
788.835	581.4
789.247	578.6
789.659	575.4
790.071	585.4
790.483	624.8
790.874	580
791.286	592.2
791.699	579.2
792.111	582.8
792.524	587.8
792.937	577.4
793.349	573.2
793.741	582.2
794.154	572.2
794.567	593.8
794.98	583.4
795.393	582.4
795.785	602.2
796.198	589.8
796.612	580.8
797.026	582.2
797.439	568.8
797.831	579.4
798.245	572.4
798.659	583.2
799.073	582
799.487	578.6
799.88	578.6
800.294	593.4
800.708	590
801.123	586.8
801.516	603.8
801.93	575
802.345	573.6
802.76	588.6
803.153	598.4
803.568	592.6
803.983	596
804.377	588
804.792	574.2
805.207	572.4
805.601	589
806.016	616
806.432	578.2
806.826	617.4
807.242	592.4
807.658	592.2
808.052	579.4
808.468	577.2
808.884	574.2
809.279	584.8
809.695	599.2
810.111	610.6
810.506	581.8
810.922	603.8
811.339	586.8
811.734	599.8
812.151	582.2
812.546	581.2
812.963	576.2
813.38	584.8
813.776	590
814.193	613
814.589	576
815.006	575
815.402	574.2
815.82	575.4
816.237	580.4
816.633	585.8
817.051	579
817.448	576.2
817.866	578.2
818.262	596.6
818.68	563
819.077	571.4
819.495	574.6
819.892	610.4
820.311	566.8
820.708	575.4
821.127	572.4
821.524	592.2
821.943	583.4
822.34	598
822.759	579
823.157	583.8
823.576	594.2
823.974	585.2
824.393	598.8
824.791	577.8
825.189	578
825.609	579.4
826.007	579.8
826.427	570.6
826.826	581.2
827.246	588.8
827.644	564.6
828.043	600.2
828.463	583.8
828.862	597.4
829.261	586.6
829.682	577.6
830.081	591.8
830.502	574.8
830.901	589.6
831.301	596.8
831.722	569.8
832.121	578.8
832.521	574.4
832.943	589.8
833.342	582.4
833.742	583
834.164	572.2
834.564	575.4
834.965	582.6
835.386	584
835.787	579.6
836.188	586.2
836.588	591
837.01	581.6
837.411	579.4
837.812	587
838.213	583.6
838.636	579.8
839.037	652.6
839.438	584.4
839.84	588.8
840.263	587
840.664	593.2
841.066	576.6
841.468	578.2
841.891	577.8
842.293	596.2
842.695	592.4
843.098	587
843.5	579
843.902	589.4
844.326	589.8
844.729	585.2
845.131	592.8
845.534	587
845.937	587.4
846.34	603
846.764	581.2
847.167	594.4
847.571	567.8
847.974	577.8
848.377	582.6
848.781	634.6
849.184	598
849.588	577.6
849.992	583.6
850.396	582.2
850.821	602.2
851.225	583.2
851.63	576.2
852.034	591.4
852.438	583.6
852.843	665.6
853.247	579
853.652	576.2
854.057	596
854.462	582.8
854.867	586.4
855.272	608.8
855.677	587.4
856.082	574
856.487	579
