#lambda/nm	C1
208.295	506.6
208.67	461
209.045	426.4
209.419	429.6
209.794	604.4
210.169	591.2
210.544	722.2
210.919	625
211.295	600.8
211.67	614.4
212.045	613
212.421	607.6
212.796	645.8
213.172	607.6
213.547	612.2
213.923	610.2
214.299	604.2
214.675	622
215.051	620.4
215.427	620.2
215.803	627.6
216.179	616.4
216.555	612.6
216.932	625
217.308	617
217.684	605.4
218.061	620.2
218.438	617.8
218.814	616
219.191	622.4
219.568	611.6
219.945	608
220.322	625.4
220.699	621
221.076	615.2
221.453	617
221.83	606.8
222.208	614.2
222.585	612.8
222.962	612.8
223.34	611.2
223.717	617.6
224.095	618.4
224.473	612.8
224.851	613
225.229	608
225.607	639.4
225.985	608.4
226.363	619.8
226.741	624.8
227.119	612.8
227.497	627.4
227.876	603.4
228.254	629
228.633	622.6
229.011	619.4
229.39	620
229.769	621.2
230.148	631.4
230.527	632.6
230.905	610.8
231.284	622.6
231.664	613.2
232.043	622.2
232.422	617.4
232.801	611.4
233.181	613.2
233.56	610
233.94	623.6
234.319	611.6
234.699	610.6
235.079	653.4
235.458	649.4
235.838	633.8
236.218	607.8
236.598	599.2
236.978	609.2
237.358	606.8
237.738	615.8
238.119	625.2
238.499	606.6
238.88	618.2
239.26	638.4
239.641	606.2
240.021	603.8
240.402	623.6
240.783	617.8
241.163	611.6
241.544	612.8
241.925	620.2
242.306	625.2
242.687	624.8
243.069	613.6
243.45	619.4
243.831	613.2
244.212	606.6
244.594	650
244.975	622.6
245.357	617.4
245.739	604.4
246.12	618.8
246.502	629.2
246.884	611.4
247.266	614.2
247.648	622.4
248.03	636.8
248.412	616
248.794	620
249.176	620.6
249.559	617.4
249.941	605.2
250.323	608.6
250.706	609.2
251.089	613.6
251.471	621.6
251.854	618.4
252.237	616.8
252.62	624
253.002	613.4
253.385	614
253.769	633.4
254.152	616.2
254.535	618
254.918	608.6
255.301	621.2
255.685	620
256.068	614.2
256.452	640.2
256.835	628
257.219	618
257.603	620.4
257.986	614
258.37	629.6
258.754	607
259.138	629.8
259.522	627.4
259.906	619.4
260.29	624.2
260.675	611.6
261.059	613
261.443	610.8
261.828	623.2
262.212	624.4
262.597	605.4
262.981	613
263.366	622.8
263.751	612.8
264.136	605.8
264.521	612
264.906	610
265.291	612.8
265.676	607.4
266.061	616.8
266.446	634.2
266.831	615.6
267.217	639.4
267.602	608.6
267.987	618.4
268.373	615
268.759	637.2
269.144	618
269.53	617.4
269.916	611
270.302	611.4
270.688	623.8
271.074	620.6
271.46	631.2
271.846	646.8
272.232	626.8
272.618	609.2
273.004	616.6
273.391	626.2
273.777	619.4
274.164	619.6
274.55	624.4
274.937	616.6
275.324	607.4
275.71	624.2
276.097	626
276.484	598
276.871	611.2
277.258	618.6
277.645	607.6
278.032	610.8
278.419	608.4
278.807	616.6
279.194	600.8
279.581	605.6
279.969	622.4
280.356	616.6
280.744	617
281.131	632.2
281.519	635.8
281.907	621.2
282.295	609.2
282.682	627.2
283.07	612.6
283.458	621.8
283.846	626.8
284.235	630.2
284.623	624.4
285.011	614.4
285.399	628.4
285.788	616.4
286.176	609.8
286.565	636.2
286.953	609.8
287.342	613.2
287.731	611.4
288.119	609
288.508	617.2
288.897	612.2
289.286	611
289.675	621
290.064	633
290.453	617.4
290.821	615.6
291.21	629.8
291.599	616.6
291.989	620.8
292.378	623.8
292.768	633
293.157	625.4
293.547	616.8
293.936	622.4
294.326	619.4
294.716	625.4
295.106	613.4
295.496	622.6
295.886	626.2
296.276	608.4
296.666	607.8
297.056	609
297.446	614.2
297.836	633.6
298.227	616.4
298.617	622.4
299.008	633
299.398	625.2
299.789	611.2
300.179	622.2
300.57	621.6
300.961	609.2
301.352	611
301.742	625.4
302.133	612
302.524	619
302.915	615.2
303.307	614.6
303.698	625.6
304.089	612.4
304.48	612.6
304.872	630.4
305.263	616
305.655	604.4
306.046	630.4
306.438	624
306.829	611.2
307.221	639.4
307.613	627.2
308.005	629.8
308.397	624.8
308.789	638.4
309.181	643.6
309.573	629
309.965	624.4
310.357	601.2
310.749	629.8
311.142	615.8
311.534	615.8
311.926	620.2
312.319	614.6
312.711	617
313.104	629.6
313.497	616.2
313.889	663.8
314.282	637.6
314.675	643.2
315.068	623.8
315.461	628
315.854	646.6
316.247	625.4
316.64	613
317.033	624
317.405	621.2
317.798	616.2
318.192	619.4
318.585	611
318.979	621.8
319.372	608
319.766	607
320.16	629.8
320.553	632.6
320.947	636
321.341	611.2
321.735	612.2
322.129	605
322.523	642.4
322.917	609.4
323.311	624.8
323.705	623.8
324.099	624
324.494	626.6
324.888	628.4
325.282	609.6
325.677	628
326.071	622.6
326.466	633.6
326.861	620.4
327.255	626.4
327.65	630.8
328.045	634.6
328.44	621.6
328.835	628
329.23	614.2
329.625	643.8
330.02	612.4
330.415	638.8
330.81	623
331.206	617.4
331.601	617.8
331.996	629.8
332.37	639.2
332.766	615
333.161	655.6
333.557	615.8
333.953	620
334.348	901.4
334.744	619.2
335.14	616.8
335.536	611.6
335.932	638.6
336.328	625.6
336.724	635.2
337.12	617.8
337.516	622.2
337.913	619.6
338.309	626.8
338.705	619
339.102	624.2
339.498	611.4
339.895	634
340.291	613.4
340.688	623.4
341.085	605.8
341.481	610
341.878	612
342.275	635
342.672	607.2
343.069	617.8
343.466	611.2
343.842	630
344.239	610.4
344.636	615.8
345.033	615.6
345.431	601.6
345.828	615.2
346.225	613
346.623	656.2
347.02	620.4
347.418	623.6
347.816	631.8
348.213	611.4
348.611	618.8
349.009	616.2
349.407	627.4
349.805	613
350.203	602.6
350.601	630.2
350.999	611
351.397	663.6
351.795	613.4
352.193	628
352.57	629.8
352.969	633.4
353.367	600
353.766	616.4
354.164	615.4
354.563	620.6
354.961	614.2
355.36	606.2
355.759	617.2
356.158	610.2
356.557	605
356.956	605.8
357.355	605.8
357.754	612
358.153	621.2
358.552	639.4
358.951	616
359.35	616.8
359.75	605.4
360.149	607.2
360.527	595.8
360.926	598.8
361.326	623
361.726	614
362.125	599.2
362.525	615
362.925	612.2
363.325	620
363.724	619.2
364.124	613.4
364.524	598.8
364.924	613.6
365.324	615.8
365.725	598.2
366.125	619.2
366.525	613.4
366.904	601.6
367.304	603.8
367.705	630.4
368.105	628.4
368.506	615.8
368.906	612.2
369.307	607.6
369.708	617.6
370.108	600.4
370.509	623.8
370.91	607
371.311	611.6
371.712	610.4
372.113	606.8
372.514	595.4
372.894	612.2
373.295	601
373.696	612
374.097	618.6
374.499	634
374.9	615
375.301	606
375.703	610.8
376.105	602.2
376.506	610.6
376.908	626.2
377.309	610.4
377.711	611.6
378.113	609.2
378.493	611.2
378.895	603.2
379.297	615
379.699	602.2
380.102	607
380.504	615.8
380.906	597.4
381.308	631.8
381.71	608
382.113	607.2
382.515	605.4
382.918	614.8
383.299	606.8
383.701	623.8
384.104	612.8
384.507	589.8
384.909	610.8
385.312	606
385.715	604.6
386.118	606.6
386.521	600.4
386.924	618.2
387.327	610.2
387.709	605.6
388.112	600
388.515	606.8
388.918	609.4
389.322	609
389.725	605.6
390.129	632.2
390.532	616.8
390.936	612.2
391.339	604.2
391.743	619.8
392.125	607.8
392.529	623
392.933	620
393.337	614.4
393.74	608
394.144	614.6
394.548	592.2
394.953	602.8
395.357	608.2
395.761	603.6
396.144	604.2
396.548	610
396.952	604.4
397.357	612.2
397.761	603.2
398.166	605.8
398.57	611.6
398.975	600.4
399.379	612.8
399.763	659.2
400.168	612.4
400.572	612.4
400.977	606.2
401.382	630.4
401.787	619
402.192	628.4
402.597	626.8
403.002	593.6
403.386	624.4
403.791	622.2
404.197	606
404.602	606.6
405.007	611.4
405.413	593.6
405.818	609.8
406.224	603.2
406.608	604.8
407.014	597.8
407.42	618.4
407.825	599.2
408.231	623.2
408.637	606.4
409.043	627
409.449	599.4
409.834	597.6
410.24	611
410.646	617
411.052	615
411.458	618.2
411.865	620.6
412.271	624.8
412.677	610.4
413.062	621.2
413.469	596.4
413.875	629.4
414.282	627.6
414.689	619
415.095	622.2
415.502	611.8
415.888	603.8
416.294	593.2
416.701	641.4
417.108	599.6
417.515	615
417.923	609.4
418.33	633.6
418.715	622.4
419.123	618.2
419.53	604.2
419.937	609
420.345	623.8
420.752	613.2
421.16	627.4
421.546	612
421.953	617
422.361	609
422.769	618.2
423.177	608.4
423.585	637.4
423.992	639.2
424.379	618.2
424.787	623.6
425.195	638
425.603	615.8
426.011	627.2
426.419	620.6
426.806	618.6
427.214	625
427.623	623.8
428.031	636.4
428.44	617.2
428.848	633.4
429.235	629.6
429.644	624
430.053	624.2
430.461	645.6
430.87	657.8
431.279	648
431.666	636.4
432.075	636.6
432.484	666.8
432.893	654.4
433.302	682.2
433.711	704.6
434.099	681.4
434.508	696.8
434.918	691.6
435.327	709.8
435.737	717.2
436.125	729
436.534	736.4
436.944	745.6
437.353	748.8
437.763	781.8
438.173	769
438.561	792.6
438.971	776.4
439.381	803.8
439.791	803.6
440.201	790.4
440.589	824.4
440.999	840.8
441.409	834.8
441.819	824.8
442.23	858.6
442.619	864.4
443.029	861.6
443.439	864
443.85	880.8
444.26	889.2
444.649	886.2
445.06	894.8
445.471	896.2
445.881	913
446.292	925.2
446.682	924.6
447.092	900.6
447.503	954.4
447.914	910.6
448.325	928.2
448.715	920.8
449.126	927.6
449.537	934.4
449.948	931.4
450.338	940
450.75	934.8
451.161	950.8
451.572	938.6
451.984	929.4
452.374	911
452.786	934.8
453.197	953
453.609	942.4
453.999	948.4
454.411	946
454.823	954.2
455.235	952.2
455.647	932.8
456.037	956.6
456.449	939.2
456.862	953.8
457.274	957.8
457.665	942
458.077	952
458.489	990
458.902	959.2
459.293	963
459.705	952.4
460.118	952.8
460.53	967.4
460.921	956.6
461.334	958.8
461.747	958.2
462.16	972.8
462.551	975.8
462.964	966
463.377	943.2
463.79	959.2
464.182	967.4
464.595	959.8
465.008	975.6
465.421	971
465.813	953.4
466.226	972.4
466.64	961.2
467.053	1007
467.445	985.2
467.859	984.6
468.272	967
468.686	977
469.078	961.4
469.492	946.4
469.906	969.4
470.298	973
470.712	947.6
471.126	1023.6
471.54	947.4
471.933	960.2
472.347	954.8
472.761	953.8
473.175	943.2
473.568	955
473.982	945.6
474.397	948
474.79	946.4
475.204	954.6
475.619	941.8
476.033	943.8
476.426	937
476.841	942.4
477.256	955.6
477.649	942
478.064	923.8
478.479	925
478.872	920.4
479.287	913.2
479.702	935.4
480.118	923.2
480.511	925.4
480.927	917.2
481.342	923.2
481.736	930.4
482.151	908
482.566	923.2
482.96	915.6
483.376	922.8
483.792	898.8
484.186	915.6
484.602	911
485.017	905
485.412	911.4
485.827	911.4
486.243	898.4
486.638	923
487.054	913.4
487.47	925.6
487.865	900.2
488.281	898.6
488.697	886.8
489.092	893
489.508	885.8
489.925	890.8
490.32	881
490.736	897.6
491.153	877
491.548	880.2
491.964	894.2
492.381	864
492.776	887.4
493.193	867.8
493.61	870.8
494.006	871
494.422	872.6
494.84	865
495.235	872.4
495.652	852.2
496.069	853.2
496.465	849.2
496.883	847.8
497.3	870.2
497.696	839.2
498.113	848.4
498.509	838
498.927	828.2
499.344	823.4
499.741	837.6
500.158	834.8
500.576	849.8
500.973	830.4
501.39	826
501.787	820
502.205	832.2
502.623	814.2
503.02	807.2
503.438	815.4
503.856	821.4
504.253	817.2
504.671	811.2
505.068	798.6
505.486	801.4
505.905	816.2
506.302	805.8
506.72	821
507.118	796.6
507.536	798.2
507.955	799.8
508.352	807
508.771	799
509.169	807
509.587	775.2
510.006	785.2
510.404	767.4
510.823	774.2
511.221	777.2
511.64	768
512.038	788.2
512.457	771.4
512.877	777.4
513.275	765
513.694	766.4
514.092	763.6
514.512	765
514.91	782
515.33	760.6
515.749	763
516.148	764
516.568	768.6
516.966	759.8
517.386	747
517.785	758.4
518.205	744
518.603	743.4
519.024	736.2
519.444	744.2
519.843	764.6
520.263	762.8
520.662	751.4
521.082	728.2
521.481	742.2
521.902	737
522.301	740
522.722	740.4
523.121	732.2
523.542	725
523.963	728.8
524.362	726.4
524.783	738.8
525.183	722
525.604	731.2
526.003	714.2
526.425	714.2
526.824	727.4
527.246	731.8
527.646	733.2
528.067	716.4
528.467	710.8
528.888	718.6
529.289	716
529.71	709.8
530.11	703.2
530.532	710.4
530.932	696.8
531.354	695.6
531.755	743.4
532.176	722.8
532.577	703.2
532.999	701.2
533.4	697.6
533.822	707.8
534.223	705.8
534.645	686
535.046	689
535.468	697
535.869	708.8
536.292	687.6
536.693	715.4
537.115	700.4
537.516	686
537.939	676.2
538.34	704
538.742	701.4
539.165	686.2
539.566	691.2
539.989	675
540.391	677
540.814	680
541.216	690.8
541.639	678
542.041	687.4
542.464	677
542.866	669.6
543.268	676.2
543.691	691.2
544.093	685.4
544.517	698.6
544.919	670
545.343	695.8
545.745	668
546.147	676.2
546.571	668.2
546.974	669.2
547.398	679.8
547.8	679.8
548.224	665.4
548.627	656.4
549.03	662.8
549.454	665
549.857	646.6
550.281	655
550.684	663.2
551.087	674.6
551.512	663.8
551.915	658.8
552.34	660.2
552.743	660.2
553.146	658.8
553.571	652.4
553.975	669.2
554.399	651.6
554.803	703.8
555.207	652
555.632	649.8
556.036	661.6
556.461	642
556.865	647.4
557.268	641.2
557.694	648.2
558.098	659.8
558.502	659.4
558.927	634.2
559.332	638.6
559.736	647.6
560.162	656.8
560.566	638.4
560.992	657.2
561.396	642.2
561.801	634.2
562.227	649.2
562.631	642.8
563.036	641.8
563.462	650
563.867	643.2
564.272	633.6
564.698	644.6
565.103	634.6
565.508	662
565.935	640
566.34	640.2
566.745	647
567.172	637.4
567.577	652.4
567.982	656.6
568.409	644.8
568.815	631.6
569.22	631.8
569.626	636.8
570.053	622.4
570.459	633.8
570.865	635.2
571.292	639.8
571.698	638.2
572.104	616
572.531	623
572.937	635.6
573.343	622.4
573.75	626.8
574.177	632.4
574.583	631.4
574.99	631
575.396	637.2
575.824	634.2
576.231	639.2
576.637	626
577.065	649.4
577.472	631.2
577.879	621.8
578.286	638
578.714	620.8
579.121	624.2
579.528	630.6
579.935	641
580.364	619.8
580.771	610.4
581.178	617
581.585	622.2
582.014	627.8
582.421	618.8
582.829	622.6
583.236	630.8
583.644	614.2
584.073	624.4
584.481	620.8
584.889	608
585.296	613.4
585.726	628.6
586.134	609.6
586.542	612
586.95	638.6
587.358	606.6
587.787	620
588.196	622.2
588.604	615.2
589.012	611.4
589.421	608.4
589.851	605.2
590.259	621.8
590.668	613.2
591.076	645.4
591.485	607.8
591.894	602.4
592.324	628.6
592.733	621
593.142	606.6
593.551	610.6
593.96	624
594.369	605.2
594.8	603.6
595.209	607.8
595.618	597.2
596.028	614.4
596.437	597.4
596.847	613.6
597.256	601.4
597.687	615
598.097	608.2
598.507	600.4
598.917	608.6
599.327	614.8
599.736	601.4
600.146	610.2
600.556	606
600.988	611.6
601.398	608.6
601.808	617.4
602.219	592.6
602.629	608
603.039	608.6
603.45	628.2
603.86	605.2
604.271	621.8
604.703	606
605.114	603.6
605.525	609
605.935	611.8
606.346	629.4
606.757	614
607.168	606.6
607.579	594.2
607.99	615.4
608.402	604.2
608.813	603.2
609.224	602.6
609.636	593.4
610.047	599.2
610.48	611
610.892	606.2
611.303	599
611.715	608.2
612.127	596.4
612.539	594.8
612.95	610.6
613.362	597.8
613.774	585.2
614.186	598
614.599	598
615.011	617
615.423	603.4
615.835	589.2
616.248	595.4
616.66	601.2
617.073	590
617.485	593.8
617.898	610.8
618.311	609.4
618.723	609.8
619.136	629
619.549	622
619.962	623.8
620.375	600.8
620.788	601.4
621.201	597.6
621.614	609
622.028	605.6
622.441	605.6
622.854	605.8
623.268	594.6
623.681	604.6
624.095	600.8
624.509	609.8
624.922	606.2
625.336	588.8
625.728	593.2
626.142	605.4
626.556	623
626.97	605.6
627.384	601.2
627.799	596
628.213	607.8
628.627	598
629.041	590.8
629.456	597.2
629.87	598.4
630.285	600.2
630.699	603.8
631.093	590.6
631.507	598
631.922	594.4
632.337	616
632.752	584.2
633.167	600.2
633.582	593.8
633.997	595.4
634.412	593.6
634.806	602.8
635.221	593.2
635.637	614.6
636.052	590.4
636.468	611
636.883	611.6
637.299	596
637.715	579.6
638.109	593
638.525	596.4
638.941	615.6
639.357	597.6
639.773	608.6
640.189	602.4
640.584	592.2
641	600.6
641.416	587.2
641.832	597.2
642.249	592.2
642.665	597.4
643.06	597.8
643.477	609
643.894	579.6
644.31	592.6
644.727	600.2
645.123	596.4
645.54	593.4
645.957	593.8
646.374	610.6
646.77	588.8
647.187	626
647.604	591.4
648.021	585.6
648.439	587
648.835	602.2
649.252	595.6
649.67	588.8
650.088	597.8
650.484	597
650.902	603.8
651.32	599.2
651.738	589.4
652.134	596
652.552	610.8
652.971	602.8
653.389	590
653.786	606
654.204	615.4
654.622	595.6
655.019	599
655.438	601.6
655.857	595.8
656.275	590.8
656.673	583.8
657.091	597.2
657.51	587.8
657.908	611
658.327	609.8
658.746	592.8
659.144	590.4
659.563	600
659.982	594.4
660.38	583
660.8	590.6
661.219	603.6
661.617	601.6
662.037	594.8
662.457	614.4
662.855	580.2
663.275	619.6
663.695	600.6
664.094	591.6
664.514	595.4
664.934	586.6
665.333	600.2
665.753	586.2
666.152	585.2
666.572	588.4
666.993	603.4
667.392	586
667.812	594.2
668.212	585
668.632	599.2
669.053	581.6
669.453	600.2
669.874	597.8
670.273	599.8
670.694	591.4
671.116	602
671.515	592.8
671.937	588.4
672.337	588.6
672.758	584
673.158	596.6
673.58	587.8
673.98	595.4
674.402	612.8
674.824	596.8
675.224	589.2
675.646	589.2
676.047	585.4
676.469	583
676.869	595.4
677.292	603.2
677.693	585.4
678.115	588.8
678.516	601.8
678.939	596.2
679.34	593.6
679.762	603
680.164	591.2
680.586	589.2
680.988	600.8
681.411	621.8
681.812	589.2
682.236	583.6
682.637	580.2
683.061	579.6
683.462	593.8
683.864	586.4
684.288	592.6
684.69	580.2
685.114	600.8
685.516	593.2
685.94	578
686.342	598.8
686.766	572.4
687.168	586.4
687.571	603
687.995	586.6
688.398	571
688.822	594.2
689.225	595.8
689.628	612.6
690.052	590.2
690.456	594.6
690.88	586.6
691.284	582
691.687	596.2
692.112	581.4
692.515	579.4
692.919	588.8
693.344	595.6
693.747	580
694.173	582
694.577	601.2
694.98	579.8
695.406	585.2
695.81	592
696.214	591.8
696.64	598.4
697.044	587.6
697.448	597.4
697.874	587
698.279	591.8
698.684	586
699.11	582.4
699.514	576.4
699.919	584
700.324	582
700.75	590.8
701.156	590.4
701.561	601.2
701.987	584.6
702.393	593.8
702.798	608.6
703.203	593.6
703.63	578.6
704.036	573.8
704.442	584.6
704.847	579.2
705.274	590
705.68	594.8
706.086	595.4
706.492	575.8
706.92	586.6
707.326	596.2
707.732	585.4
708.139	578.6
708.545	583.2
708.973	583.8
709.38	590.6
709.786	576.8
710.193	603.4
710.6	590.8
711.028	587.6
711.435	580
711.842	596.4
712.249	575.2
712.656	585
713.064	596.6
713.492	583
713.9	586.4
714.307	592.8
714.715	586.2
715.123	594.8
715.53	596.4
715.938	595.8
716.367	581.4
716.775	586.6
717.184	586.6
717.592	592.4
718	608.2
718.408	620.4
718.816	634.4
719.225	598
719.633	590
720.042	576.2
720.472	582.6
720.881	606.8
721.29	598.8
721.699	582.8
722.108	590.4
722.517	587.6
722.926	582.8
723.335	594
723.744	592.8
724.154	586.6
724.563	581.6
724.973	587.8
725.382	595.6
725.792	588.8
726.202	582.4
726.612	607
727.022	585.8
727.432	582.8
779.813	583.6
780.223	632.2
780.634	590.2
781.044	571
781.454	587.6
781.865	593.8
782.276	581.6
782.686	591.8
783.097	584
783.508	578.4
783.919	584.2
784.33	604.8
784.741	598.2
785.152	582.6
785.563	573
785.974	577.4
786.386	597.4
786.776	583
787.188	586
787.599	581.6
788.011	592.4
788.423	583.6
788.835	585.8
789.247	579.4
789.659	577.2
790.071	586.2
790.483	618.4
790.874	580.4
791.286	598.6
791.699	581.2
792.111	595.6
792.524	597.6
792.937	584.6
793.349	580
793.741	580.2
794.154	572.6
794.567	603
794.98	580.8
795.393	574.6
795.785	599.4
796.198	584.8
796.612	587.8
797.026	578.8
797.439	568.6
797.831	583
798.245	567.4
798.659	586.6
799.073	581.8
799.487	577
799.88	584.6
800.294	575.2
800.708	592.8
801.123	589
801.516	605.2
801.93	582.8
802.345	577.4
802.76	583.4
803.153	604.2
803.568	600.8
803.983	596.4
804.377	585
804.792	576.8
805.207	576
805.601	593.2
806.016	609.2
806.432	582.8
806.826	615.8
807.242	600.6
807.658	593.6
808.052	589.6
808.468	583
808.884	576.8
809.279	588.8
809.695	601
810.111	603.6
810.506	593.4
810.922	594.2
811.339	581
811.734	596.4
812.151	583.8
812.546	574.2
812.963	576.6
813.38	581.4
813.776	586.4
814.193	598.6
814.589	574.6
815.006	581.2
815.402	582
815.82	582.8
816.237	584
816.633	585.2
817.051	583.6
817.448	588.2
817.866	574
818.262	598.8
818.68	581.6
819.077	585.4
819.495	582.4
819.892	618.6
820.311	583.2
820.708	586.2
821.127	576.2
821.524	596.4
821.943	594.2
822.34	606.6
822.759	583.4
823.157	584.2
823.576	598.4
823.974	594
824.393	607.4
824.791	578.8
825.189	583.4
825.609	582.4
826.007	585.4
826.427	573.4
826.826	593.6
827.246	583.8
827.644	572.4
828.043	599.2
828.463	582.8
828.862	597
829.261	586.8
829.682	566.6
830.081	589.6
830.502	573.4
830.901	590
831.301	594.4
831.722	574.4
832.121	575.8
832.521	575.4
832.943	578.2
833.342	580
833.742	579
834.164	581.4
834.564	570.6
834.965	584
835.386	581
835.787	581.6
836.188	579.6
836.588	578.2
837.01	581.4
837.411	581.4
837.812	589
838.213	589.8
838.636	579.2
839.037	645.8
839.438	590
839.84	579
840.263	584.4
840.664	591.6
841.066	587.8
841.468	587.6
841.891	576.6
842.293	589.4
842.695	582.2
843.098	587.2
843.5	577.6
843.902	589.2
844.326	582.6
844.729	580.8
845.131	596.4
845.534	584.4
845.937	594.4
846.34	595.2
846.764	566.2
847.167	584.4
847.571	576.2
847.974	589.8
848.377	586.6
848.781	623.8
849.184	595.2
849.588	571
849.992	577
850.396	581.8
850.821	597.6
851.225	578.4
851.63	579.6
852.034	595
852.438	574.4
852.843	654.4
853.247	583
853.652	572
854.057	599.6
854.462	586.2
854.867	592.2
855.272	608.8
855.677	587
856.082	577
856.487	572.8
