#lambda/nm	C1
208.295	511.4
208.67	471.6
209.045	427.4
209.419	430.4
209.794	607.8
210.169	597
210.544	721.4
210.919	612.8
211.295	601.2
211.67	617.6
212.045	607
212.421	610
212.796	654
213.172	615.2
213.547	609.2
213.923	609.2
214.299	612
214.675	623.8
215.051	616.6
215.427	624.8
215.803	639
216.179	621.2
216.555	614.6
216.932	623.2
217.308	615.4
217.684	619.8
218.061	619.4
218.438	625.6
218.814	614.4
219.191	627.8
219.568	602.2
219.945	610.6
220.322	626.4
220.699	617.2
221.076	626.6
221.453	622.8
221.83	606
222.208	607.4
222.585	611.8
222.962	615.8
223.34	608.4
223.717	608.2
224.095	612.8
224.473	611.8
224.851	607.4
225.229	601.4
225.607	628
225.985	600.2
226.363	611
226.741	610.4
227.119	613.8
227.497	627.6
227.876	600.6
228.254	618.4
228.633	612
229.011	607.4
229.39	619.2
229.769	610.8
230.148	620.2
230.527	626.4
230.905	618.4
231.284	622.6
231.664	610.4
232.043	622.4
232.422	619.8
232.801	603.8
233.181	618.8
233.56	611.4
233.94	615.4
234.319	608.8
234.699	610.8
235.079	654.4
235.458	647.2
235.838	625.8
236.218	610.8
236.598	597.4
236.978	615
237.358	605
237.738	622
238.119	623.6
238.499	604
238.88	613.2
239.26	631.6
239.641	608.6
240.021	617.4
240.402	615.8
240.783	604.2
241.163	609.4
241.544	621.2
241.925	609.6
242.306	624.2
242.687	619.6
243.069	620.6
243.45	622.2
243.831	605
244.212	612.6
244.594	653.2
244.975	624.8
245.357	616.2
245.739	607.6
246.12	615.6
246.502	625.6
246.884	619.8
247.266	612.8
247.648	623.8
248.03	640.2
248.412	619.4
248.794	624.6
249.176	614.8
249.559	625
249.941	605.6
250.323	610
250.706	609.4
251.089	612.8
251.471	618
251.854	618.4
252.237	617
252.62	628
253.002	616.6
253.385	614.6
253.769	631.6
254.152	614.8
254.535	628.4
254.918	610.8
255.301	621
255.685	618.6
256.068	610.2
256.452	644.8
256.835	624.4
257.219	623.4
257.603	629.4
257.986	602.8
258.37	621.6
258.754	605.6
259.138	620
259.522	633.6
259.906	607.8
260.29	620
260.675	618.6
261.059	623.4
261.443	611
261.828	617.8
262.212	621.6
262.597	606.2
262.981	613.6
263.366	628.4
263.751	620.8
264.136	607.8
264.521	613.2
264.906	610.6
265.291	626.2
265.676	609.4
266.061	620
266.446	632
266.831	626
267.217	635.2
267.602	623.6
267.987	624.8
268.373	611.2
268.759	633.6
269.144	632.8
269.53	620.2
269.916	618
270.302	615.8
270.688	618
271.074	621.8
271.46	630.6
271.846	653
272.232	614
272.618	605.4
273.004	617.8
273.391	620
273.777	628
274.164	622
274.55	632.4
274.937	613.2
275.324	604
275.71	621.2
276.097	620.4
276.484	594
276.871	612
277.258	617.6
277.645	591.2
278.032	602.6
278.419	613
278.807	607.6
279.194	608.4
279.581	601.2
279.969	619
280.356	620.4
280.744	612.4
281.131	634
281.519	629.8
281.907	612.4
282.295	606.6
282.682	632.6
283.07	620
283.458	620
283.846	633.8
284.235	628.6
284.623	623.4
285.011	602
285.399	623.2
285.788	622.4
286.176	609.6
286.565	631.4
286.953	602.6
287.342	620.2
287.731	608.8
288.119	613.2
288.508	607
288.897	614.8
289.286	605.4
289.675	619.6
290.064	632.2
290.453	612
290.821	622.2
291.21	635.8
291.599	614.8
291.989	620.2
292.378	620.8
292.768	637.4
293.157	614.6
293.547	632.6
293.936	613
294.326	611.6
294.716	616.2
295.106	615
295.496	626.6
295.886	628
296.276	620
296.666	610
297.056	609.2
297.446	603.6
297.836	630
298.227	617.6
298.617	620.2
299.008	634.2
299.398	617
299.789	611.8
300.179	628.8
300.57	641.2
300.961	611.2
301.352	621.8
301.742	630.2
302.133	609.2
302.524	616
302.915	624.6
303.307	615
303.698	626
304.089	626.2
304.48	627.6
304.872	624.8
305.263	617.4
305.655	611.2
306.046	619.6
306.438	628
306.829	618.8
307.221	628.2
307.613	622
308.005	625.2
308.397	627.2
308.789	641.4
309.181	648
309.573	643.4
309.965	636.8
310.357	615.8
310.749	627.8
311.142	616.4
311.534	619
311.926	624.6
312.319	616.4
312.711	607.4
313.104	633.2
313.497	609.8
313.889	651.6
314.282	628.6
314.675	642
315.068	625
315.461	632
315.854	652.4
316.247	629
316.64	619.4
317.033	625.6
317.405	621.6
317.798	623.2
318.192	618.8
318.585	602.8
318.979	618.2
319.372	613.6
319.766	615.8
320.16	626.4
320.553	631.4
320.947	631.4
321.341	617
321.735	614.2
322.129	600
322.523	634.4
322.917	597.8
323.311	634
323.705	611
324.099	622.8
324.494	637.8
324.888	623
325.282	615
325.677	629.2
326.071	622.4
326.466	632.8
326.861	620.6
327.255	631.4
327.65	626.4
328.045	631.8
328.44	613.2
328.835	616.2
329.23	612
329.625	643.2
330.02	614.2
330.415	627.2
330.81	614
331.206	615.2
331.601	606.2
331.996	634.8
332.37	645.2
332.766	605
333.161	639
333.557	615.2
333.953	615.6
334.348	927
334.744	619.6
335.14	619
335.536	619.4
335.932	628.2
336.328	618.4
336.724	627.6
337.12	610.2
337.516	623.4
337.913	624.4
338.309	640
338.705	611.2
339.102	626.2
339.498	616
339.895	633.4
340.291	616.8
340.688	615
341.085	616
341.481	614.8
341.878	616
342.275	635.4
342.672	607.2
343.069	612.4
343.466	606
343.842	619.6
344.239	605.8
344.636	606.2
345.033	614.6
345.431	610.4
345.828	624.4
346.225	607.8
346.623	656.8
347.02	618.8
347.418	623.4
347.816	639.2
348.213	614.4
348.611	622.2
349.009	612.2
349.407	628.2
349.805	614.2
350.203	611.4
350.601	629.8
350.999	608.2
351.397	666.8
351.795	609.6
352.193	631
352.57	618
352.969	623.6
353.367	611.6
353.766	609
354.164	612.6
354.563	627.4
354.961	608.4
355.36	601.2
355.759	609.8
356.158	602.4
356.557	609.2
356.956	606.6
357.355	604.4
357.754	615.4
358.153	625
358.552	640.2
358.951	617.8
359.35	628.4
359.75	612
360.149	601
360.527	598.8
360.926	605
361.326	613.6
361.726	614.2
362.125	600.6
362.525	619.8
362.925	611.6
363.325	610.6
363.724	611.6
364.124	604.6
364.524	610
364.924	610.6
365.324	621.8
365.725	596.2
366.125	621.4
366.525	611.2
366.904	605.6
367.304	592.8
367.705	622.2
368.105	622.6
368.506	612.2
368.906	619.8
369.307	615.6
369.708	608
370.108	598.6
370.509	616.6
370.91	605.4
371.311	610.8
371.712	601
372.113	597.6
372.514	598
372.894	599
373.295	599.4
373.696	604.2
374.097	620
374.499	633.2
374.9	609.6
375.301	602.2
375.703	604.8
376.105	598.6
376.506	599.2
376.908	614.6
377.309	608.4
377.711	605.4
378.113	607.2
378.493	604.8
378.895	603
379.297	621.2
379.699	595.6
380.102	605.8
380.504	614
380.906	600.8
381.308	636
381.71	607
382.113	614.4
382.515	612.8
382.918	623.2
383.299	608
383.701	623.6
384.104	614.6
384.507	593.2
384.909	615
385.312	603.2
385.715	597.8
386.118	609.4
386.521	598.4
386.924	625.4
387.327	600
387.709	595.8
388.112	592.8
388.515	613
388.918	605.8
389.322	615
389.725	601.2
390.129	643.8
390.532	613.8
390.936	609.6
391.339	610.4
391.743	603.8
392.125	601.8
392.529	621.2
392.933	616.2
393.337	607.4
393.74	601.2
394.144	615.2
394.548	602.2
394.953	603.4
395.357	614
395.761	603
396.144	613.2
396.548	605.6
396.952	609.2
397.357	615.6
397.761	607
398.166	600.4
398.57	613.4
398.975	597.8
399.379	611.2
399.763	654.8
400.168	611.4
400.572	602.2
400.977	601.2
401.382	626.8
401.787	624.2
402.192	627.2
402.597	624.8
403.002	597.6
403.386	631
403.791	630.8
404.197	594.4
404.602	608.8
405.007	607.6
405.413	612.6
405.818	612.8
406.224	608.6
406.608	610
407.014	604
407.42	612.8
407.825	601.4
408.231	616.8
408.637	613
409.043	623.4
409.449	603.6
409.834	606.8
410.24	607.2
410.646	625.6
411.052	622.8
411.458	619.8
411.865	612.8
412.271	619.2
412.677	614.8
413.062	613.6
413.469	601.2
413.875	636.8
414.282	621.2
414.689	615.4
415.095	619.4
415.502	603.6
415.888	612.2
416.294	593.4
416.701	653.8
417.108	604.6
417.515	615.6
417.923	609.2
418.33	621.6
418.715	617.2
419.123	598.6
419.53	607
419.937	605.2
420.345	624.8
420.752	597.4
421.16	616.6
421.546	611.4
421.953	618.6
422.361	595.8
422.769	615
423.177	607.4
423.585	629.6
423.992	637.6
424.379	625.2
424.787	614.6
425.195	626.8
425.603	607.6
426.011	623.8
426.419	624.4
426.806	618
427.214	611.6
427.623	622.4
428.031	621.4
428.44	610.8
428.848	624
429.235	627.6
429.644	616.6
430.053	618.6
430.461	630.8
430.87	645.8
431.279	633.6
431.666	616.2
432.075	620.8
432.484	632.8
432.893	620.2
433.302	651.4
433.711	681.4
434.099	637.4
434.508	640.6
434.918	631.8
435.327	649.8
435.737	656.8
436.125	661
436.534	676.4
436.944	677.2
437.353	685.2
437.763	700.8
438.173	677
438.561	699.4
438.971	681.6
439.381	704.8
439.791	714.8
440.201	699.8
440.589	724
440.999	740.4
441.409	737.4
441.819	722
442.23	761.8
442.619	756
443.029	749.8
443.439	760.2
443.85	774.2
444.26	779.8
444.649	773.8
445.06	770
445.471	767.6
445.881	773.8
446.292	798.6
446.682	809.6
447.092	782.2
447.503	849.2
447.914	795.4
448.325	806.8
448.715	805.6
449.126	804.2
449.537	801.8
449.948	801
450.338	814.2
450.75	807.6
451.161	817.4
451.572	824.8
451.984	816
452.374	802.2
452.786	835.6
453.197	822.2
453.609	836.4
453.999	818.8
454.411	814.4
454.823	843.2
455.235	825.8
455.647	833.6
456.037	822.4
456.449	819.4
456.862	831.4
457.274	839.4
457.665	827.2
458.077	839.6
458.489	857.8
458.902	835.4
459.293	839.8
459.705	847.6
460.118	830
460.53	842.2
460.921	832.4
461.334	833.8
461.747	826.4
462.16	844.6
462.551	850.4
462.964	840.8
463.377	828.4
463.79	838.8
464.182	862.6
464.595	836.2
465.008	836.4
465.421	855.4
465.813	835.2
466.226	845.4
466.64	837.4
467.053	890.2
467.445	851
467.859	862.8
468.272	848.8
468.686	862.8
469.078	849
469.492	832.4
469.906	845.4
470.298	852.4
470.712	836
471.126	886.6
471.54	832.2
471.933	834.8
472.347	834.6
472.761	832.8
473.175	829.6
473.568	833
473.982	834.8
474.397	843.2
474.79	834.8
475.204	846.4
475.619	840.8
476.033	843.6
476.426	838.2
476.841	823.6
477.256	861.6
477.649	823.8
478.064	823.8
478.479	820.6
478.872	819
479.287	820.6
479.702	828.8
480.118	832.2
480.511	832.4
480.927	820.8
481.342	822.2
481.736	834.4
482.151	812.8
482.566	831.6
482.96	825.2
483.376	845.6
483.792	817
484.186	825
484.602	814.6
485.017	820.8
485.412	814
485.827	816.2
486.243	810.2
486.638	835.6
487.054	825
487.47	833
487.865	794.2
488.281	810.8
488.697	804.4
489.092	810.6
489.508	795.2
489.925	814
490.32	798.6
490.736	807.4
491.153	808.2
491.548	803.8
491.964	804.2
492.381	788.2
492.776	797.2
493.193	798.8
493.61	799
494.006	792.8
494.422	799.2
494.84	778
495.235	805
495.652	785.4
496.069	786.2
496.465	776
496.883	771.4
497.3	797.8
497.696	777.2
498.113	783
498.509	758.8
498.927	768.2
499.344	764
499.741	766.4
500.158	788.6
500.576	777
500.973	778.6
501.39	756.4
501.787	757.2
502.205	764.6
502.623	748.8
503.02	748.6
503.438	763
503.856	754.4
504.253	751.4
504.671	754.6
505.068	752.4
505.486	746
505.905	768.8
506.302	762
506.72	759.4
507.118	730.4
507.536	751.4
507.955	744.4
508.352	751.6
508.771	747.2
509.169	743.8
509.587	733.6
510.006	736.8
510.404	723
510.823	728.2
511.221	730.8
511.64	726.8
512.038	744.4
512.457	725
512.877	727.2
513.275	720.8
513.694	725
514.092	718.4
514.512	713.6
514.91	723.2
515.33	713.2
515.749	713.4
516.148	720
516.568	721
516.966	716
517.386	707.4
517.785	710.6
518.205	706.4
518.603	702.4
519.024	695.8
519.444	698.2
519.843	709
520.263	706.4
520.662	711.8
521.082	703
521.481	699.4
521.902	703
522.301	700.8
522.722	694.2
523.121	697.6
523.542	695.4
523.963	691.6
524.362	691.2
524.783	697.2
525.183	689.4
525.604	692.6
526.003	683.4
526.425	682
526.824	692
527.246	695
527.646	690.6
528.067	685.4
528.467	687.4
528.888	693.8
529.289	678.8
529.71	678.4
530.11	675.8
530.532	679.6
530.932	667.8
531.354	666.8
531.755	710.8
532.176	686.6
532.577	679.2
532.999	672.8
533.4	674.4
533.822	684.4
534.223	676
534.645	671
535.046	669
535.468	663.8
535.869	677.2
536.292	660.4
536.693	705.6
537.115	670.2
537.516	660
537.939	657
538.34	683
538.742	677.8
539.165	663
539.566	665.6
539.989	661.8
540.391	655.8
540.814	667
541.216	660.4
541.639	659.8
542.041	663
542.464	660.4
542.866	659.6
543.268	661.6
543.691	656.4
544.093	663.2
544.517	682.2
544.919	645.8
545.343	680.6
545.745	647
546.147	663.6
546.571	645.2
546.974	646.6
547.398	650.8
547.8	669
548.224	641.4
548.627	642
549.03	642.2
549.454	647.6
549.857	647.8
550.281	638
550.684	638.4
551.087	652.4
551.512	649
551.915	651.4
552.34	636.8
552.743	641.2
553.146	644.2
553.571	643
553.975	660.4
554.399	633
554.803	689.6
555.207	638.8
555.632	626.6
556.036	640.2
556.461	624.8
556.865	643.6
557.268	637.4
557.694	634.6
558.098	649.6
558.502	639
558.927	630.8
559.332	640.6
559.736	630.2
560.162	639.4
560.566	631.4
560.992	642.4
561.396	638
561.801	629.6
562.227	638
562.631	628.6
563.036	626.2
563.462	626
563.867	636.8
564.272	621.6
564.698	633.2
565.103	619.8
565.508	646.6
565.935	621.2
566.34	624.8
566.745	632
567.172	622
567.577	635.6
567.982	627
568.409	620.4
568.815	610
569.22	631
569.626	622.8
570.053	606.4
570.459	627.2
570.865	623.4
571.292	621.2
571.698	623.2
572.104	604.2
572.531	622.6
572.937	627.4
573.343	618.6
573.75	616.6
574.177	628.2
574.583	625.8
574.99	611.6
575.396	622.2
575.824	616.2
576.231	627
576.637	613.2
577.065	643
577.472	615
577.879	611.6
578.286	630
578.714	605
579.121	610.8
579.528	625.4
579.935	629.4
580.364	613.6
580.771	594.8
581.178	611.6
581.585	618.2
582.014	621.4
582.421	617.6
582.829	612.6
583.236	631
583.644	606.2
584.073	608.6
584.481	614.8
584.889	606.6
585.296	614
585.726	607.8
586.134	599.4
586.542	616
586.95	627.6
587.358	606.2
587.787	614.2
588.196	627
588.604	606.2
589.012	604
589.421	603.4
589.851	610
590.259	613.4
590.668	606.4
591.076	640
591.485	608.8
591.894	611.6
592.324	629
592.733	625
593.142	600.2
593.551	604.8
593.96	647
594.369	602.8
594.8	598.2
595.209	604.8
595.618	600.2
596.028	603.2
596.437	592.6
596.847	608.4
597.256	612.8
597.687	611
598.097	604
598.507	604.8
598.917	611.4
599.327	602.6
599.736	613.2
600.146	611
600.556	597.6
600.988	625.4
601.398	602.6
601.808	618.8
602.219	589.2
602.629	600.8
603.039	603.2
603.45	630.2
603.86	615.2
604.271	617.6
604.703	605
605.114	601.8
605.525	599.6
605.935	599.8
606.346	624.4
606.757	615.2
607.168	601.2
607.579	602.8
607.99	609.4
608.402	603.4
608.813	605
609.224	601.4
609.636	590.2
610.047	590
610.48	597.8
610.892	605
611.303	607.8
611.715	599
612.127	587
612.539	589.4
612.95	611.6
613.362	587.4
613.774	586
614.186	595.8
614.599	585
615.011	606.2
615.423	602.6
615.835	590.2
616.248	593.4
616.66	601.8
617.073	588.2
617.485	594.8
617.898	605.8
618.311	595.6
618.723	602.4
619.136	631.4
619.549	608.4
619.962	621.8
620.375	598.4
620.788	597.2
621.201	599.6
621.614	604.6
622.028	600.6
622.441	605.4
622.854	607
623.268	591.8
623.681	604.8
624.095	596.8
624.509	604.6
624.922	604
625.336	593
625.728	592.8
626.142	609
626.556	614.8
626.97	605.8
627.384	592.4
627.799	592.4
628.213	609.6
628.627	596
629.041	591.2
629.456	596.6
629.87	596.2
630.285	599.4
630.699	614
631.093	588.2
631.507	598.8
631.922	603.8
632.337	616.4
632.752	591.4
633.167	592.2
633.582	596.4
633.997	596.2
634.412	596
634.806	590
635.221	587.8
635.637	605
636.052	582.8
636.468	603.2
636.883	620.8
637.299	590.6
637.715	589.2
638.109	602.6
638.525	589.4
638.941	606.4
639.357	597.4
639.773	605.8
640.189	591.6
640.584	593.8
641	600.2
641.416	585.6
641.832	597
642.249	589.6
642.665	597.6
643.06	604.4
643.477	596.8
643.894	580.8
644.31	598.8
644.727	602.2
645.123	594.8
645.54	587
645.957	593.2
646.374	609.4
646.77	600.4
647.187	627.6
647.604	591.2
648.021	583.2
648.439	584.2
648.835	595.4
649.252	594
649.67	590.8
650.088	595
650.484	599.4
650.902	607.6
651.32	601.6
651.738	589.4
652.134	594.4
652.552	614.8
652.971	594.2
653.389	593.6
653.786	614
654.204	615.6
654.622	590.2
655.019	593.6
655.438	590.2
655.857	588.4
656.275	595
656.673	592.4
657.091	608.4
657.51	584.6
657.908	594.4
658.327	604.4
658.746	576.2
659.144	588.8
659.563	606.8
659.982	597
660.38	578.8
660.8	590.2
661.219	596.4
661.617	592.8
662.037	585
662.457	597.8
662.855	566.6
663.275	612.2
663.695	588.2
664.094	583.2
664.514	591.4
664.934	580.6
665.333	597.4
665.753	582.6
666.152	588.6
666.572	579.4
666.993	592.4
667.392	578.4
667.812	587.6
668.212	584.8
668.632	602.8
669.053	590.4
669.453	592.4
669.874	589.6
670.273	594
670.694	585.8
671.116	595
671.515	600.6
671.937	581.8
672.337	588.2
672.758	583.8
673.158	594.6
673.58	584.2
673.98	587.2
674.402	598.8
674.824	594.8
675.224	585
675.646	589.8
676.047	591.4
676.469	600.6
676.869	595.4
677.292	594.4
677.693	585.4
678.115	586.4
678.516	589.6
678.939	584.8
679.34	584.8
679.762	613.2
680.164	594.4
680.586	582
680.988	597.2
681.411	617.6
681.812	582.4
682.236	587.8
682.637	575
683.061	584
683.462	597.4
683.864	581.6
684.288	585.4
684.69	582.6
685.114	598.2
685.516	603.2
685.94	576.4
686.342	593.2
686.766	591.4
687.168	586.2
687.571	601.2
687.995	590
688.398	584.8
688.822	583.4
689.225	611.6
689.628	610.6
690.052	592
690.456	590.8
690.88	586.4
691.284	579.8
691.687	589.6
692.112	578.8
692.515	588.6
692.919	591.4
693.344	594.4
693.747	585
694.173	587.4
694.577	596.8
694.98	588.6
695.406	577.6
695.81	590.4
696.214	585.6
696.64	593
697.044	595.8
697.448	602
697.874	583.2
698.279	587.2
698.684	584.6
699.11	588.6
699.514	582
699.919	582.6
700.324	581.6
700.75	594.2
701.156	590.2
701.561	605.8
701.987	593.6
702.393	595
702.798	599.8
703.203	590.4
703.63	584.2
704.036	579.8
704.442	584.4
704.847	584.6
705.274	586.4
705.68	592.6
706.086	589.8
706.492	575.2
706.92	590.6
707.326	589.2
707.732	582.2
708.139	579.4
708.545	583.8
708.973	581.6
709.38	580.4
709.786	578.8
710.193	593.8
710.6	590.8
711.028	579.8
711.435	582.2
711.842	585.8
712.249	592.2
712.656	586
713.064	593.2
713.492	581
713.9	585.8
714.307	588.2
714.715	579
715.123	589.2
715.53	592.2
715.938	587
716.367	582.2
716.775	588.6
717.184	580
717.592	573
718	593.8
718.408	612.4
718.816	629.8
719.225	593.4
719.633	590.6
720.042	576.6
720.472	587.8
720.881	600.6
721.29	597.8
721.699	579.4
722.108	588.4
722.517	591.8
722.926	579
723.335	600.2
723.744	585
724.154	584.2
724.563	596.6
724.973	587.8
725.382	583.4
725.792	589.4
726.202	582.4
726.612	608
727.022	584.4
727.432	586.4
779.813	580.6
780.223	630.8
780.634	594.6
781.044	584.2
781.454	590.4
781.865	600.2
782.276	576.2
782.686	593.8
783.097	592.6
783.508	582.8
783.919	592.8
784.33	590
784.741	592.6
785.152	578.2
785.563	566.6
785.974	579
786.386	589.4
786.776	585
787.188	587.8
787.599	585
788.011	597
788.423	597.4
788.835	580.4
789.247	580.8
789.659	581.8
790.071	588.8
790.483	626.2
790.874	579.2
791.286	596.4
791.699	583.4
792.111	588.4
792.524	583.6
792.937	581
793.349	571.4
793.741	581.2
794.154	583.2
794.567	607
794.98	580.6
795.393	576.6
795.785	599.6
796.198	575.2
796.612	576.4
797.026	579.6
797.439	572
797.831	587.4
798.245	576.2
798.659	588.4
799.073	581
799.487	578.8
799.88	586.2
800.294	576.6
800.708	578.4
801.123	586
801.516	611.6
801.93	576.8
802.345	574.4
802.76	593.6
803.153	607.4
803.568	595.4
803.983	596.8
804.377	592.6
804.792	575.6
805.207	579.4
805.601	582.8
806.016	614.4
806.432	571.8
806.826	604
807.242	598
807.658	579
808.052	575.6
808.468	579
808.884	568.8
809.279	583.6
809.695	595.6
810.111	589.6
810.506	580.2
810.922	597.8
811.339	572.2
811.734	590.6
812.151	573.6
812.546	577.6
812.963	572.4
813.38	580.4
813.776	578.2
814.193	600
814.589	571.2
815.006	579.4
815.402	569
815.82	567.2
816.237	578.4
816.633	587.8
817.051	574.2
817.448	586.8
817.866	572.2
818.262	597.4
818.68	578.6
819.077	584
819.495	589.8
819.892	625.4
820.311	588
820.708	585.4
821.127	580
821.524	591
821.943	584.4
822.34	603
822.759	580
823.157	582.8
823.576	605.4
823.974	597.6
824.393	629.4
824.791	584.6
825.189	580.8
825.609	574.4
826.007	584
826.427	580.2
826.826	584.2
827.246	594.8
827.644	585
828.043	596
828.463	584.2
828.862	593
829.261	593.4
829.682	580.2
830.081	590.4
830.502	587.2
830.901	594.8
831.301	593.8
831.722	575.4
832.121	584.6
832.521	577.6
832.943	585.6
833.342	577.4
833.742	579
834.164	583.6
834.564	576
834.965	583.4
835.386	572.8
835.787	585.2
836.188	579
836.588	587.2
837.01	581.8
837.411	575
837.812	592.4
838.213	586.4
838.636	576.4
839.037	648.6
839.438	590.4
839.84	581.2
840.263	596
840.664	572.8
841.066	572.8
841.468	590.2
841.891	581
842.293	589.4
842.695	590.2
843.098	597.2
843.5	588.2
843.902	588
844.326	586.2
844.729	588.6
845.131	596.4
845.534	590.6
845.937	595.4
846.34	599
846.764	583
847.167	587.2
847.571	570.8
847.974	588.8
848.377	574.8
848.781	628.4
849.184	593.8
849.588	572.6
849.992	581.4
850.396	579.6
850.821	601.4
851.225	575.4
851.63	580.6
852.034	603.2
852.438	581.2
852.843	657.8
853.247	576.2
853.652	577.4
854.057	597.4
854.462	582.6
854.867	587.4
855.272	609
855.677	583.8
856.082	579
