#lambda/nm	C1
208.295	512.6
208.67	462.2
209.045	423.4
209.419	434.2
209.794	612
210.169	598.4
210.544	720
210.919	616.4
211.295	608.4
211.67	609.6
212.045	610.8
212.421	607.2
212.796	647.2
213.172	607.2
213.547	616.4
213.923	611.6
214.299	608
214.675	623.8
215.051	625
215.427	626.2
215.803	627.4
216.179	621.2
216.555	612
216.932	620.8
217.308	619
217.684	611.4
218.061	619.2
218.438	618.6
218.814	606.2
219.191	620
219.568	609.6
219.945	608.6
220.322	617.6
220.699	633.2
221.076	626.8
221.453	621.4
221.83	613.2
222.208	611.8
222.585	610.6
222.962	619
223.34	618.8
223.717	612.8
224.095	609.8
224.473	622.6
224.851	614
225.229	599
225.607	636
225.985	604.8
226.363	621.4
226.741	611.8
227.119	614.4
227.497	627.6
227.876	602.8
228.254	625.8
228.633	615.8
229.011	612.4
229.39	626.6
229.769	616.4
230.148	617.6
230.527	641.2
230.905	608.4
231.284	619
231.664	613.2
232.043	632.4
232.422	622.6
232.801	616
233.181	622.2
233.56	616.8
233.94	617
234.319	596.6
234.699	617.8
235.079	653.8
235.458	654.4
235.838	641.4
236.218	602.8
236.598	601.8
236.978	601.4
237.358	612.2
237.738	603.4
238.119	616.8
238.499	606.2
238.88	614.2
239.26	633.6
239.641	603.6
240.021	601.4
240.402	608.8
240.783	620
241.163	610.4
241.544	618.4
241.925	608
242.306	633.4
242.687	627.8
243.069	615.4
243.45	629.4
243.831	617.2
244.212	618.4
244.594	651.4
244.975	619.6
245.357	622
245.739	615.8
246.12	614.8
246.502	630
246.884	615.4
247.266	612.2
247.648	620.4
248.03	644.8
248.412	615.4
248.794	621.2
249.176	615.4
249.559	628.8
249.941	615.6
250.323	601.6
250.706	606
251.089	615.4
251.471	615
251.854	620
252.237	611.2
252.62	622.8
253.002	616
253.385	611.6
253.769	627
254.152	609.4
254.535	626
254.918	610.2
255.301	603.8
255.685	611
256.068	608
256.452	637
256.835	625.2
257.219	627.4
257.603	635.8
257.986	610.8
258.37	626.2
258.754	602.6
259.138	627.2
259.522	625.2
259.906	617.8
260.29	616.4
260.675	617
261.059	617.4
261.443	605.2
261.828	619.2
262.212	622.2
262.597	605
262.981	612.8
263.366	617.8
263.751	610.4
264.136	611.6
264.521	609.4
264.906	607
265.291	622.2
265.676	611.2
266.061	631.6
266.446	632.6
266.831	607.4
267.217	633.2
267.602	619
267.987	625.8
268.373	608.2
268.759	626.4
269.144	617.2
269.53	613.6
269.916	616
270.302	621.4
270.688	619.2
271.074	619.8
271.46	624.6
271.846	652
272.232	615.2
272.618	617.4
273.004	611.8
273.391	628.2
273.777	626.8
274.164	617.8
274.55	625.4
274.937	619
275.324	613
275.71	621.8
276.097	616
276.484	611.4
276.871	620.4
277.258	619.4
277.645	600
278.032	613.4
278.419	612.2
278.807	617.6
279.194	608.4
279.581	609.6
279.969	623.8
280.356	614.8
280.744	619.8
281.131	640.4
281.519	624.2
281.907	619.2
282.295	609.2
282.682	632.2
283.07	622
283.458	626.8
283.846	628.2
284.235	634.6
284.623	624.6
285.011	606.2
285.399	627.2
285.788	616.6
286.176	608.2
286.565	631.8
286.953	609
287.342	610.8
287.731	612.2
288.119	619.2
288.508	616.4
288.897	619.2
289.286	609.6
289.675	617.8
290.064	632
290.453	612.8
290.821	621.8
291.21	630.2
291.599	613.4
291.989	626
292.378	622.8
292.768	639.8
293.157	623.8
293.547	630.6
293.936	605.4
294.326	602.6
294.716	625
295.106	606.8
295.496	620.2
295.886	621.8
296.276	623.6
296.666	613.8
297.056	608.2
297.446	611.2
297.836	638.4
298.227	608
298.617	627
299.008	628.8
299.398	622.4
299.789	613.2
300.179	618.8
300.57	635
300.961	611.6
301.352	617.8
301.742	623.4
302.133	617.8
302.524	621
302.915	627.2
303.307	608
303.698	630
304.089	631
304.48	620.8
304.872	624
305.263	619.2
305.655	615
306.046	625.4
306.438	616.8
306.829	613.4
307.221	624
307.613	619.8
308.005	625.4
308.397	629.6
308.789	629.2
309.181	640.4
309.573	633.8
309.965	640.4
310.357	610.6
310.749	638.4
311.142	609.8
311.534	610.6
311.926	620.2
312.319	619.6
312.711	615.2
313.104	627.4
313.497	620.6
313.889	654.6
314.282	637.6
314.675	646.2
315.068	620.6
315.461	624.4
315.854	651
316.247	631.2
316.64	613.2
317.033	616
317.405	628.4
317.798	611.2
318.192	621.4
318.585	605.6
318.979	615.2
319.372	609
319.766	622.2
320.16	634.8
320.553	633.8
320.947	634.6
321.341	611.4
321.735	621.4
322.129	597.2
322.523	639.2
322.917	612.8
323.311	626.8
323.705	616.6
324.099	623.6
324.494	631.8
324.888	621.6
325.282	617
325.677	627.4
326.071	627.8
326.466	636.2
326.861	625.8
327.255	628.8
327.65	627.2
328.045	626.2
328.44	625.6
328.835	615.2
329.23	611.8
329.625	640.8
330.02	608.4
330.415	633.8
330.81	623
331.206	622.2
331.601	617.8
331.996	627.2
332.37	643.2
332.766	607.6
333.161	637.4
333.557	614.2
333.953	609.6
334.348	888.2
334.744	611
335.14	608.6
335.536	610.6
335.932	626
336.328	620.2
336.724	628.8
337.12	610.6
337.516	619.6
337.913	619
338.309	633.6
338.705	614.6
339.102	636
339.498	618
339.895	633.4
340.291	614
340.688	623.4
341.085	599.8
341.481	617.4
341.878	614.2
342.275	640.4
342.672	607.6
343.069	613.6
343.466	606
343.842	623.4
344.239	604.4
344.636	617.4
345.033	605.6
345.431	612.8
345.828	614.4
346.225	612.8
346.623	659.2
347.02	619.6
347.418	627.6
347.816	630.8
348.213	611
348.611	623.6
349.009	608.6
349.407	629.8
349.805	601.6
350.203	605.4
350.601	628.2
350.999	609
351.397	674.4
351.795	610.8
352.193	626.4
352.57	618.6
352.969	632
353.367	606.8
353.766	605.4
354.164	611.4
354.563	630
354.961	614.6
355.36	617.6
355.759	609.8
356.158	606.6
356.557	607.4
356.956	607.4
357.355	604.4
357.754	620
358.153	624.8
358.552	637.2
358.951	603.6
359.35	622
359.75	601.8
360.149	602.2
360.527	601.2
360.926	600
361.326	623.4
361.726	609.6
362.125	603.6
362.525	621.2
362.925	608.2
363.325	609.8
363.724	611.8
364.124	615.6
364.524	607.2
364.924	600.6
365.324	614.2
365.725	596
366.125	612.8
366.525	607.4
366.904	605.6
367.304	592.2
367.705	623.4
368.105	615
368.506	610.6
368.906	612.6
369.307	607.8
369.708	612.2
370.108	595
370.509	615.2
370.91	608.4
371.311	607.4
371.712	622.2
372.113	609.6
372.514	603
372.894	606
373.295	599.8
373.696	617.8
374.097	613.8
374.499	638.4
374.9	609.4
375.301	604.2
375.703	616.6
376.105	603.2
376.506	614.4
376.908	616.6
377.309	609.2
377.711	618
378.113	608.4
378.493	605.2
378.895	613.6
379.297	611.8
379.699	601.2
380.102	611.2
380.504	612
380.906	604.4
381.308	638.2
381.71	606
382.113	614.6
382.515	607.8
382.918	611.4
383.299	610.8
383.701	617.2
384.104	612
384.507	594.4
384.909	614.2
385.312	599.6
385.715	599
386.118	608
386.521	597.2
386.924	615.2
387.327	606.2
387.709	604
388.112	602.2
388.515	608.4
388.918	608
389.322	612.6
389.725	604
390.129	635
390.532	616.2
390.936	606.6
391.339	600.2
391.743	625.8
392.125	605.2
392.529	619.8
392.933	620
393.337	606
393.74	609.4
394.144	600.8
394.548	606
394.953	597.6
395.357	611.6
395.761	618
396.144	617.2
396.548	609.4
396.952	608.6
397.357	607.8
397.761	596.4
398.166	614.2
398.57	605.2
398.975	602
399.379	606.8
399.763	666.8
400.168	608
400.572	612.8
400.977	602.4
401.382	633.4
401.787	621.2
402.192	617.8
402.597	619
403.002	599.2
403.386	625.2
403.791	628.8
404.197	604
404.602	608.8
405.007	611.8
405.413	607
405.818	605.2
406.224	603
406.608	603.8
407.014	609.8
407.42	623
407.825	600.2
408.231	617.6
408.637	613.6
409.043	627.8
409.449	605.8
409.834	597.8
410.24	607.2
410.646	629
411.052	620
411.458	613.2
411.865	616.8
412.271	616.4
412.677	614.2
413.062	612
413.469	600.6
413.875	639.8
414.282	624.4
414.689	610.8
415.095	620
415.502	608
415.888	612
416.294	596.2
416.701	653.4
417.108	608.8
417.515	613
417.923	611.2
418.33	628.8
418.715	616.6
419.123	612.4
419.53	608
419.937	615.6
420.345	628.4
420.752	609.6
421.16	633
421.546	619.4
421.953	608
422.361	602
422.769	607
423.177	603.6
423.585	636
423.992	635.8
424.379	627
424.787	623.4
425.195	636.4
425.603	615.8
426.011	619.8
426.419	622.6
426.806	616.4
427.214	607.2
427.623	625.2
428.031	628.8
428.44	612.2
428.848	623.2
429.235	627.4
429.644	619.8
430.053	622.8
430.461	627.6
430.87	641
431.279	624
431.666	608.2
432.075	604.8
432.484	616.6
432.893	609.4
433.302	636
433.711	653.6
434.099	624.8
434.508	616
434.918	612.6
435.327	635.6
435.737	629
436.125	634
436.534	643
436.944	640
437.353	640.2
437.763	668
438.173	644.2
438.561	664.6
438.971	642
439.381	664.8
439.791	674.4
440.201	652.6
440.589	678
440.999	677.6
441.409	681.2
441.819	675.6
442.23	696.8
442.619	698.2
443.029	698
443.439	703.4
443.85	710.6
444.26	711.8
444.649	714
445.06	714.4
445.471	711.2
445.881	722.6
446.292	738.6
446.682	747.4
447.092	715.8
447.503	780
447.914	731.4
448.325	733.8
448.715	734.2
449.126	733.4
449.537	736.6
449.948	744
450.338	748
450.75	755.2
451.161	742.2
451.572	758.4
451.984	739
452.374	730.6
452.786	756.6
453.197	760
453.609	770
453.999	746
454.411	760.2
454.823	771.6
455.235	763.6
455.647	753.2
456.037	765
456.449	750.6
456.862	765
457.274	758.8
457.665	763.2
458.077	776.4
458.489	797.6
458.902	776
459.293	774.4
459.705	772.4
460.118	764.8
460.53	769.2
460.921	771.6
461.334	775.4
461.747	774
462.16	792
462.551	798
462.964	783.4
463.377	766
463.79	785.2
464.182	788.4
464.595	781.8
465.008	787.6
465.421	800.6
465.813	792.4
466.226	801
466.64	784.8
467.053	843.8
467.445	802.2
467.859	811.4
468.272	787.2
468.686	808.4
469.078	785.6
469.492	789.8
469.906	790
470.298	809.6
470.712	782.2
471.126	852.2
471.54	792
471.933	792.8
472.347	808.6
472.761	810.2
473.175	796
473.568	796.6
473.982	788.8
474.397	799.8
474.79	801
475.204	805.2
475.619	800
476.033	798.6
476.426	801.4
476.841	791.8
477.256	815.8
477.649	800
478.064	787.4
478.479	786
478.872	793
479.287	778.2
479.702	781.8
480.118	786.2
480.511	792.2
480.927	793.4
481.342	782
481.736	788.6
482.151	785.8
482.566	791.8
482.96	785.2
483.376	796.4
483.792	787.4
484.186	795.4
484.602	788
485.017	787.4
485.412	785.6
485.827	786.4
486.243	781.8
486.638	810.2
487.054	794.6
487.47	801.4
487.865	781
488.281	782.2
488.697	778
489.092	780.8
489.508	769.8
489.925	788.2
490.32	764.4
490.736	780.6
491.153	773
491.548	764.2
491.964	785.2
492.381	770.4
492.776	774.8
493.193	764
493.61	775.6
494.006	773.2
494.422	772.2
494.84	768.2
495.235	771.6
495.652	757.4
496.069	768.6
496.465	754
496.883	756.6
497.3	783.6
497.696	756.4
498.113	766.2
498.509	747.6
498.927	741.2
499.344	742
499.741	737.8
500.158	750.8
500.576	754.8
500.973	751
501.39	732.4
501.787	732.8
502.205	744.8
502.623	742
503.02	735
503.438	735.2
503.856	739
504.253	745.4
504.671	746.4
505.068	722
505.486	726
505.905	744
506.302	730.4
506.72	734.4
507.118	726
507.536	726.4
507.955	730.2
508.352	725.8
508.771	733.6
509.169	732.8
509.587	714.8
510.006	723.6
510.404	712.4
510.823	718
511.221	718
511.64	711.6
512.038	725.2
512.457	710.8
512.877	710.8
513.275	707.4
513.694	710.6
514.092	713.2
514.512	709
514.91	717.8
515.33	712.4
515.749	703.4
516.148	702
516.568	703.2
516.966	704.4
517.386	701.2
517.785	708.8
518.205	695.2
518.603	698
519.024	682.2
519.444	702.6
519.843	701
520.263	712.2
520.662	698
521.082	694.4
521.481	707.4
521.902	701.2
522.301	701.8
522.722	690.4
523.121	697.2
523.542	698
523.963	688.6
524.362	687.2
524.783	684.4
525.183	680.2
525.604	684.8
526.003	680.4
526.425	669.6
526.824	686.2
527.246	694.2
527.646	688.4
528.067	683.8
528.467	677.2
528.888	672.6
529.289	677.2
529.71	673.4
530.11	668.6
530.532	661.6
530.932	653
531.354	661.8
531.755	693.2
532.176	679.6
532.577	666.8
532.999	661.8
533.4	662.6
533.822	673.6
534.223	673
534.645	661.2
535.046	661.4
535.468	663.8
535.869	676.2
536.292	658.8
536.693	693.6
537.115	663
537.516	653
537.939	655.4
538.34	675.4
538.742	670.4
539.165	668.6
539.566	667.2
539.989	664.8
540.391	654.6
540.814	667.2
541.216	659.6
541.639	659.4
542.041	663.4
542.464	654.8
542.866	643.4
543.268	645.6
543.691	658.4
544.093	649.6
544.517	678.2
544.919	650
545.343	676
545.745	643.2
546.147	661.2
546.571	639.8
546.974	643.8
547.398	649.2
547.8	660.6
548.224	642
548.627	642.8
549.03	650.2
549.454	642
549.857	636.8
550.281	637.6
550.684	647.6
551.087	648.4
551.512	645.2
551.915	642.2
552.34	640
552.743	634.8
553.146	638.2
553.571	634.8
553.975	650.2
554.399	631.8
554.803	685.4
555.207	632.8
555.632	626
556.036	636.6
556.461	619.4
556.865	636
557.268	626.2
557.694	634.4
558.098	642.8
558.502	635.4
558.927	633
559.332	634.8
559.736	636.4
560.162	643.6
560.566	629.8
560.992	636
561.396	631.2
561.801	624.4
562.227	627.6
562.631	624.4
563.036	622.4
563.462	635.8
563.867	633
564.272	617
564.698	626.6
565.103	621.2
565.508	652.8
565.935	630.8
566.34	623.8
566.745	642.6
567.172	622.4
567.577	636.8
567.982	639.6
568.409	630
568.815	621.8
569.22	627.4
569.626	635.6
570.053	617.4
570.459	625.2
570.865	635.2
571.292	629
571.698	620.6
572.104	609.6
572.531	612.4
572.937	629.4
573.343	630.6
573.75	618.6
574.177	616.2
574.583	624.2
574.99	613.8
575.396	624.2
575.824	620
576.231	631.6
576.637	621
577.065	651.4
577.472	617
577.879	610
578.286	637.6
578.714	608.4
579.121	613
579.528	618
579.935	627
580.364	611.2
580.771	602.4
581.178	607.8
581.585	617.8
582.014	616.4
582.421	609.8
582.829	607
583.236	630.6
583.644	605
584.073	610.8
584.481	614
584.889	609.2
585.296	617.8
585.726	613.4
586.134	612
586.542	604.8
586.95	630
587.358	606.8
587.787	612.6
588.196	621.2
588.604	605.8
589.012	609.8
589.421	610
589.851	602.4
590.259	608.2
590.668	602.4
591.076	628.4
591.485	608.2
591.894	606
592.324	621.4
592.733	623.2
593.142	601.2
593.551	607
593.96	638.4
594.369	590.2
594.8	596.8
595.209	599.8
595.618	590.8
596.028	603.2
596.437	592.2
596.847	601
597.256	607.2
597.687	606.6
598.097	599.2
598.507	599
598.917	606.4
599.327	604.6
599.736	609.4
600.146	610.8
600.556	613
600.988	617.6
601.398	606
601.808	619
602.219	589.4
602.629	604
603.039	599.2
603.45	632.8
603.86	602.4
604.271	621.8
604.703	608.2
605.114	598.2
605.525	598.6
605.935	599.6
606.346	624.4
606.757	601.4
607.168	600
607.579	594
607.99	618
608.402	605.6
608.813	601.6
609.224	597.4
609.636	594.6
610.047	603.6
610.48	611.4
610.892	600.6
611.303	608.2
611.715	599
612.127	594.8
612.539	605.6
612.95	611.2
613.362	584.8
613.774	586.8
614.186	587.6
614.599	595.8
615.011	606.4
615.423	601.4
615.835	601.2
616.248	595
616.66	605
617.073	592.6
617.485	604.6
617.898	609.8
618.311	599.4
618.723	600.8
619.136	630.2
619.549	614
619.962	622.4
620.375	596.4
620.788	602.2
621.201	596.8
621.614	602.8
622.028	601
622.441	602.2
622.854	611.8
623.268	591.8
623.681	602
624.095	598
624.509	610.8
624.922	609.8
625.336	589.6
625.728	597.8
626.142	610.4
626.556	613
626.97	604.6
627.384	597.4
627.799	599
628.213	607.4
628.627	595.2
629.041	592.4
629.456	591.4
629.87	598
630.285	606.6
630.699	606.2
631.093	604.4
631.507	605.2
631.922	603.6
632.337	614.8
632.752	592
633.167	592.2
633.582	598
633.997	595.4
634.412	589.6
634.806	600.2
635.221	595.4
635.637	605.4
636.052	588.4
636.468	601.6
636.883	615.4
637.299	595.6
637.715	587.2
638.109	597.4
638.525	582.2
638.941	609.8
639.357	591.2
639.773	605.8
640.189	586.4
640.584	594.2
641	597.6
641.416	580.6
641.832	588.2
642.249	592.6
642.665	593
643.06	602.2
643.477	613.6
643.894	580.2
644.31	593.6
644.727	593.8
645.123	591.8
645.54	584.4
645.957	598.8
646.374	603.4
646.77	597.4
647.187	620.6
647.604	595.8
648.021	588
648.439	592
648.835	604
649.252	592.6
649.67	591
650.088	595.2
650.484	593.4
650.902	597
651.32	592.2
651.738	585.2
652.134	594.8
652.552	606.4
652.971	593.8
653.389	591.2
653.786	612
654.204	612.4
654.622	586.2
655.019	594.6
655.438	602
655.857	595.2
656.275	594.4
656.673	592.6
657.091	602.2
657.51	588.2
657.908	604.4
658.327	606.4
658.746	580.6
659.144	588.4
659.563	604.4
659.982	602.4
660.38	583.8
660.8	600.2
661.219	603.2
661.617	596
662.037	587.8
662.457	605.6
662.855	583.2
663.275	626.8
663.695	594.2
664.094	594.2
664.514	604.4
664.934	589.4
665.333	596.8
665.753	597.8
666.152	583.6
666.572	585.2
666.993	609.8
667.392	589.6
667.812	594
668.212	591.2
668.632	603
669.053	592
669.453	598.2
669.874	601.8
670.273	600.8
670.694	597
671.116	606.2
671.515	600.8
671.937	586.8
672.337	589.6
672.758	591.6
673.158	600.2
673.58	583.2
673.98	595.2
674.402	602
674.824	592.2
675.224	581.2
675.646	575.2
676.047	583
676.469	589.6
676.869	593.6
677.292	595.4
677.693	585.2
678.115	588.6
678.516	592.6
678.939	595.6
679.34	591.6
679.762	597.8
680.164	599.6
680.586	580.8
680.988	587.4
681.411	616.4
681.812	587.8
682.236	586.6
682.637	583
683.061	582.2
683.462	591.2
683.864	585.6
684.288	597.4
684.69	579.6
685.114	599.6
685.516	599.6
685.94	576.8
686.342	596.2
686.766	585.2
687.168	583.6
687.571	614.6
687.995	596.6
688.398	579.4
688.822	586.6
689.225	601.2
689.628	606
690.052	596
690.456	591
690.88	589.6
691.284	577.8
691.687	598.4
692.112	581.6
692.515	582.2
692.919	582.4
693.344	593.4
693.747	586.2
694.173	579
694.577	603
694.98	589.6
695.406	583.8
695.81	596.8
696.214	596
696.64	591
697.044	597.2
697.448	601.6
697.874	589.4
698.279	581.6
698.684	580.4
699.11	580.6
699.514	581.6
699.919	580.4
700.324	581.2
700.75	591.2
701.156	588.2
701.561	598.6
701.987	594.2
702.393	598.8
702.798	606.4
703.203	589.6
703.63	587.4
704.036	586.4
704.442	592
704.847	585.4
705.274	585
705.68	599.2
706.086	597.4
706.492	573.8
706.92	585.6
707.326	596.6
707.732	588.8
708.139	582.8
708.545	584.8
708.973	583.8
709.38	582
709.786	585.8
710.193	606.8
710.6	590
711.028	584.2
711.435	582
711.842	595.6
712.249	582.6
712.656	588.6
713.064	597.8
713.492	586
713.9	584
714.307	596
714.715	588
715.123	590
715.53	597
715.938	599.4
716.367	588.2
716.775	589.8
717.184	582.4
717.592	589.8
718	591.8
718.408	617.6
718.816	624
719.225	593.2
719.633	589.8
720.042	573.2
720.472	579.2
720.881	598.4
721.29	592.4
721.699	572.6
722.108	590.4
722.517	585.8
722.926	583
723.335	589
723.744	578
724.154	591.2
724.563	590.2
724.973	584.4
725.382	588.2
725.792	584.6
726.202	583.8
726.612	607.2
727.022	585.8
727.432	580
779.813	581.4
780.223	625.4
780.634	578
781.044	573.2
781.454	593.4
781.865	598.8
782.276	582.6
782.686	593.2
783.097	597.4
783.508	584.8
783.919	586.4
784.33	598
784.741	600.4
785.152	581.2
785.563	572.6
785.974	581.8
786.386	593.8
786.776	584.2
787.188	587
787.599	579.8
788.011	592.4
788.423	581.2
788.835	577.8
789.247	575.6
789.659	578.2
790.071	573.4
790.483	626.4
790.874	582.2
791.286	592.2
791.699	579
792.111	589.8
792.524	590.2
792.937	582.2
793.349	578
793.741	577
794.154	580.8
794.567	599.2
794.98	585.2
795.393	575
795.785	595
796.198	580.2
796.612	587.4
797.026	581.4
797.439	565.4
797.831	580.2
798.245	581
798.659	584
799.073	576.4
799.487	576.6
799.88	583.2
800.294	576.4
800.708	583.6
801.123	578.2
801.516	597.2
801.93	578.2
802.345	562.6
802.76	580.4
803.153	604
803.568	595.2
803.983	588.6
804.377	588
804.792	577.8
805.207	570.4
805.601	586.2
806.016	616.6
806.432	582.6
806.826	608.6
807.242	592.6
807.658	580.8
808.052	581.8
808.468	588
808.884	582.2
809.279	582.6
809.695	591.6
810.111	602
810.506	593.2
810.922	594.6
811.339	572.2
811.734	588.4
812.151	582.8
812.546	578.6
812.963	582.8
813.38	589
813.776	582.8
814.193	599
814.589	585
815.006	581.4
815.402	580.8
815.82	577.4
816.237	587.4
816.633	589.6
817.051	570
817.448	594.8
817.866	580.8
818.262	607.2
818.68	582.2
819.077	576
819.495	585.2
819.892	620.6
820.311	583.6
820.708	581.4
821.127	574.8
821.524	596.2
821.943	594
822.34	601.2
822.759	589.8
823.157	582.2
823.576	595.8
823.974	589.8
824.393	607.8
824.791	574.6
825.189	575.6
825.609	581.4
826.007	584.8
826.427	575.4
826.826	573.6
827.246	582.8
827.644	567.8
828.043	600.2
828.463	573.4
828.862	592
829.261	595
829.682	571.6
830.081	591.4
830.502	577.6
830.901	596.2
831.301	608.8
831.722	569
832.121	581.4
832.521	579.2
832.943	588.4
833.342	581
833.742	577
834.164	571.2
834.564	574.4
834.965	579
835.386	582.2
835.787	582.6
836.188	577.8
836.588	583.6
837.01	583.6
837.411	574.4
837.812	592
838.213	584.4
838.636	575.6
839.037	640.2
839.438	589.4
839.84	589.4
840.263	591
840.664	586.2
841.066	582.8
841.468	585.6
841.891	581.4
842.293	592
842.695	583.4
843.098	590.6
843.5	586.8
843.902	583.6
844.326	585.2
844.729	587.2
845.131	600.8
845.534	586.4
845.937	601.2
846.34	592.6
846.764	578.2
847.167	583.2
847.571	578.4
847.974	577.4
848.377	575.8
848.781	632.2
849.184	590.2
849.588	585.4
849.992	580.2
850.396	596
850.821	606.2
851.225	591
851.63	578.4
852.034	599.8
852.438	582.4
852.843	662.6
853.247	572.2
853.652	573.6
854.057	598.6
854.462	592.4
854.867	590
855.272	615.8
855.677	585.8
856.082	575.4
856.487	579.8
