#lambda/nm	C1
208.295	506.2
208.67	463
209.045	420.2
209.419	428.2
209.794	611
210.169	599
210.544	719.2
210.919	620.4
211.295	609.2
211.67	607
212.045	606.2
212.421	609.8
212.796	654.4
213.172	607.6
213.547	604
213.923	608
214.299	602.2
214.675	617.2
215.051	619
215.427	617.8
215.803	627.4
216.179	621.4
216.555	603.6
216.932	616.6
217.308	617.8
217.684	609.8
218.061	620.8
218.438	622.8
218.814	602.4
219.191	629.4
219.568	605
219.945	610.2
220.322	624.2
220.699	617.4
221.076	616.4
221.453	623
221.83	607.8
222.208	606.4
222.585	626.8
222.962	618.4
223.34	623.8
223.717	616.4
224.095	619
224.473	623.2
224.851	607.6
225.229	607
225.607	617.6
225.985	597.2
226.363	611.6
226.741	616.6
227.119	613
227.497	620.2
227.876	599.6
228.254	617.2
228.633	626
229.011	615
229.39	613.4
229.769	603.4
230.148	619.6
230.527	631.8
230.905	608.6
231.284	610.6
231.664	608
232.043	627.4
232.422	623
232.801	607
233.181	613.8
233.56	613
233.94	618.2
234.319	599.2
234.699	605.8
235.079	650
235.458	644
235.838	626.6
236.218	601.4
236.598	602.6
236.978	599.8
237.358	607
237.738	615.2
238.119	611.4
238.499	597.4
238.88	611.2
239.26	626.2
239.641	608.6
240.021	604.2
240.402	610.8
240.783	610.6
241.163	604
241.544	607.6
241.925	604.4
242.306	625.8
242.687	612.2
243.069	616.6
243.45	620.4
243.831	608.2
244.212	605.4
244.594	641.4
244.975	622.2
245.357	610.6
245.739	602
246.12	606.2
246.502	627
246.884	605.8
247.266	605.4
247.648	616.2
248.03	638.6
248.412	611.8
248.794	615.2
249.176	603.4
249.559	622.4
249.941	613
250.323	606.2
250.706	609.2
251.089	612.4
251.471	616.6
251.854	619.2
252.237	611.8
252.62	613
253.002	613.6
253.385	615.8
253.769	634.4
254.152	618
254.535	633.2
254.918	609.4
255.301	615.8
255.685	611.6
256.068	610.2
256.452	635
256.835	625
257.219	621.2
257.603	620.2
257.986	608.4
258.37	621.6
258.754	606.2
259.138	623.2
259.522	627
259.906	605.6
260.29	623
260.675	609.2
261.059	613.6
261.443	606.2
261.828	626.6
262.212	616.2
262.597	600.8
262.981	612
263.366	618.8
263.751	625.2
264.136	609.2
264.521	613
264.906	609
265.291	620.2
265.676	617.4
266.061	620.2
266.446	622.2
266.831	616
267.217	639
267.602	614.8
267.987	612.8
268.373	610
268.759	622.6
269.144	628
269.53	622
269.916	612.2
270.302	621
270.688	620
271.074	618.8
271.46	626.4
271.846	646
272.232	619.4
272.618	611.8
273.004	611.2
273.391	627.2
273.777	627.6
274.164	616
274.55	630.4
274.937	620
275.324	619.6
275.71	612.2
276.097	623.4
276.484	610.6
276.871	613.8
277.258	615
277.645	604
278.032	616.6
278.419	616
278.807	621.4
279.194	608.6
279.581	605.4
279.969	623.4
280.356	612.8
280.744	612.4
281.131	638.6
281.519	623
281.907	608.8
282.295	618.4
282.682	625.6
283.07	619.8
283.458	613.8
283.846	627.2
284.235	620.6
284.623	632.2
285.011	596
285.399	625.2
285.788	620.6
286.176	606.2
286.565	619.2
286.953	615.2
287.342	610.4
287.731	610.4
288.119	617
288.508	608.6
288.897	616.6
289.286	601.2
289.675	611.4
290.064	622.6
290.453	609.6
290.821	615
291.21	633
291.599	605.2
291.989	607
292.378	618.8
292.768	629.4
293.157	610.8
293.547	619.4
293.936	607.4
294.326	611.2
294.716	623.6
295.106	606.8
295.496	621
295.886	626.6
296.276	606.2
296.666	598.8
297.056	602
297.446	606.4
297.836	630.6
298.227	615.8
298.617	625.8
299.008	631
299.398	614.6
299.789	612.4
300.179	620.8
300.57	627
300.961	615.4
301.352	615.2
301.742	626.8
302.133	621
302.524	619.2
302.915	617
303.307	611.8
303.698	628.6
304.089	622
304.48	615
304.872	623
305.263	615.4
305.655	610.2
306.046	628.4
306.438	616.8
306.829	611.6
307.221	627.8
307.613	617.2
308.005	629.2
308.397	628.4
308.789	631.2
309.181	639.6
309.573	635.8
309.965	627.6
310.357	619.6
310.749	628.6
311.142	615.6
311.534	610
311.926	614.8
312.319	615.6
312.711	607.2
313.104	631.4
313.497	608.6
313.889	645.2
314.282	639
314.675	641.2
315.068	611.4
315.461	624.2
315.854	643.4
316.247	626.8
316.64	612
317.033	619.2
317.405	625.6
317.798	615.4
318.192	620.6
318.585	619
318.979	625.4
319.372	613.8
319.766	613.6
320.16	630.2
320.553	633.8
320.947	637.2
321.341	616
321.735	623.2
322.129	598.6
322.523	639
322.917	604.8
323.311	625.2
323.705	620.6
324.099	622.6
324.494	630.8
324.888	621.4
325.282	607.4
325.677	622.8
326.071	619.6
326.466	618.4
326.861	617.6
327.255	634.6
327.65	625.2
328.045	626.6
328.44	611.4
328.835	609.8
329.23	612.6
329.625	630.2
330.02	604.4
330.415	642.8
330.81	612.4
331.206	613
331.601	607.8
331.996	622.6
332.37	633.6
332.766	598.2
333.161	630.8
333.557	606.8
333.953	614
334.348	957
334.744	611.4
335.14	608.6
335.536	597.4
335.932	633.2
336.328	608.4
336.724	634.4
337.12	613.4
337.516	626
337.913	619
338.309	624.8
338.705	618
339.102	620.8
339.498	605.6
339.895	628.6
340.291	608.2
340.688	611.8
341.085	616.4
341.481	607.2
341.878	606.4
342.275	633.6
342.672	600.4
343.069	610.2
343.466	606
343.842	623.8
344.239	603.4
344.636	607.8
345.033	596.4
345.431	604.2
345.828	615
346.225	594.8
346.623	647
347.02	615.8
347.418	624.8
347.816	629.6
348.213	612.6
348.611	618.8
349.009	605
349.407	626.2
349.805	599.2
350.203	598.2
350.601	622.4
350.999	606.8
351.397	650.8
351.795	612
352.193	623
352.57	618.2
352.969	621.2
353.367	599.6
353.766	604.6
354.164	612.8
354.563	622.8
354.961	619.6
355.36	614.2
355.759	618.8
356.158	603
356.557	611.4
356.956	602.8
357.355	599.6
357.754	611.4
358.153	615.4
358.552	635.4
358.951	617
359.35	626.2
359.75	604.8
360.149	609
360.527	591.4
360.926	600.2
361.326	611.2
361.726	614.6
362.125	609.8
362.525	621
362.925	613.4
363.325	601.4
363.724	606.6
364.124	603
364.524	606.4
364.924	607.8
365.324	622.6
365.725	593.8
366.125	618.4
366.525	612.2
366.904	602.2
367.304	594.6
367.705	628.8
368.105	618.2
368.506	603.2
368.906	607.2
369.307	610
369.708	610.2
370.108	603.4
370.509	611.2
370.91	608.2
371.311	606.8
371.712	600
372.113	608.8
372.514	603.8
372.894	609.2
373.295	603
373.696	617.2
374.097	609.2
374.499	636.6
374.9	615.4
375.301	594.8
375.703	601.8
376.105	603.6
376.506	610.4
376.908	606
377.309	611
377.711	612.6
378.113	598
378.493	604.8
378.895	604
379.297	618
379.699	592.2
380.102	610
380.504	612.6
380.906	601.6
381.308	632.6
381.71	605.6
382.113	617.8
382.515	600.4
382.918	609.2
383.299	604.6
383.701	619.4
384.104	608.4
384.507	594.4
384.909	604
385.312	592.4
385.715	593.8
386.118	605.2
386.521	596.4
386.924	620.6
387.327	604.2
387.709	586.6
388.112	591.4
388.515	597.8
388.918	606.2
389.322	611.4
389.725	596.2
390.129	628
390.532	598.2
390.936	611.2
391.339	596.4
391.743	607.4
392.125	597.8
392.529	607.6
392.933	617.2
393.337	608.6
393.74	605.4
394.144	605.8
394.548	595.2
394.953	604.6
395.357	615.4
395.761	607.8
396.144	608.2
396.548	599
396.952	610.2
397.357	607.2
397.761	606.6
398.166	606.8
398.57	611.8
398.975	594
399.379	608.4
399.763	657
400.168	606.6
400.572	609.8
400.977	610.6
401.382	625.8
401.787	622.8
402.192	615.8
402.597	622
403.002	590.2
403.386	622.2
403.791	625.6
404.197	600.6
404.602	603
405.007	600.6
405.413	600.8
405.818	602.6
406.224	601.6
406.608	605.4
407.014	608
407.42	622
407.825	603.4
408.231	606.6
408.637	603.4
409.043	620.4
409.449	609.2
409.834	602.2
410.24	608.6
410.646	617.6
411.052	618
411.458	601.8
411.865	615.8
412.271	621
412.677	614.6
413.062	612.8
413.469	603
413.875	635.8
414.282	623.6
414.689	603.2
415.095	617.2
415.502	602.2
415.888	610.4
416.294	592
416.701	651
417.108	597.2
417.515	617.6
417.923	607
418.33	623
418.715	612.4
419.123	601.2
419.53	601.6
419.937	607.8
420.345	625
420.752	603.8
421.16	615.4
421.546	612.4
421.953	606
422.361	587
422.769	605.8
423.177	599.6
423.585	624.6
423.992	622.2
424.379	609.6
424.787	613.6
425.195	624.4
425.603	609
426.011	624
426.419	614
426.806	605.2
427.214	610.6
427.623	613.2
428.031	618.8
428.44	607.4
428.848	623.2
429.235	623.4
429.644	603
430.053	609
430.461	624.6
430.87	635
431.279	612
431.666	604.2
432.075	608.8
432.484	616.8
432.893	602.8
433.302	629.4
433.711	650
434.099	623
434.508	609
434.918	610.8
435.327	622.2
435.737	621.6
436.125	617.2
436.534	619.6
436.944	612.8
437.353	623
437.763	647
438.173	607.2
438.561	637.2
438.971	619
439.381	630.6
439.791	633.2
440.201	626.6
440.589	648.2
440.999	646.4
441.409	646.6
441.819	637.2
442.23	662.6
442.619	659.4
443.029	655.8
443.439	660.2
443.85	684.4
444.26	683.8
444.649	677.2
445.06	673
445.471	665.2
445.881	673
446.292	695
446.682	693.6
447.092	672.4
447.503	730.2
447.914	695
448.325	692.6
448.715	698.2
449.126	687.8
449.537	680.2
449.948	694.2
450.338	700.4
450.75	716.2
451.161	704.6
451.572	711.6
451.984	697
452.374	691.8
452.786	704.4
453.197	695.8
453.609	708.4
453.999	690
454.411	701.4
454.823	710.4
455.235	718
455.647	696.2
456.037	712.4
456.449	686.6
456.862	701
457.274	716.8
457.665	707.4
458.077	704.6
458.489	727
458.902	701.2
459.293	709
459.705	711.4
460.118	704.4
460.53	708.2
460.921	722.6
461.334	710.2
461.747	711.8
462.16	718.8
462.551	734.2
462.964	719.2
463.377	696.6
463.79	707.6
464.182	727.6
464.595	702.4
465.008	717.8
465.421	719.4
465.813	715
466.226	724.2
466.64	710.6
467.053	760.8
467.445	721.6
467.859	743
468.272	718
468.686	723.6
469.078	717.6
469.492	705.8
469.906	718
470.298	719
470.712	715
471.126	772.4
471.54	697.2
471.933	708.4
472.347	711.6
472.761	706.2
473.175	709.6
473.568	714
473.982	695.6
474.397	727.8
474.79	719
475.204	724.8
475.619	706.4
476.033	720
476.426	718.4
476.841	708.6
477.256	735.4
477.649	695
478.064	710.4
478.479	714.6
478.872	706.8
479.287	704.6
479.702	702.2
480.118	710
480.511	709.8
480.927	710.8
481.342	702.6
481.736	712.2
482.151	712.4
482.566	724.6
482.96	713.2
483.376	722.4
483.792	709.2
484.186	718
484.602	710.6
485.017	711.2
485.412	699.2
485.827	708.4
486.243	713.6
486.638	728
487.054	719.6
487.47	722.2
487.865	702.2
488.281	701.4
488.697	699.8
489.092	706
489.508	696.2
489.925	718.8
490.32	690.2
490.736	710.2
491.153	706.6
491.548	717.2
491.964	719.8
492.381	690.8
492.776	711.6
493.193	697.8
493.61	702
494.006	692.8
494.422	714
494.84	685.4
495.235	705
495.652	697.6
496.069	694.4
496.465	678.6
496.883	686.6
497.3	715
497.696	693.6
498.113	700.2
498.509	677.4
498.927	671.4
499.344	681.4
499.741	686.8
500.158	692.4
500.576	699.2
500.973	691
501.39	679.6
501.787	687.4
502.205	690.4
502.623	673
503.02	661.8
503.438	670.6
503.856	674
504.253	681.8
504.671	680.2
505.068	677
505.486	678
505.905	692.6
506.302	682.6
506.72	691.2
507.118	669.4
507.536	678.6
507.955	675.4
508.352	678.8
508.771	682.6
509.169	680.2
509.587	666.4
510.006	669.4
510.404	659.4
510.823	663.8
511.221	659.4
511.64	666.8
512.038	679.6
512.457	664.4
512.877	674.6
513.275	658
513.694	662.8
514.092	653
514.512	657.6
514.91	679.2
515.33	658.2
515.749	667.6
516.148	666.4
516.568	666.4
516.966	657.8
517.386	651.8
517.785	651.8
518.205	649.8
518.603	651
519.024	641.6
519.444	657.4
519.843	659.4
520.263	664.8
520.662	660.4
521.082	653.2
521.481	658.6
521.902	651.2
522.301	650.4
522.722	653.4
523.121	645
523.542	650.2
523.963	643
524.362	650.8
524.783	653.4
525.183	646.6
525.604	652.2
526.003	635.2
526.425	641.4
526.824	644.4
527.246	650.4
527.646	658.6
528.067	650.8
528.467	643.4
528.888	652.2
529.289	644.8
529.71	643.8
530.11	633.2
530.532	641.2
530.932	630
531.354	634.6
531.755	673.8
532.176	644.2
532.577	634.8
532.999	639
533.4	635.4
533.822	658.4
534.223	643.8
534.645	626
535.046	634.6
535.468	636
535.869	652.4
536.292	636
536.693	663.6
537.115	632
537.516	636.6
537.939	626.6
538.34	660.4
538.742	643.4
539.165	633.2
539.566	637
539.989	625.2
540.391	636
540.814	627.6
541.216	636.6
541.639	622.8
542.041	650
542.464	634.8
542.866	629.2
543.268	631.8
543.691	640.2
544.093	639.6
544.517	653.2
544.919	619
545.343	653.2
545.745	624.2
546.147	639.4
546.571	622.8
546.974	624.2
547.398	631
547.8	648
548.224	626.2
548.627	631
549.03	636.6
549.454	620.4
549.857	617.2
550.281	624.6
550.684	627
551.087	637.4
551.512	631.4
551.915	634.4
552.34	623.2
552.743	619.8
553.146	628.2
553.571	620
553.975	644.6
554.399	619.6
554.803	675.4
555.207	625.4
555.632	616.6
556.036	627.4
556.461	605
556.865	628.4
557.268	614.8
557.694	623.8
558.098	631.4
558.502	618.8
558.927	618.4
559.332	626.6
559.736	622.6
560.162	628
560.566	627.6
560.992	622
561.396	625
561.801	614.8
562.227	630
562.631	623.6
563.036	623
563.462	631.2
563.867	621.8
564.272	602.4
564.698	620
565.103	606.6
565.508	640.8
565.935	623.4
566.34	620
566.745	628.2
567.172	610
567.577	634.4
567.982	631.2
568.409	614
568.815	617.2
569.22	614.4
569.626	622.4
570.053	604.4
570.459	619.8
570.865	615.8
571.292	618.8
571.698	616.6
572.104	598.2
572.531	613.4
572.937	631
573.343	610
573.75	612.4
574.177	612.2
574.583	616
574.99	614
575.396	613.4
575.824	613.2
576.231	620.2
576.637	598.2
577.065	631.8
577.472	606.2
577.879	612.4
578.286	624.8
578.714	604.2
579.121	606.4
579.528	616
579.935	622.4
580.364	617.2
580.771	605.8
581.178	604.2
581.585	620.8
582.014	617
582.421	605.4
582.829	595.8
583.236	612.2
583.644	605.2
584.073	607
584.481	616.2
584.889	601.2
585.296	608.8
585.726	609
586.134	594.8
586.542	594.8
586.95	624.2
587.358	604
587.787	615.2
588.196	620.4
588.604	608.2
589.012	603.4
589.421	599.2
589.851	601
590.259	608
590.668	601
591.076	639
591.485	595.2
591.894	608.2
592.324	605.6
592.733	619.2
593.142	592.4
593.551	604.4
593.96	635.4
594.369	597.6
594.8	592
595.209	601.6
595.618	587.8
596.028	597.8
596.437	601
596.847	603.4
597.256	603.4
597.687	617.8
598.097	604.2
598.507	587.6
598.917	596
599.327	607.6
599.736	604.8
600.146	607.8
600.556	602.6
600.988	609.4
601.398	599.4
601.808	605
602.219	584.2
602.629	599.8
603.039	606.4
603.45	611.8
603.86	595.6
604.271	608.4
604.703	601.4
605.114	597.4
605.525	607.8
605.935	598.6
606.346	620.6
606.757	601.8
607.168	598.4
607.579	597.4
607.99	611
608.402	595
608.813	609.2
609.224	590
609.636	586.2
610.047	600.2
610.48	589.4
610.892	604.8
611.303	614.8
611.715	595.4
612.127	586.2
612.539	601.4
612.95	599.4
613.362	577.6
613.774	585
614.186	585.4
614.599	590.4
615.011	603.4
615.423	590.6
615.835	588.6
616.248	587
616.66	596
617.073	583.2
617.485	596
617.898	604.4
618.311	591.8
618.723	596.6
619.136	612.8
619.549	609.4
619.962	611.2
620.375	590.8
620.788	593.8
621.201	591
621.614	587.6
622.028	590.8
622.441	596.6
622.854	604.2
623.268	586.2
623.681	596.2
624.095	599.8
624.509	602.6
624.922	598.8
625.336	582.6
625.728	594.8
626.142	607.2
626.556	612.4
626.97	603.6
627.384	584.6
627.799	594.2
628.213	598
628.627	592.6
629.041	589.8
629.456	592.4
629.87	591.6
630.285	596.4
630.699	588.6
631.093	588.2
631.507	594
631.922	591.4
632.337	598.8
632.752	581
633.167	598
633.582	590.6
633.997	584
634.412	576.4
634.806	592.2
635.221	572.2
635.637	600.8
636.052	582.6
636.468	593.8
636.883	609.2
637.299	593.8
637.715	583.8
638.109	593.2
638.525	588
638.941	609.8
639.357	601.4
639.773	599.4
640.189	588.6
640.584	599.2
641	597.4
641.416	585.8
641.832	595.8
642.249	582.6
642.665	585.4
643.06	594.8
643.477	593
643.894	579
644.31	588.4
644.727	594.4
645.123	590.2
645.54	582.4
645.957	595.6
646.374	599.4
646.77	596.6
647.187	623.8
647.604	592.2
648.021	577.6
648.439	588.6
648.835	594
649.252	590.6
649.67	593.8
650.088	598.4
650.484	586
650.902	599.4
651.32	601.2
651.738	577.4
652.134	603.8
652.552	608.2
652.971	604.4
653.389	589
653.786	601
654.204	611.8
654.622	584.4
655.019	585.8
655.438	593.2
655.857	596.4
656.275	595.2
656.673	586.6
657.091	602.4
657.51	580
657.908	598.8
658.327	599.8
658.746	580
659.144	589.8
659.563	602.4
659.982	593.6
660.38	584.8
660.8	592.6
661.219	601.8
661.617	600.6
662.037	590.8
662.457	601.2
662.855	576.4
663.275	611
663.695	586.2
664.094	586.4
664.514	589
664.934	584.6
665.333	597.2
665.753	578.8
666.152	575
666.572	584.8
666.993	597.8
667.392	587
667.812	580.6
668.212	581.8
668.632	598.4
669.053	587.8
669.453	594.6
669.874	585.6
670.273	586.4
670.694	584.2
671.116	592.8
671.515	599.6
671.937	583.4
672.337	585.2
672.758	580.6
673.158	595
673.58	584.2
673.98	591.2
674.402	607.4
674.824	589.6
675.224	587.2
675.646	568
676.047	577.4
676.469	587.4
676.869	590
677.292	586.2
677.693	584
678.115	582.2
678.516	601
678.939	601
679.34	589.4
679.762	602.8
680.164	602.6
680.586	571.4
680.988	587.4
681.411	609.2
681.812	576.4
682.236	584.2
682.637	578
683.061	576
683.462	592
683.864	583
684.288	599.4
684.69	582.2
685.114	593.2
685.516	601.6
685.94	584.2
686.342	589.8
686.766	582
687.168	584.6
687.571	607
687.995	594.4
688.398	579.6
688.822	586.6
689.225	606.8
689.628	606
690.052	589.6
690.456	594.6
690.88	588.2
691.284	584
691.687	587.6
692.112	573.8
692.515	576.2
692.919	586.2
693.344	588.4
693.747	579.2
694.173	578.4
694.577	594.6
694.98	585.8
695.406	579.6
695.81	592.2
696.214	585.6
696.64	586.6
697.044	587.8
697.448	603
697.874	584.6
698.279	581.8
698.684	576.4
699.11	573.4
699.514	590
699.919	584
700.324	582.2
700.75	590.6
701.156	587.8
701.561	592
701.987	593.8
702.393	596
702.798	601.6
703.203	595
703.63	587.8
704.036	580.6
704.442	585
704.847	578.2
705.274	579.8
705.68	586.2
706.086	592.8
706.492	579.6
706.92	584.2
707.326	587.8
707.732	588.4
708.139	579
708.545	582.6
708.973	582.8
709.38	580.8
709.786	576
710.193	600.4
710.6	591.8
711.028	578.2
711.435	585
711.842	582.8
712.249	586.8
712.656	585.6
713.064	592.2
713.492	571.2
713.9	582.2
714.307	586
714.715	581.2
715.123	586.4
715.53	588.2
715.938	579.6
716.367	587
716.775	581.2
717.184	573
717.592	578.8
718	593
718.408	614.8
718.816	622.6
719.225	588.8
719.633	589
720.042	582.6
720.472	589.2
720.881	605
721.29	589.6
721.699	572.2
722.108	578.2
722.517	577.8
722.926	581.2
723.335	585.8
723.744	582.8
724.154	585.4
724.563	582
724.973	586.2
725.382	586.4
725.792	583.4
726.202	571.6
726.612	603
727.022	580.6
727.432	576.6
779.813	580.2
780.223	627.2
780.634	578.8
781.044	574.4
781.454	585.4
781.865	599.2
782.276	572.6
782.686	592
783.097	583.2
783.508	576.6
783.919	584.4
784.33	590.2
784.741	593.4
785.152	578.8
785.563	578.4
785.974	572
786.386	591.8
786.776	585.4
787.188	582.2
787.599	576
788.011	586
788.423	584
788.835	588.2
789.247	579.6
789.659	577.4
790.071	583.6
790.483	630
790.874	582.2
791.286	593.4
791.699	579.8
792.111	585.4
792.524	589.4
792.937	582.4
793.349	577
793.741	583.4
794.154	573.4
794.567	599.8
794.98	581.2
795.393	575.8
795.785	596.6
796.198	579
796.612	583.8
797.026	581.6
797.439	559.8
797.831	588.6
798.245	568
798.659	585.4
799.073	579.8
799.487	572.6
799.88	580.4
800.294	583.6
800.708	584.4
801.123	584.4
801.516	603.2
801.93	576.6
802.345	569
802.76	586.2
803.153	597.4
803.568	596.2
803.983	587.6
804.377	588.8
804.792	564.8
805.207	572.8
805.601	589.2
806.016	610.2
806.432	575.4
806.826	613
807.242	595.2
807.658	586.8
808.052	580.8
808.468	583.6
808.884	568.8
809.279	583.4
809.695	596.6
810.111	594.6
810.506	588.4
810.922	595.8
811.339	583.8
811.734	593.6
812.151	579.6
812.546	576.6
812.963	582.2
813.38	590
813.776	583.4
814.193	604
814.589	571.8
815.006	581
815.402	584
815.82	582.2
816.237	571.8
816.633	582.6
817.051	573
817.448	578.2
817.866	572.8
818.262	599
818.68	574
819.077	583.6
819.495	581.6
819.892	618.8
820.311	572.4
820.708	582.8
821.127	573.2
821.524	593
821.943	584.6
822.34	585
822.759	580.8
823.157	583
823.576	601.6
823.974	588.2
824.393	631.6
824.791	577
825.189	581.8
825.609	571.8
826.007	583.2
826.427	567
826.826	580.6
827.246	587.2
827.644	566
828.043	589
828.463	576.4
828.862	589.4
829.261	586.6
829.682	570
830.081	579
830.502	566.6
830.901	579.4
831.301	590.8
831.722	566.6
832.121	574.4
832.521	576.4
832.943	584.2
833.342	582.6
833.742	572.2
834.164	576.4
834.564	569.6
834.965	579.8
835.386	573.8
835.787	580
836.188	584.4
836.588	580.2
837.01	582.6
837.411	579.8
837.812	586.8
838.213	579.2
838.636	576.8
839.037	655.8
839.438	588
839.84	585
840.263	577.6
840.664	576.8
841.066	583
841.468	582.8
841.891	575.6
842.293	590.4
842.695	588.4
843.098	591.2
843.5	580.6
843.902	586.8
844.326	577.8
844.729	576.8
845.131	601.6
845.534	580
845.937	597.4
846.34	593.4
846.764	582.4
847.167	578.6
847.571	573.4
847.974	572
848.377	582
848.781	633.2
849.184	586.8
849.588	574.8
849.992	577.8
850.396	579.2
850.821	595.4
851.225	586.2
851.63	579.2
852.034	586.2
852.438	580.2
852.843	668.6
853.247	574.2
853.652	574.2
854.057	595.6
854.462	581
854.867	582
855.272	609.2
855.677	577
856.082	573.2
856.487	570.2
856.893	593.8
