#lambda/nm	C1
208.295	509
208.67	468.2
209.045	428.2
209.419	432.4
209.794	614.6
210.169	594.6
210.544	718.6
210.919	620.2
211.295	600.4
211.67	618.2
212.045	616.4
212.421	620.4
212.796	658.2
213.172	605.2
213.547	615.8
213.923	609
214.299	607.4
214.675	620.6
215.051	625.4
215.427	624.2
215.803	641.8
216.179	624
216.555	614.6
216.932	623.8
217.308	624.8
217.684	614
218.061	614.6
218.438	622.8
218.814	610.6
219.191	617
219.568	604.8
219.945	607.6
220.322	625.2
220.699	624.6
221.076	623.8
221.453	617.8
221.83	615.4
222.208	618
222.585	612.2
222.962	615
223.34	624.6
223.717	626.4
224.095	611.2
224.473	613.4
224.851	614.6
225.229	611.2
225.607	637.6
225.985	602.6
226.363	611.2
226.741	618.8
227.119	619
227.497	628.8
227.876	605
228.254	616.8
228.633	617.4
229.011	618.4
229.39	628.8
229.769	615
230.148	620.2
230.527	640.6
230.905	624.8
231.284	616.8
231.664	614
232.043	627
232.422	618
232.801	609.4
233.181	621.6
233.56	611.2
233.94	617.6
234.319	598.2
234.699	607.4
235.079	661.4
235.458	647.4
235.838	633.4
236.218	612.8
236.598	608.4
236.978	607.6
237.358	602.4
237.738	606.2
238.119	628.6
238.499	609.8
238.88	610.2
239.26	627
239.641	613
240.021	602.8
240.402	620.2
240.783	612
241.163	621
241.544	617.8
241.925	618.6
242.306	633
242.687	614.4
243.069	610.2
243.45	619.6
243.831	609.2
244.212	612.4
244.594	652.2
244.975	626.6
245.357	623.4
245.739	610.4
246.12	618.2
246.502	630.8
246.884	602
247.266	611.6
247.648	613.4
248.03	642.8
248.412	609.8
248.794	617.2
249.176	613.2
249.559	621
249.941	605.6
250.323	610.8
250.706	601.4
251.089	610.4
251.471	617.4
251.854	617.4
252.237	618.4
252.62	630.2
253.002	616.6
253.385	621.2
253.769	633
254.152	615.6
254.535	626.2
254.918	613.4
255.301	618.4
255.685	611.2
256.068	606.6
256.452	642.8
256.835	624.6
257.219	623.4
257.603	628.6
257.986	605.2
258.37	618
258.754	606.6
259.138	616
259.522	627.4
259.906	618
260.29	615.4
260.675	617.4
261.059	624.2
261.443	611.6
261.828	620.8
262.212	613.2
262.597	602.6
262.981	619.4
263.366	626.4
263.751	624.2
264.136	614.6
264.521	618.6
264.906	608.8
265.291	635.6
265.676	615.8
266.061	625.2
266.446	631.4
266.831	630.6
267.217	633
267.602	620.8
267.987	624.2
268.373	616.4
268.759	628.8
269.144	625.8
269.53	615.4
269.916	611.8
270.302	610.4
270.688	620.4
271.074	615.6
271.46	637.2
271.846	641.8
272.232	613.4
272.618	607.6
273.004	609.6
273.391	624.8
273.777	624.6
274.164	617
274.55	629.6
274.937	620.8
275.324	614.4
275.71	616.6
276.097	627.8
276.484	606.8
276.871	613.8
277.258	622
277.645	607.2
278.032	610
278.419	608
278.807	614.4
279.194	607
279.581	610.4
279.969	614.6
280.356	619.8
280.744	614.6
281.131	640.6
281.519	623.8
281.907	618.6
282.295	619.8
282.682	632.2
283.07	615
283.458	632.2
283.846	618.6
284.235	625.8
284.623	626.8
285.011	603.6
285.399	613.4
285.788	613.6
286.176	601.6
286.565	626.2
286.953	609.2
287.342	609.4
287.731	606.8
288.119	604.6
288.508	615.6
288.897	614
289.286	601.8
289.675	622.2
290.064	619.4
290.453	612.6
290.821	612.2
291.21	634.2
291.599	612.2
291.989	618.2
292.378	616.6
292.768	642
293.157	619
293.547	628.2
293.936	611.4
294.326	611.4
294.716	622.2
295.106	615.2
295.496	626.4
295.886	623.6
296.276	619.2
296.666	613.2
297.056	612.6
297.446	605.8
297.836	636.2
298.227	611.8
298.617	616.6
299.008	628.2
299.398	619
299.789	614.6
300.179	622.6
300.57	629.8
300.961	616.8
301.352	618
301.742	629.6
302.133	618.6
302.524	613.8
302.915	620
303.307	607.6
303.698	627.2
304.089	630.4
304.48	612
304.872	621.6
305.263	611.2
305.655	612.8
306.046	627.2
306.438	630.2
306.829	611.6
307.221	619.8
307.613	626.2
308.005	628
308.397	626.8
308.789	635.6
309.181	645.8
309.573	634.2
309.965	624.6
310.357	611.2
310.749	640.6
311.142	615.2
311.534	614
311.926	632.2
312.319	625.4
312.711	611.4
313.104	634.2
313.497	622.2
313.889	650.8
314.282	631.2
314.675	638
315.068	617.2
315.461	625.2
315.854	653.8
316.247	629.8
316.64	618.8
317.033	618.4
317.405	628
317.798	616.8
318.192	628.4
318.585	616.2
318.979	623.8
319.372	610.4
319.766	621.8
320.16	630.4
320.553	634
320.947	637.8
321.341	618.6
321.735	621.2
322.129	609.6
322.523	633.6
322.917	612.8
323.311	626.2
323.705	624
324.099	623
324.494	630.8
324.888	633.2
325.282	618
325.677	630
326.071	630.4
326.466	628.8
326.861	622.6
327.255	623.2
327.65	630.8
328.045	629.8
328.44	620.8
328.835	620
329.23	619.4
329.625	642.4
330.02	616.8
330.415	644.6
330.81	622.2
331.206	620.4
331.601	621.4
331.996	634.8
332.37	636.8
332.766	606.8
333.161	646.2
333.557	610.8
333.953	617.4
334.348	1049.4
334.744	616.2
335.14	617.4
335.536	612.2
335.932	634.2
336.328	622.8
336.724	633.4
337.12	615.4
337.516	612
337.913	613.4
338.309	629.4
338.705	621.8
339.102	628.6
339.498	612.8
339.895	631.8
340.291	613.6
340.688	627.2
341.085	608.8
341.481	621.8
341.878	618.4
342.275	634.2
342.672	611.6
343.069	610.2
343.466	602.8
343.842	619.8
344.239	613.4
344.636	611
345.033	607.4
345.431	605
345.828	621
346.225	616.6
346.623	652
347.02	611.2
347.418	621.2
347.816	631.6
348.213	612.8
348.611	619.6
349.009	607.6
349.407	638.6
349.805	606.6
350.203	606.8
350.601	620.6
350.999	608.8
351.397	683
351.795	615
352.193	620.4
352.57	622.8
352.969	626.8
353.367	611.2
353.766	600.6
354.164	610.2
354.563	625.2
354.961	609.4
355.36	605.8
355.759	604
356.158	604
356.557	602.8
356.956	603.6
357.355	610.8
357.754	615
358.153	618.2
358.552	637.4
358.951	611.4
359.35	625.2
359.75	613
360.149	603.6
360.527	603
360.926	610.2
361.326	606.6
361.726	617.2
362.125	605.8
362.525	621.6
362.925	616
363.325	607.2
363.724	612.4
364.124	604
364.524	604.6
364.924	617
365.324	617
365.725	598.4
366.125	620
366.525	610.8
366.904	609.6
367.304	596
367.705	627.8
368.105	623
368.506	601.4
368.906	606.2
369.307	608.4
369.708	609.2
370.108	596.6
370.509	620.6
370.91	602.6
371.311	605
371.712	610.8
372.113	607
372.514	597.2
372.894	602.4
373.295	598.4
373.696	611.8
374.097	617.4
374.499	644.2
374.9	605.6
375.301	602.8
375.703	613.4
376.105	585.6
376.506	609
376.908	613
377.309	612
377.711	613.4
378.113	614.6
378.493	615.8
378.895	606.2
379.297	612.8
379.699	593
380.102	618.8
380.504	605.2
380.906	594.4
381.308	627.6
381.71	609
382.113	616.4
382.515	605.2
382.918	610.6
383.299	608
383.701	612.2
384.104	606.6
384.507	581.4
384.909	605.6
385.312	596
385.715	595.4
386.118	609.2
386.521	597.4
386.924	616.8
387.327	610.6
387.709	599.8
388.112	588.8
388.515	608.4
388.918	608.8
389.322	612.2
389.725	601
390.129	630
390.532	611
390.936	606.2
391.339	600.8
391.743	619.6
392.125	594.8
392.529	623.6
392.933	627.4
393.337	614.6
393.74	608.2
394.144	609.6
394.548	605
394.953	601.6
395.357	613.2
395.761	602.8
396.144	607
396.548	616.6
396.952	602.8
397.357	605.6
397.761	601
398.166	608.8
398.57	602.2
398.975	605.4
399.379	611
399.763	657.2
400.168	609.6
400.572	610.8
400.977	605
401.382	619.4
401.787	622.6
402.192	618.8
402.597	618.6
403.002	599.6
403.386	625.2
403.791	627.6
404.197	603.4
404.602	617.8
405.007	613.2
405.413	607.6
405.818	605
406.224	604.2
406.608	604
407.014	604.8
407.42	628.2
407.825	604.2
408.231	612.8
408.637	611.4
409.043	629.8
409.449	603.2
409.834	604.4
410.24	616
410.646	624
411.052	620.2
411.458	621.8
411.865	611.6
412.271	625.8
412.677	608.8
413.062	619.8
413.469	598.2
413.875	641.4
414.282	619.6
414.689	614.2
415.095	611
415.502	607.2
415.888	606.6
416.294	599.4
416.701	655.4
417.108	602.2
417.515	620.6
417.923	606.8
418.33	630.8
418.715	625.6
419.123	606.4
419.53	602
419.937	614.8
420.345	620.8
420.752	607.4
421.16	624
421.546	619.4
421.953	607.2
422.361	603.2
422.769	614.4
423.177	602.2
423.585	631.2
423.992	633.6
424.379	621
424.787	628
425.195	629.2
425.603	613.2
426.011	622.2
426.419	628
426.806	616
427.214	618.2
427.623	621.8
428.031	636
428.44	625
428.848	630.8
429.235	636.2
429.644	615
430.053	620.8
430.461	629.4
430.87	636.4
431.279	630.6
431.666	612.6
432.075	621
432.484	619.8
432.893	617
433.302	637.4
433.711	664
434.099	636.4
434.508	622
434.918	624.4
435.327	638.6
435.737	644.2
436.125	637.2
436.534	638.8
436.944	657
437.353	654.8
437.763	681
438.173	651
438.561	675.6
438.971	654.6
439.381	663.2
439.791	677.6
440.201	669.4
440.589	687
440.999	690.6
441.409	697.6
441.819	682.8
442.23	711
442.619	726.8
443.029	712.2
443.439	716.6
443.85	729.4
444.26	739.8
444.649	735.2
445.06	724.6
445.471	729.2
445.881	742.4
446.292	764.6
446.682	771.4
447.092	746
447.503	798.6
447.914	752.8
448.325	755.6
448.715	764.8
449.126	762.4
449.537	761.4
449.948	757.6
450.338	755.6
450.75	777.8
451.161	765.8
451.572	779
451.984	773
452.374	766.2
452.786	776.6
453.197	781.4
453.609	793
453.999	775
454.411	768.8
454.823	784.2
455.235	781.8
455.647	793.6
456.037	794
456.449	775.4
456.862	785.6
457.274	789.8
457.665	779.2
458.077	786.6
458.489	821.6
458.902	786.6
459.293	790.8
459.705	802
460.118	784.4
460.53	799.8
460.921	800.2
461.334	795.4
461.747	792.2
462.16	814.6
462.551	806
462.964	806.6
463.377	783.6
463.79	800.6
464.182	800.8
464.595	790.4
465.008	808.2
465.421	809.4
465.813	805.8
466.226	809.6
466.64	805.2
467.053	847.4
467.445	821.2
467.859	822.8
468.272	808
468.686	820.4
469.078	796
469.492	806.4
469.906	816.2
470.298	819.6
470.712	794.2
471.126	846
471.54	801.8
471.933	802.4
472.347	807.8
472.761	802.6
473.175	794.6
473.568	805
473.982	797.6
474.397	802.4
474.79	805
475.204	812.4
475.619	805
476.033	801.4
476.426	815
476.841	796
477.256	822.6
477.649	805.6
478.064	802.8
478.479	797.8
478.872	793.4
479.287	798.6
479.702	796.6
480.118	801
480.511	802.6
480.927	801.6
481.342	795.8
481.736	791.2
482.151	800
482.566	809.6
482.96	794.8
483.376	800.6
483.792	791.2
484.186	807
484.602	791.2
485.017	788.8
485.412	789
485.827	796.8
486.243	791.2
486.638	812.4
487.054	801.8
487.47	808.2
487.865	782.6
488.281	787.2
488.697	787.6
489.092	796.4
489.508	775.6
489.925	791.4
490.32	777.8
490.736	779.8
491.153	781.8
491.548	779.4
491.964	784.8
492.381	762
492.776	785.4
493.193	774.6
493.61	790
494.006	770.2
494.422	776.8
494.84	762
495.235	788.4
495.652	768.6
496.069	766.4
496.465	764.2
496.883	768
497.3	794.8
497.696	760.8
498.113	763.6
498.509	744.8
498.927	748.6
499.344	745.8
499.741	744.4
500.158	756
500.576	766.2
500.973	750.8
501.39	745
501.787	737.2
502.205	750.2
502.623	746
503.02	745
503.438	734.2
503.856	740.2
504.253	738.2
504.671	746.4
505.068	735.6
505.486	740
505.905	758
506.302	738
506.72	737.2
507.118	723.6
507.536	725.2
507.955	727
508.352	728.4
508.771	742.2
509.169	730.6
509.587	711
510.006	725.2
510.404	714
510.823	711.6
511.221	714.6
511.64	720.4
512.038	734.6
512.457	717.2
512.877	722.8
513.275	721.6
513.694	713.6
514.092	711.4
514.512	720
514.91	722
515.33	706.6
515.749	711.8
516.148	715.2
516.568	710.2
516.966	702.2
517.386	706.2
517.785	704.2
518.205	698.2
518.603	694.2
519.024	694.4
519.444	699.2
519.843	694.4
520.263	710.6
520.662	697.6
521.082	694.6
521.481	691.4
521.902	693
522.301	695.2
522.722	693
523.121	694
523.542	690
523.963	688
524.362	692.6
524.783	690.4
525.183	686
525.604	684.4
526.003	680
526.425	681.6
526.824	682.6
527.246	688.4
527.646	689.4
528.067	672.2
528.467	681.2
528.888	681.6
529.289	679.4
529.71	674.8
530.11	666
530.532	665.2
530.932	670.2
531.354	659.6
531.755	688.4
532.176	674.6
532.577	665.8
532.999	672.2
533.4	664.6
533.822	681.6
534.223	668.8
534.645	665.6
535.046	659.2
535.468	660.6
535.869	667
536.292	656.2
536.693	693.4
537.115	670
537.516	657.6
537.939	657.8
538.34	676.2
538.742	667.8
539.165	667.4
539.566	665
539.989	654.8
540.391	657.4
540.814	661.6
541.216	660.2
541.639	652.4
542.041	656.8
542.464	639
542.866	651.4
543.268	636.4
543.691	658.6
544.093	648.2
544.517	674.8
544.919	645.2
545.343	666.2
545.745	644
546.147	655.8
546.571	651.4
546.974	638.8
547.398	648.4
547.8	657.6
548.224	641.4
548.627	641.2
549.03	655.2
549.454	641.6
549.857	634
550.281	640.6
550.684	641.4
551.087	657.6
551.512	643.4
551.915	651
552.34	647.6
552.743	642.6
553.146	640.8
553.571	630.8
553.975	668.2
554.399	630.2
554.803	686.8
555.207	629
555.632	631.6
556.036	642.2
556.461	627
556.865	631.8
557.268	627.4
557.694	630
558.098	644.6
558.502	637
558.927	641.6
559.332	625.2
559.736	632
560.162	644.4
560.566	625.8
560.992	640.6
561.396	637.2
561.801	635
562.227	627.8
562.631	627.8
563.036	631.6
563.462	639.6
563.867	626.6
564.272	624.6
564.698	634
565.103	619.6
565.508	637.6
565.935	628.4
566.34	621.2
566.745	635
567.172	619
567.577	637.6
567.982	623.6
568.409	616
568.815	617
569.22	621.8
569.626	635
570.053	598.6
570.459	616.6
570.865	630
571.292	625.4
571.698	632.2
572.104	603.4
572.531	608
572.937	616.2
573.343	619.6
573.75	615.8
574.177	620
574.583	615.2
574.99	614.8
575.396	632.4
575.824	610
576.231	623.4
576.637	615
577.065	645
577.472	604.4
577.879	611.8
578.286	627.4
578.714	608.4
579.121	613
579.528	623.4
579.935	626.8
580.364	618.4
580.771	600.6
581.178	610.6
581.585	620.2
582.014	626.2
582.421	601.2
582.829	610.4
583.236	625.2
583.644	603.8
584.073	612
584.481	607.4
584.889	615
585.296	622.2
585.726	605
586.134	600.8
586.542	604
586.95	631.8
587.358	610.4
587.787	611.4
588.196	616.6
588.604	610.4
589.012	609
589.421	597.8
589.851	609.8
590.259	611.2
590.668	607.6
591.076	642.8
591.485	599
591.894	608.4
592.324	619
592.733	616.4
593.142	594.6
593.551	599.6
593.96	640.8
594.369	598.6
594.8	605.8
595.209	613
595.618	582.4
596.028	602.6
596.437	601.4
596.847	604.2
597.256	603.2
597.687	609.6
598.097	606.2
598.507	597.6
598.917	610
599.327	613.6
599.736	608.6
600.146	606.8
600.556	604.2
600.988	618
601.398	588.8
601.808	615.2
602.219	591.6
602.629	604.8
603.039	608.6
603.45	626
603.86	610
604.271	614.2
604.703	606.4
605.114	599.6
605.525	598.6
605.935	606.6
606.346	625
606.757	607.6
607.168	595.4
607.579	598.8
607.99	615.2
608.402	606.8
608.813	613
609.224	597
609.636	585.6
610.047	595.8
610.48	610.6
610.892	614
611.303	601.6
611.715	596.4
612.127	592.8
612.539	590.6
612.95	609.8
613.362	588.8
613.774	594.4
614.186	597.6
614.599	595.8
615.011	612.6
615.423	593.6
615.835	598.2
616.248	595.2
616.66	603.6
617.073	589.6
617.485	605.2
617.898	602.4
618.311	597.4
618.723	604
619.136	624.8
619.549	618.6
619.962	624.4
620.375	597.4
620.788	600.8
621.201	593.2
621.614	604
622.028	600
622.441	603.4
622.854	619.4
623.268	594.4
623.681	598.8
624.095	595.8
624.509	605.6
624.922	609.4
625.336	585
625.728	594.8
626.142	603.6
626.556	615.2
626.97	603.4
627.384	592.6
627.799	591
628.213	610.2
628.627	596.8
629.041	599.2
629.456	593.2
629.87	591.4
630.285	602.4
630.699	595
631.093	592.2
631.507	600.2
631.922	601.8
632.337	610.8
632.752	589.6
633.167	598.2
633.582	595.2
633.997	596
634.412	581.6
634.806	588.8
635.221	586
635.637	598.8
636.052	582
636.468	585.8
636.883	607.8
637.299	590.4
637.715	581.8
638.109	586
638.525	579.8
638.941	607.4
639.357	597
639.773	603.2
640.189	582.6
640.584	592.6
641	597
641.416	587.8
641.832	599.6
642.249	582.6
642.665	597
643.06	607.6
643.477	603.4
643.894	576.6
644.31	596
644.727	601.4
645.123	593.8
645.54	581.6
645.957	595.6
646.374	599.4
646.77	590.8
647.187	625.8
647.604	598.6
648.021	576
648.439	583.4
648.835	595.8
649.252	589.2
649.67	592.2
650.088	591.6
650.484	593.8
650.902	602.6
651.32	608.4
651.738	598.2
652.134	591.8
652.552	618
652.971	607.6
653.389	588
653.786	598.8
654.204	622
654.622	583.2
655.019	595.8
655.438	595.2
655.857	592
656.275	601.6
656.673	585
657.091	597.8
657.51	585.4
657.908	599.8
658.327	612.4
658.746	576.6
659.144	599.4
659.563	607
659.982	596
660.38	581.6
660.8	594.2
661.219	595.8
661.617	600.2
662.037	590.2
662.457	601.8
662.855	578.2
663.275	614.8
663.695	575.6
664.094	591.6
664.514	590.4
664.934	578
665.333	589.6
665.753	583.6
666.152	578.8
666.572	590.8
666.993	601.4
667.392	581.4
667.812	588
668.212	594.6
668.632	603.6
669.053	585.4
669.453	597.2
669.874	588
670.273	586.6
670.694	582.8
671.116	608.4
671.515	599.8
671.937	591.2
672.337	585
672.758	591
673.158	594.8
673.58	583.8
673.98	586.4
674.402	606.2
674.824	587.2
675.224	586.6
675.646	578
676.047	577
676.469	592.2
676.869	593.6
677.292	598.2
677.693	573.8
678.115	585.2
678.516	594.4
678.939	590.8
679.34	589.6
679.762	600.4
680.164	597.8
680.586	583
680.988	599.2
681.411	614.2
681.812	588.4
682.236	582.8
682.637	577.8
683.061	576.4
683.462	593.6
683.864	592
684.288	598
684.69	585.6
685.114	600.2
685.516	603
685.94	589.4
686.342	599
686.766	583.2
687.168	582.4
687.571	602.8
687.995	593.2
688.398	573.8
688.822	592
689.225	604
689.628	610.2
690.052	585.4
690.456	596.6
690.88	592.2
691.284	580.4
691.687	592.6
692.112	575.4
692.515	580.4
692.919	590
693.344	593.6
693.747	582.8
694.173	580.8
694.577	595.2
694.98	593.2
695.406	586.6
695.81	593
696.214	598.4
696.64	591.8
697.044	590.8
697.448	599.4
697.874	583.6
698.279	592
698.684	583.8
699.11	581.2
699.514	589.6
699.919	592
700.324	579.4
700.75	592
701.156	591.2
701.561	601.4
701.987	594.8
702.393	595.2
702.798	602.4
703.203	590.4
703.63	585.6
704.036	587.2
704.442	596.2
704.847	586.8
705.274	590.6
705.68	590
706.086	595.4
706.492	579.4
706.92	588.6
707.326	599.6
707.732	589.6
708.139	578.2
708.545	589.2
708.973	580.6
709.38	586.2
709.786	576.2
710.193	602
710.6	599.6
711.028	580.8
711.435	582.2
711.842	584
712.249	579.4
712.656	578.8
713.064	593
713.492	573.6
713.9	590
714.307	581.2
714.715	594.2
715.123	597.2
715.53	588.4
715.938	599.4
716.367	592
716.775	585.2
717.184	575.2
717.592	586.8
718	594
718.408	626.4
718.816	630.2
719.225	593.4
719.633	590
720.042	573.6
720.472	590.2
720.881	605.4
721.29	589.8
721.699	576.6
722.108	591.8
722.517	590.8
722.926	581.6
723.335	588.2
723.744	591
724.154	595
724.563	589.2
724.973	589.4
725.382	585.8
725.792	576.2
726.202	576.8
726.612	609
727.022	584.4
727.432	584
779.813	587.4
780.223	625.6
780.634	589.6
781.044	583.2
781.454	589.2
781.865	597.2
782.276	574.2
782.686	590.4
783.097	583
783.508	588.6
783.919	592.2
784.33	595.6
784.741	595.2
785.152	573
785.563	569.4
785.974	581.8
786.386	596.6
786.776	581.6
787.188	579.6
787.599	582.6
788.011	597.4
788.423	587.4
788.835	579.4
789.247	577
789.659	566.6
790.071	572
790.483	631.4
790.874	579.8
791.286	596.2
791.699	584.4
792.111	580.8
792.524	582.2
792.937	579.8
793.349	578.8
793.741	578.6
794.154	588.4
794.567	603.6
794.98	590.6
795.393	571.6
795.785	603.4
796.198	584.4
796.612	584.6
797.026	580.6
797.439	565.8
797.831	583.6
798.245	571
798.659	583.8
799.073	583.8
799.487	588.4
799.88	589.4
800.294	583.8
800.708	588.4
801.123	582.4
801.516	608
801.93	577.4
802.345	583
802.76	582.4
803.153	604
803.568	602.2
803.983	592.6
804.377	589.6
804.792	573.6
805.207	570.6
805.601	587
806.016	617.4
806.432	574.6
806.826	614.8
807.242	588.6
807.658	587.4
808.052	577
808.468	576
808.884	579.8
809.279	585.6
809.695	598.8
810.111	602.8
810.506	583
810.922	596.6
811.339	575.2
811.734	584.8
812.151	582.6
812.546	580.4
812.963	578.4
813.38	580.8
813.776	579.2
814.193	599
814.589	578.6
815.006	574
815.402	571.8
815.82	582
816.237	574
816.633	587.8
817.051	578.2
817.448	583.2
817.866	578.2
818.262	597.2
818.68	581.6
819.077	578.2
819.495	584.2
819.892	621
820.311	582
820.708	581.2
821.127	575.6
821.524	597.8
821.943	583.8
822.34	598.4
822.759	581.8
823.157	586.8
823.576	595.6
823.974	588.4
824.393	629.6
824.791	577.2
825.189	571.8
825.609	585
826.007	574.4
826.427	571.6
826.826	577.4
827.246	583
827.644	573.2
828.043	602.4
828.463	578
828.862	594.8
829.261	592.4
829.682	572.4
830.081	585.4
830.502	579.2
830.901	590.6
831.301	608.8
831.722	573.8
832.121	584.4
832.521	585.2
832.943	585.4
833.342	581.2
833.742	578.2
834.164	577.4
834.564	568.2
834.965	577.2
835.386	580
835.787	588
836.188	589
836.588	583.8
837.01	583.4
837.411	580.6
837.812	592.2
838.213	588.6
838.636	580
839.037	640
839.438	592.6
839.84	585.6
840.263	593.4
840.664	583.6
841.066	586.8
841.468	596.8
841.891	576.4
842.293	595.8
842.695	593.6
843.098	591.2
843.5	579.6
843.902	587
844.326	586.6
844.729	588.2
845.131	602.8
845.534	579.2
845.937	598.2
846.34	591
846.764	579.4
847.167	586.8
847.571	584.6
847.974	575.6
848.377	582.2
848.781	625
849.184	596.4
849.588	577.2
849.992	580.6
850.396	581.2
850.821	608
851.225	590.4
851.63	578.2
852.034	599
852.438	576.4
852.843	649.6
853.247	578.6
853.652	577
854.057	604.6
854.462	589.4
854.867	587.8
855.272	618.2
855.677	589
