#lambda/nm	C1
208.295	502.6
208.67	466.6
209.045	428.4
209.419	433.4
209.794	623.2
210.169	599.2
210.544	723.2
210.919	615.8
211.295	608.4
211.67	616.4
212.045	601.8
212.421	613
212.796	641.4
213.172	616.6
213.547	606.8
213.923	621.6
214.299	606.4
214.675	616
215.051	625
215.427	623.8
215.803	644.2
216.179	615.6
216.555	615.2
216.932	629.2
217.308	613.6
217.684	608
218.061	619
218.438	611.4
218.814	612.4
219.191	620.8
219.568	600.6
219.945	613
220.322	616.4
220.699	617
221.076	633
221.453	619
221.83	604.8
222.208	609
222.585	616
222.962	611.4
223.34	623.6
223.717	620.2
224.095	607.8
224.473	613.4
224.851	609
225.229	610.2
225.607	636.8
225.985	595.8
226.363	618.4
226.741	618.2
227.119	610
227.497	624.8
227.876	600.6
228.254	618.4
228.633	617.2
229.011	619.8
229.39	621.4
229.769	620.6
230.148	625.4
230.527	639
230.905	616.8
231.284	624.4
231.664	616.2
232.043	628
232.422	613.6
232.801	602.4
233.181	621.2
233.56	611
233.94	612.2
234.319	600.2
234.699	615.2
235.079	652.6
235.458	649.6
235.838	629
236.218	606.8
236.598	601.2
236.978	606.8
237.358	604
237.738	610.8
238.119	613.2
238.499	607.6
238.88	619.4
239.26	632
239.641	602
240.021	609
240.402	617.2
240.783	602.2
241.163	603.4
241.544	616.2
241.925	617
242.306	636
242.687	619.8
243.069	615.8
243.45	625.4
243.831	610
244.212	609.6
244.594	657.8
244.975	620.4
245.357	619.2
245.739	613.6
246.12	612
246.502	625
246.884	624.2
247.266	606
247.648	620.8
248.03	642.4
248.412	617.4
248.794	619.8
249.176	605.4
249.559	620.4
249.941	609.8
250.323	604.2
250.706	612.6
251.089	612.8
251.471	620.2
251.854	612.6
252.237	615.4
252.62	629.4
253.002	612.2
253.385	615.6
253.769	628.2
254.152	617.4
254.535	629.4
254.918	608.6
255.301	611
255.685	614.4
256.068	611.4
256.452	642
256.835	613.2
257.219	621.2
257.603	630.6
257.986	610.2
258.37	628.6
258.754	604
259.138	615.2
259.522	626.8
259.906	613.4
260.29	618.6
260.675	621.8
261.059	620.4
261.443	611.2
261.828	626.6
262.212	619
262.597	610.2
262.981	613.8
263.366	618.2
263.751	617
264.136	617.2
264.521	609.4
264.906	608.2
265.291	626.6
265.676	612.2
266.061	618.2
266.446	634.6
266.831	616.2
267.217	634.6
267.602	618.8
267.987	618.4
268.373	613
268.759	623.4
269.144	616
269.53	618.2
269.916	612.6
270.302	612
270.688	619
271.074	625.2
271.46	622.8
271.846	649.6
272.232	611.8
272.618	608
273.004	608.2
273.391	631.2
273.777	628.4
274.164	626.2
274.55	630.2
274.937	628.8
275.324	614.8
275.71	625.8
276.097	619.2
276.484	610.4
276.871	618
277.258	623.2
277.645	608.6
278.032	609.8
278.419	618.4
278.807	620.2
279.194	608
279.581	609.4
279.969	620.8
280.356	608.2
280.744	614
281.131	636
281.519	624.4
281.907	611.6
282.295	607.6
282.682	623.4
283.07	611.2
283.458	618
283.846	627.4
284.235	617.8
284.623	621.4
285.011	604.2
285.399	621.6
285.788	613.2
286.176	608.4
286.565	630
286.953	604.8
287.342	616.8
287.731	604.4
288.119	614
288.508	614.8
288.897	612.8
289.286	606.4
289.675	618.2
290.064	627
290.453	614.8
290.821	622.4
291.21	635.8
291.599	607.2
291.989	616
292.378	622.4
292.768	625.8
293.157	613.8
293.547	614.2
293.936	612.6
294.326	602.8
294.716	616.6
295.106	607
295.496	615.8
295.886	620.2
296.276	612.6
296.666	605.4
297.056	611.8
297.446	600.8
297.836	626.2
298.227	609.2
298.617	622.4
299.008	625.6
299.398	616
299.789	605.2
300.179	615
300.57	625.8
300.961	610
301.352	613.2
301.742	618.2
302.133	612.8
302.524	613.2
302.915	614.2
303.307	609.4
303.698	624.4
304.089	620.8
304.48	618.2
304.872	619
305.263	613.2
305.655	603.4
306.046	623.2
306.438	623.8
306.829	613.4
307.221	626.6
307.613	628.4
308.005	628
308.397	624.6
308.789	637.2
309.181	644.4
309.573	637.8
309.965	623.2
310.357	615.2
310.749	629.6
311.142	614.2
311.534	618.2
311.926	623.2
312.319	618.4
312.711	612.4
313.104	622
313.497	612
313.889	656.4
314.282	630.2
314.675	645.4
315.068	623.6
315.461	623.8
315.854	646.6
316.247	622.6
316.64	613.6
317.033	622.8
317.405	626.8
317.798	617.4
318.192	621.2
318.585	610.2
318.979	623.4
319.372	609.4
319.766	614.2
320.16	628.2
320.553	634.2
320.947	628.4
321.341	609.4
321.735	616.6
322.129	609
322.523	637
322.917	614
323.311	627.8
323.705	618.6
324.099	628.2
324.494	638
324.888	628.6
325.282	618.2
325.677	622
326.071	627.4
326.466	630
326.861	625.6
327.255	631.8
327.65	636.6
328.045	634.2
328.44	614.8
328.835	620
329.23	608.2
329.625	635.2
330.02	609.8
330.415	640
330.81	624
331.206	617.6
331.601	614.6
331.996	624.4
332.37	640.6
332.766	606.4
333.161	636.6
333.557	609
333.953	613.2
334.348	903.6
334.744	621.2
335.14	611.4
335.536	614.8
335.932	628.2
336.328	624.4
336.724	620.6
337.12	603.4
337.516	615.6
337.913	612.6
338.309	627
338.705	620
339.102	628.2
339.498	608
339.895	634
340.291	605
340.688	621.8
341.085	599.2
341.481	616.2
341.878	612
342.275	633.2
342.672	606.6
343.069	618.2
343.466	600.4
343.842	613.6
344.239	610
344.636	614
345.033	606.2
345.431	611
345.828	621.8
346.225	608.8
346.623	651.4
347.02	617.6
347.418	628.4
347.816	621.8
348.213	609
348.611	622
349.009	604.6
349.407	631.2
349.805	605.4
350.203	600
350.601	626.2
350.999	608.2
351.397	661.8
351.795	618.8
352.193	621.4
352.57	623.4
352.969	619.4
353.367	602.2
353.766	604.2
354.164	612.8
354.563	616.4
354.961	617.8
355.36	616.4
355.759	610.6
356.158	607.2
356.557	606.8
356.956	603.6
357.355	605
357.754	605.4
358.153	609.4
358.552	638.8
358.951	608
359.35	624
359.75	610.8
360.149	608.6
360.527	602.8
360.926	596.8
361.326	621.2
361.726	612.4
362.125	600.6
362.525	623.6
362.925	612.8
363.325	612.8
363.724	610.2
364.124	605.4
364.524	608.4
364.924	614.4
365.324	615.4
365.725	603.6
366.125	616.4
366.525	611.8
366.904	605.8
367.304	594.8
367.705	628.6
368.105	623.4
368.506	608.2
368.906	611.8
369.307	603.8
369.708	608.8
370.108	605
370.509	615.8
370.91	603
371.311	604.2
371.712	615.4
372.113	609.8
372.514	598.2
372.894	605.4
373.295	607.4
373.696	611.2
374.097	618.4
374.499	634.4
374.9	605.4
375.301	607.8
375.703	609.8
376.105	605
376.506	606
376.908	608.8
377.309	601.8
377.711	605.4
378.113	602.6
378.493	616.2
378.895	595.6
379.297	622.4
379.699	596.2
380.102	612.2
380.504	611.6
380.906	604.6
381.308	630.8
381.71	601.8
382.113	622.4
382.515	608.6
382.918	612.4
383.299	600
383.701	618.6
384.104	613.4
384.507	589.8
384.909	606
385.312	594.2
385.715	600.4
386.118	608.6
386.521	596.6
386.924	618
387.327	605.2
387.709	596
388.112	583
388.515	609
388.918	609.8
389.322	604.4
389.725	605.4
390.129	634.4
390.532	610
390.936	600.6
391.339	597.2
391.743	611.4
392.125	597.4
392.529	614
392.933	615.8
393.337	610.8
393.74	606.6
394.144	608.4
394.548	599.6
394.953	600.6
395.357	615.4
395.761	599.2
396.144	609.2
396.548	599
396.952	610.8
397.357	605.8
397.761	602.8
398.166	601.8
398.57	606.2
398.975	593.4
399.379	607.2
399.763	657.2
400.168	609.2
400.572	609.8
400.977	601.2
401.382	624
401.787	613.4
402.192	624
402.597	624.6
403.002	600.4
403.386	624.6
403.791	623
404.197	605.8
404.602	614.6
405.007	612.2
405.413	607.2
405.818	604.6
406.224	598.8
406.608	602.4
407.014	598.2
407.42	620.4
407.825	613.4
408.231	615.8
408.637	608
409.043	624.6
409.449	614.6
409.834	599
410.24	602.6
410.646	627.4
411.052	617
411.458	624
411.865	616
412.271	625.6
412.677	617.2
413.062	620.8
413.469	598.2
413.875	631.4
414.282	629.2
414.689	615.6
415.095	621.2
415.502	605.8
415.888	607
416.294	598.4
416.701	646.8
417.108	609.6
417.515	617.8
417.923	614.2
418.33	624.8
418.715	619.4
419.123	604.2
419.53	606
419.937	613.2
420.345	623.8
420.752	609.8
421.16	631.4
421.546	603.6
421.953	616
422.361	605.2
422.769	607.8
423.177	605.4
423.585	625.6
423.992	626.4
424.379	618.2
424.787	617.8
425.195	628.4
425.603	614.6
426.011	619.8
426.419	625.6
426.806	612.6
427.214	609.6
427.623	626.4
428.031	632.6
428.44	624.4
428.848	619.6
429.235	632.2
429.644	617.6
430.053	614.6
430.461	621.8
430.87	633
431.279	612.2
431.666	604.8
432.075	608.6
432.484	616.2
432.893	612.8
433.302	628
433.711	655.8
434.099	618.8
434.508	614
434.918	600.8
435.327	625.8
435.737	617.8
436.125	619.6
436.534	622.2
436.944	619.4
437.353	627.2
437.763	643.4
438.173	612.2
438.561	632.6
438.971	604.8
439.381	625.6
439.791	631.8
440.201	609.2
440.589	631
440.999	642.4
441.409	650.4
441.819	631.4
442.23	658.6
442.619	652.2
443.029	650.8
443.439	651.2
443.85	661
444.26	661
444.649	669.6
445.06	662.4
445.471	664
445.881	659
446.292	677.2
446.682	694.2
447.092	663.8
447.503	719.2
447.914	680.8
448.325	681.2
448.715	681.6
449.126	663.6
449.537	676.4
449.948	680
450.338	692.2
450.75	685
451.161	705.6
451.572	701.2
451.984	686.8
452.374	679.4
452.786	696.2
453.197	689.8
453.609	695.2
453.999	688.2
454.411	683.8
454.823	707.2
455.235	698.4
455.647	693.6
456.037	709.2
456.449	682.6
456.862	695.8
457.274	695.2
457.665	680.8
458.077	699.4
458.489	732
458.902	705.2
459.293	703.6
459.705	690
460.118	699
460.53	704
460.921	707.6
461.334	701.2
461.747	709
462.16	715.4
462.551	717.6
462.964	715.2
463.377	701.4
463.79	719
464.182	714
464.595	701.6
465.008	728.2
465.421	719.6
465.813	724
466.226	724.6
466.64	715
467.053	766.6
467.445	717.4
467.859	739.6
468.272	721
468.686	734
469.078	722
469.492	713
469.906	725
470.298	736.2
470.712	718.2
471.126	764.6
471.54	717
471.933	711
472.347	721
472.761	718.6
473.175	710.4
473.568	714.4
473.982	710
474.397	721
474.79	719.2
475.204	728.2
475.619	713.8
476.033	727.8
476.426	711.4
476.841	715.6
477.256	755.4
477.649	710.6
478.064	715
478.479	716
478.872	712.6
479.287	703.4
479.702	717.6
480.118	712.4
480.511	718.8
480.927	706.4
481.342	712.4
481.736	720.2
482.151	713.4
482.566	727.2
482.96	727.2
483.376	729.8
483.792	713.2
484.186	710
484.602	715.8
485.017	720.2
485.412	720.2
485.827	711.6
486.243	713.4
486.638	734.4
487.054	731.8
487.47	730
487.865	715.8
488.281	708.2
488.697	700
489.092	711
489.508	704.8
489.925	709.8
490.32	697.4
490.736	712
491.153	701.8
491.548	713.4
491.964	714.4
492.381	691.4
492.776	713.6
493.193	712
493.61	709.6
494.006	709
494.422	707.4
494.84	697
495.235	713.2
495.652	707.2
496.069	701.6
496.465	689.2
496.883	710.6
497.3	721.6
497.696	689.4
498.113	713.2
498.509	692.6
498.927	685.2
499.344	699
499.741	691.6
500.158	698.4
500.576	709.6
500.973	695
501.39	695
501.787	689.8
502.205	708
502.623	691.8
503.02	677.8
503.438	690.6
503.856	691
504.253	696.4
504.671	686
505.068	685.2
505.486	679
505.905	703.4
506.302	682.2
506.72	707.4
507.118	671.6
507.536	680.8
507.955	682
508.352	689.6
508.771	684.8
509.169	687.6
509.587	674.6
510.006	686.4
510.404	671
510.823	675.8
511.221	676
511.64	669.6
512.038	683.2
512.457	670.2
512.877	676
513.275	668.6
513.694	673.4
514.092	668.6
514.512	668
514.91	682.6
515.33	661.8
515.749	667.4
516.148	673.2
516.568	668.4
516.966	670.8
517.386	666.2
517.785	662.4
518.205	656.4
518.603	663.8
519.024	667.2
519.444	668.8
519.843	674
520.263	671.4
520.662	671.6
521.082	666.2
521.481	660.6
521.902	659.4
522.301	657
522.722	668.2
523.121	664
523.542	654.8
523.963	664.6
524.362	665.4
524.783	656.6
525.183	650.4
525.604	654.4
526.003	648.2
526.425	646.4
526.824	660.4
527.246	660.6
527.646	659.4
528.067	650
528.467	648.4
528.888	652
529.289	647
529.71	650.4
530.11	640
530.532	643.8
530.932	635
531.354	636.8
531.755	681
532.176	656.6
532.577	638.6
532.999	638.4
533.4	636.6
533.822	650.8
534.223	660.4
534.645	650.2
535.046	644.2
535.468	644.6
535.869	658.2
536.292	636.2
536.693	681.2
537.115	641.2
537.516	637
537.939	641.2
538.34	665
538.742	655.6
539.165	638.8
539.566	641.4
539.989	633
540.391	643.6
540.814	635.4
541.216	641.4
541.639	640.2
542.041	648.8
542.464	645.6
542.866	627.4
543.268	623.6
543.691	640
544.093	652.4
544.517	651.4
544.919	625
545.343	657.6
545.745	625.8
546.147	640.2
546.571	627.2
546.974	624.4
547.398	634.4
547.8	648.8
548.224	631.4
548.627	623.6
549.03	634.2
549.454	623.8
549.857	619.4
550.281	629.2
550.684	628.2
551.087	645.8
551.512	636.2
551.915	637.2
552.34	631.4
552.743	628.8
553.146	629.8
553.571	623.8
553.975	642.6
554.399	624.4
554.803	672.4
555.207	628.6
555.632	618
556.036	632.6
556.461	619.4
556.865	619
557.268	622.4
557.694	617.4
558.098	633.8
558.502	621.8
558.927	619.6
559.332	616.2
559.736	622.4
560.162	628.4
560.566	616.4
560.992	629.2
561.396	626.2
561.801	610.4
562.227	622.6
562.631	622.2
563.036	624.2
563.462	632.2
563.867	616.6
564.272	610.8
564.698	621.6
565.103	609.2
565.508	639
565.935	614.8
566.34	619
566.745	635.4
567.172	611
567.577	635.4
567.982	623
568.409	613.2
568.815	606
569.22	612.2
569.626	615.6
570.053	602
570.459	615.8
570.865	614
571.292	616
571.698	623.8
572.104	598.2
572.531	614.4
572.937	617.8
573.343	605
573.75	605.8
574.177	616.2
574.583	617
574.99	603.8
575.396	621
575.824	606.6
576.231	623.6
576.637	597
577.065	639.4
577.472	610.4
577.879	612.2
578.286	622
578.714	607.8
579.121	615
579.528	613.2
579.935	620
580.364	608.8
580.771	594
581.178	604.2
581.585	605.6
582.014	607.2
582.421	601.8
582.829	607.6
583.236	617.2
583.644	602
584.073	610.6
584.481	605.4
584.889	599.6
585.296	605.8
585.726	600.6
586.134	597.6
586.542	600.8
586.95	622.4
587.358	601
587.787	597.6
588.196	611.2
588.604	610
589.012	595.8
589.421	591.4
589.851	603.2
590.259	602.2
590.668	599.8
591.076	639.8
591.485	595.6
591.894	598
592.324	612
592.733	613.6
593.142	591.6
593.551	595.8
593.96	638.8
594.369	590.8
594.8	604.4
595.209	597
595.618	589
596.028	599.4
596.437	593.6
596.847	602
597.256	608.4
597.687	605.2
598.097	608.2
598.507	585.6
598.917	603.2
599.327	604.4
599.736	603.8
600.146	616
600.556	599.8
600.988	608.8
601.398	590.4
601.808	615.4
602.219	582.2
602.629	598.2
603.039	599
603.45	626.4
603.86	600.6
604.271	621.6
604.703	601.4
605.114	596
605.525	601.4
605.935	601.2
606.346	619
606.757	601.2
607.168	595.6
607.579	599
607.99	608.8
608.402	598.4
608.813	599.8
609.224	597
609.636	593.4
610.047	594.2
610.48	597.4
610.892	610.2
611.303	606.6
611.715	603
612.127	594
612.539	596.4
612.95	599.2
613.362	582.2
613.774	594.8
614.186	588.8
614.599	598.8
615.011	607.4
615.423	595.2
615.835	598.2
616.248	594.2
616.66	600.8
617.073	585.4
617.485	591.6
617.898	605.2
618.311	597.4
618.723	587.4
619.136	625.2
619.549	608.6
619.962	611
620.375	590
620.788	591.6
621.201	587.6
621.614	605
622.028	592.8
622.441	594.8
622.854	608.4
623.268	596.2
623.681	593.6
624.095	590.2
624.509	605
624.922	604.4
625.336	583.6
625.728	596.6
626.142	597.6
626.556	613.8
626.97	600.6
627.384	593
627.799	596.6
628.213	602.8
628.627	583.4
629.041	595.8
629.456	583.4
629.87	588.4
630.285	598.6
630.699	598.6
631.093	585.2
631.507	599.8
631.922	597.6
632.337	603.2
632.752	588.4
633.167	593.4
633.582	597.8
633.997	591
634.412	582
634.806	603.8
635.221	585.6
635.637	613.8
636.052	586.4
636.468	600
636.883	600.8
637.299	592.6
637.715	578.8
638.109	590.8
638.525	578.2
638.941	608.4
639.357	599.2
639.773	601
640.189	588.2
640.584	597
641	590
641.416	577.8
641.832	595.2
642.249	581.6
642.665	592
643.06	595
643.477	602.6
643.894	585.8
644.31	590.4
644.727	588.6
645.123	584.8
645.54	578.8
645.957	593
646.374	600.8
646.77	591.2
647.187	616.2
647.604	589.4
648.021	579.4
648.439	583.8
648.835	593.2
649.252	589
649.67	582
650.088	593
650.484	585.8
650.902	597.2
651.32	599.2
651.738	597.6
652.134	596.6
652.552	610.6
652.971	595.4
653.389	591.6
653.786	606.4
654.204	609.2
654.622	583.4
655.019	593.4
655.438	597.6
655.857	597.2
656.275	590.6
656.673	582.4
657.091	598.6
657.51	586.4
657.908	605
658.327	608.8
658.746	583
659.144	593.8
659.563	601.4
659.982	596.4
660.38	577.8
660.8	596.2
661.219	599.2
661.617	603
662.037	591
662.457	604.2
662.855	575.2
663.275	626.4
663.695	584.4
664.094	596.2
664.514	588.2
664.934	588.6
665.333	605.8
665.753	581.8
666.152	582.6
666.572	586.4
666.993	599
667.392	581.4
667.812	581.8
668.212	584
668.632	592
669.053	589.2
669.453	593.2
669.874	593
670.273	595.6
670.694	579.2
671.116	596.6
671.515	593.2
671.937	588
672.337	578.2
672.758	583.4
673.158	599.4
673.58	573.4
673.98	588.8
674.402	602
674.824	579.6
675.224	580.2
675.646	576.8
676.047	589.2
676.469	581.6
676.869	592.6
677.292	590.2
677.693	585.4
678.115	592.2
678.516	595.8
678.939	589
679.34	585.2
679.762	597.8
680.164	596
680.586	581.8
680.988	586.8
681.411	609
681.812	589.2
682.236	580.4
682.637	575.2
683.061	577.8
683.462	585.6
683.864	585.2
684.288	585
684.69	576.4
685.114	589.2
685.516	601.4
685.94	581.8
686.342	590.6
686.766	584.2
687.168	585.8
687.571	605.8
687.995	588.8
688.398	583.2
688.822	586.8
689.225	598.2
689.628	609.6
690.052	589.4
690.456	597.4
690.88	585.8
691.284	586
691.687	592.8
692.112	574.8
692.515	583.8
692.919	584.4
693.344	583.4
693.747	581.8
694.173	580
694.577	592.6
694.98	592.2
695.406	584
695.81	590.8
696.214	591.4
696.64	589.2
697.044	593.4
697.448	592.2
697.874	587.8
698.279	581.2
698.684	583.4
699.11	582.2
699.514	583.6
699.919	587.2
700.324	573.8
700.75	594.8
701.156	580.6
701.561	603
701.987	597
702.393	600.6
702.798	600.8
703.203	591.8
703.63	589.2
704.036	581.4
704.442	589.4
704.847	580.8
705.274	589
705.68	593.4
706.086	595.4
706.492	577
706.92	589
707.326	594.8
707.732	581.2
708.139	587.6
708.545	586.6
708.973	577
709.38	583.8
709.786	581.2
710.193	609.2
710.6	594
711.028	584.2
711.435	580.8
711.842	573.8
712.249	590
712.656	587.8
713.064	597.4
713.492	578.6
713.9	582.8
714.307	590.4
714.715	592
715.123	588.2
715.53	587.6
715.938	593.8
716.367	588.6
716.775	586.2
717.184	575.8
717.592	587
718	597.2
718.408	617.2
718.816	632
719.225	586.2
719.633	584.8
720.042	585.2
720.472	575.4
720.881	611.2
721.29	587
721.699	578.2
722.108	589.4
722.517	577.4
722.926	579.2
723.335	595.6
723.744	584.6
724.154	585.8
724.563	580.8
724.973	592.8
725.382	584.8
725.792	579.8
726.202	574
726.612	600.2
727.022	588.6
727.432	584.6
779.813	583.2
780.223	631.8
780.634	584.4
781.044	582.2
781.454	592.4
781.865	591
782.276	569.8
782.686	600.8
783.097	590.2
783.508	578
783.919	598
784.33	595
784.741	606.2
785.152	581.4
785.563	580
785.974	582.2
786.386	588.4
786.776	581.8
787.188	590.2
787.599	571.8
788.011	587.6
788.423	587.2
788.835	576.6
789.247	576.8
789.659	582.2
790.071	583.6
790.483	615.6
790.874	578.8
791.286	594.8
791.699	584.2
792.111	580
792.524	591.4
792.937	582.8
793.349	578.2
793.741	578.4
794.154	578
794.567	605
794.98	586.4
795.393	575
795.785	602.2
796.198	581.6
796.612	591.4
797.026	584.6
797.439	565.2
797.831	586.8
798.245	570.4
798.659	573.4
799.073	587
799.487	572.6
799.88	592.6
800.294	581.2
800.708	595.2
801.123	587.8
801.516	609.4
801.93	574.4
802.345	575.6
802.76	583.2
803.153	595
803.568	595.8
803.983	596
804.377	589.2
804.792	571.2
805.207	577.2
805.601	577
806.016	609.4
806.432	581.8
806.826	609.2
807.242	598
807.658	590.2
808.052	580.8
808.468	579.6
808.884	571.8
809.279	587.8
809.695	593.6
810.111	605.2
810.506	591.4
810.922	597
811.339	575.6
811.734	589.8
812.151	580.4
812.546	578.2
812.963	581.4
813.38	589.2
813.776	586.2
814.193	601.6
814.589	578.2
815.006	579
815.402	577
815.82	571.6
816.237	584.4
816.633	593.2
817.051	573.8
817.448	581.2
817.866	572.4
818.262	596.6
818.68	573.4
819.077	577.2
819.495	573
819.892	622.2
820.311	566.2
820.708	581.2
821.127	588.2
821.524	596.8
821.943	582.4
822.34	594.2
822.759	577.4
823.157	578.2
823.576	595.8
823.974	591
824.393	635.8
824.791	577.4
825.189	574.6
825.609	581.8
826.007	579
826.427	569
826.826	580.8
827.246	584.2
827.644	565.8
828.043	597.8
828.463	580.2
828.862	587.8
829.261	583.2
829.682	569.2
830.081	584.6
830.502	576.4
830.901	579.2
831.301	601.4
831.722	570.6
832.121	584.8
832.521	571.6
832.943	580.2
833.342	574.4
833.742	567.8
834.164	575
834.564	572.8
834.965	578.6
835.386	577.2
835.787	580.2
836.188	585
836.588	586.2
837.01	578.4
837.411	572.6
837.812	587
838.213	580.2
838.636	579.2
839.037	652
839.438	582
839.84	580.2
840.263	589.8
840.664	589.2
841.066	582.4
841.468	590.4
841.891	576.8
842.293	587.6
842.695	584.6
843.098	603.2
843.5	582.2
843.902	593
844.326	582.4
844.729	583.6
845.131	597.4
845.534	580.2
845.937	592.4
846.34	595
846.764	572.6
847.167	587.6
847.571	567.8
847.974	580.6
848.377	577.6
848.781	632.6
849.184	591.8
849.588	578.4
849.992	583.2
850.396	582.4
850.821	598.2
851.225	582.8
851.63	580
852.034	585.4
852.438	582.2
852.843	657
853.247	571
853.652	576.6
854.057	598
854.462	581.4
854.867	593
855.272	611.6
855.677	580.2
