#lambda/nm	C1
208.295	513
208.67	463.8
209.045	431.8
209.419	429.8
209.794	611.2
210.169	600.6
210.544	718.8
210.919	616
211.295	605.6
211.67	621.6
212.045	609.2
212.421	613.6
212.796	656.8
213.172	613.8
213.547	607.2
213.923	610.6
214.299	609.2
214.675	614.6
215.051	619.4
215.427	623.6
215.803	642.6
216.179	622.2
216.555	608.8
216.932	627
217.308	619.4
217.684	616.8
218.061	618.6
218.438	612.6
218.814	610.8
219.191	626.2
219.568	608.6
219.945	613.4
220.322	626.6
220.699	614.6
221.076	627.8
221.453	621.2
221.83	607.8
222.208	617.2
222.585	608.8
222.962	618.6
223.34	618
223.717	623
224.095	616
224.473	622
224.851	605.8
225.229	607.2
225.607	626.8
225.985	611.4
226.363	623
226.741	621.6
227.119	620.8
227.497	626.8
227.876	594.2
228.254	617.6
228.633	621.6
229.011	624.8
229.39	622.2
229.769	613.6
230.148	613.2
230.527	634.2
230.905	614
231.284	613.2
231.664	607
232.043	628.8
232.422	612.4
232.801	607.2
233.181	615.4
233.56	617.6
233.94	604.4
234.319	596
234.699	614
235.079	657.6
235.458	653.2
235.838	621.8
236.218	611.4
236.598	608.4
236.978	613.6
237.358	610.6
237.738	611.2
238.119	620.4
238.499	603.4
238.88	607.4
239.26	624.4
239.641	604
240.021	621
240.402	622.2
240.783	611.6
241.163	608.6
241.544	619.6
241.925	618.6
242.306	641
242.687	617.6
243.069	616.8
243.45	614
243.831	609
244.212	610.6
244.594	650.8
244.975	629
245.357	620.4
245.739	618.6
246.12	613.6
246.502	627.2
246.884	618.6
247.266	611
247.648	617.6
248.03	639.4
248.412	621.8
248.794	619.6
249.176	611.8
249.559	621.4
249.941	603
250.323	601
250.706	604.6
251.089	619.6
251.471	621.8
251.854	614.6
252.237	614.6
252.62	632.2
253.002	615.4
253.385	618.8
253.769	636.4
254.152	611.8
254.535	622.6
254.918	608.2
255.301	616.8
255.685	611
256.068	610.6
256.452	639.2
256.835	621.2
257.219	622.6
257.603	632
257.986	614.4
258.37	627.2
258.754	609.6
259.138	622.6
259.522	631.8
259.906	614.6
260.29	632.6
260.675	612.2
261.059	614
261.443	603.6
261.828	623.2
262.212	622
262.597	597
262.981	611.4
263.366	617
263.751	617.2
264.136	610.4
264.521	615
264.906	603.8
265.291	627
265.676	617.8
266.061	617
266.446	630.2
266.831	615.8
267.217	639.8
267.602	618.8
267.987	623.8
268.373	608
268.759	629
269.144	627.4
269.53	606
269.916	611
270.302	604.8
270.688	621.4
271.074	620.2
271.46	627.2
271.846	653.2
272.232	613.6
272.618	607
273.004	619
273.391	624.8
273.777	631.6
274.164	623.6
274.55	630.2
274.937	618.2
275.324	617.6
275.71	630
276.097	621.4
276.484	604.8
276.871	616.8
277.258	621.6
277.645	607.2
278.032	619
278.419	610.6
278.807	621.4
279.194	618.8
279.581	614.8
279.969	624.8
280.356	624
280.744	623.6
281.131	653.8
281.519	622.4
281.907	625
282.295	611.8
282.682	636.6
283.07	618.4
283.458	621
283.846	632.2
284.235	635.2
284.623	631
285.011	610
285.399	627.6
285.788	615.8
286.176	597.4
286.565	631.6
286.953	613.6
287.342	622.8
287.731	611.2
288.119	617.8
288.508	613.6
288.897	618.4
289.286	610.8
289.675	613.8
290.064	629.8
290.453	618.4
290.821	619.6
291.21	632.4
291.599	605.8
291.989	612.8
292.378	628.2
292.768	634
293.157	627
293.547	624.8
293.936	619.6
294.326	611.8
294.716	619.4
295.106	617.8
295.496	624.2
295.886	619.8
296.276	628.6
296.666	618.6
297.056	616.2
297.446	609.2
297.836	634
298.227	616.4
298.617	617.8
299.008	634.8
299.398	616.2
299.789	614.8
300.179	617.8
300.57	636.2
300.961	621.4
301.352	611
301.742	631.6
302.133	621.2
302.524	625.4
302.915	617.2
303.307	617
303.698	629.8
304.089	631.6
304.48	613.4
304.872	629.6
305.263	623
305.655	615.2
306.046	633.8
306.438	619.6
306.829	614.6
307.221	629.2
307.613	614.6
308.005	632
308.397	628.6
308.789	634.8
309.181	648.2
309.573	635.2
309.965	633.4
310.357	619.6
310.749	628.2
311.142	617.2
311.534	611.4
311.926	640.4
312.319	623.8
312.711	604.6
313.104	626.2
313.497	613
313.889	658
314.282	640
314.675	640.4
315.068	622.6
315.461	618.4
315.854	651.2
316.247	625
316.64	618.6
317.033	616.8
317.405	624.4
317.798	613.6
318.192	617.8
318.585	614.8
318.979	617.4
319.372	617.6
319.766	616.8
320.16	635.8
320.553	631.8
320.947	632.6
321.341	617
321.735	619
322.129	606.8
322.523	638.8
322.917	609.2
323.311	635.6
323.705	624.6
324.099	621.8
324.494	641.2
324.888	631.8
325.282	620.2
325.677	630.4
326.071	625.8
326.466	628.6
326.861	618.2
327.255	628.2
327.65	628.6
328.045	626.4
328.44	620
328.835	619
329.23	603.2
329.625	630
330.02	608.6
330.415	629.4
330.81	624.2
331.206	619.6
331.601	611.8
331.996	618.4
332.37	634.6
332.766	604.2
333.161	639
333.557	617.2
333.953	621
334.348	925.8
334.744	619.6
335.14	613.4
335.536	616
335.932	635.8
336.328	621.6
336.724	629
337.12	613.2
337.516	625.8
337.913	615
338.309	626.8
338.705	618.4
339.102	633.2
339.498	615
339.895	630.8
340.291	605
340.688	630.4
341.085	609.8
341.481	613.4
341.878	615
342.275	636.2
342.672	606.8
343.069	608.4
343.466	602.8
343.842	623.8
344.239	611.4
344.636	599.8
345.033	602
345.431	605.6
345.828	613.8
346.225	608.6
346.623	654.2
347.02	613.2
347.418	618.2
347.816	625.8
348.213	608.2
348.611	630.8
349.009	611.6
349.407	629.2
349.805	596.4
350.203	598.4
350.601	623.2
350.999	608.4
351.397	673.6
351.795	618.4
352.193	616.8
352.57	617.4
352.969	632.6
353.367	603.8
353.766	608.4
354.164	611.6
354.563	626.6
354.961	620.4
355.36	608.4
355.759	620.6
356.158	602.6
356.557	610.8
356.956	605.6
357.355	597
357.754	617.4
358.153	620.6
358.552	642.4
358.951	616
359.35	626.2
359.75	614.6
360.149	596
360.527	605.2
360.926	599.6
361.326	621.2
361.726	607.8
362.125	607.8
362.525	620
362.925	603.8
363.325	611.8
363.724	605.8
364.124	598.4
364.524	606.8
364.924	612
365.324	621
365.725	597
366.125	618.8
366.525	606.8
366.904	610.8
367.304	604.8
367.705	627.8
368.105	626.6
368.506	607.6
368.906	606.2
369.307	611.2
369.708	613
370.108	596.8
370.509	616
370.91	606.2
371.311	617.6
371.712	611
372.113	609.2
372.514	598.8
372.894	612.2
373.295	603
373.696	626.4
374.097	622.6
374.499	632
374.9	611.4
375.301	600
375.703	617.8
376.105	597.6
376.506	614.8
376.908	611.2
377.309	612.2
377.711	609.2
378.113	600.4
378.493	616.6
378.895	609.8
379.297	621.8
379.699	597
380.102	613.8
380.504	609.8
380.906	604.8
381.308	634.4
381.71	609.2
382.113	615.8
382.515	602.6
382.918	614.8
383.299	604.6
383.701	611.6
384.104	611
384.507	592
384.909	617.6
385.312	601.2
385.715	593.8
386.118	609.4
386.521	594.2
386.924	616.6
387.327	609.8
387.709	589.4
388.112	589.2
388.515	604.6
388.918	606.8
389.322	621.4
389.725	604
390.129	630.6
390.532	612
390.936	606
391.339	606
391.743	615
392.125	605.6
392.529	613.2
392.933	621
393.337	612.4
393.74	613
394.144	611.8
394.548	612.4
394.953	603
395.357	609.8
395.761	612.2
396.144	610.2
396.548	608.8
396.952	602
397.357	612.2
397.761	604.8
398.166	605.2
398.57	614.4
398.975	605.4
399.379	610
399.763	659.6
400.168	613.6
400.572	605.8
400.977	613.8
401.382	625.4
401.787	616
402.192	624.2
402.597	617.8
403.002	605.4
403.386	614.4
403.791	626.6
404.197	605.4
404.602	609.8
405.007	612.8
405.413	615
405.818	612
406.224	608.2
406.608	605.2
407.014	598.4
407.42	639
407.825	599.8
408.231	622.2
408.637	602.4
409.043	623.8
409.449	610.4
409.834	609.2
410.24	614.4
410.646	619.8
411.052	619.4
411.458	612.8
411.865	617.4
412.271	622.4
412.677	610.2
413.062	622
413.469	612.8
413.875	645.4
414.282	625.2
414.689	611
415.095	622.4
415.502	606.4
415.888	609
416.294	600.6
416.701	646.8
417.108	611.2
417.515	616.8
417.923	615
418.33	638
418.715	626.2
419.123	613.8
419.53	615.6
419.937	610
420.345	624.4
420.752	607
421.16	629
421.546	609.6
421.953	614.2
422.361	600.4
422.769	606.8
423.177	605.8
423.585	630.8
423.992	630.4
424.379	618
424.787	615.8
425.195	619.8
425.603	599
426.011	624
426.419	621.8
426.806	618
427.214	608.8
427.623	623.6
428.031	623.2
428.44	615.4
428.848	618
429.235	630.8
429.644	609.8
430.053	607
430.461	634
430.87	641.6
431.279	628.2
431.666	610.2
432.075	612.8
432.484	614.8
432.893	614.4
433.302	644.8
433.711	656.8
434.099	631.2
434.508	623.2
434.918	614.6
435.327	629.8
435.737	627
436.125	633.6
436.534	633.2
436.944	644
437.353	644
437.763	652.6
438.173	635.4
438.561	665.2
438.971	629.6
439.381	657.2
439.791	662.8
440.201	633.2
440.589	655.8
440.999	678.8
441.409	674.4
441.819	666.4
442.23	686.2
442.619	687.4
443.029	682
443.439	695.2
443.85	697.8
444.26	717.8
444.649	715.8
445.06	712.6
445.471	703
445.881	706.6
446.292	734.8
446.682	739.8
447.092	710.4
447.503	772.4
447.914	728.2
448.325	740.6
448.715	730.8
449.126	730.4
449.537	733
449.948	754.2
450.338	746.6
450.75	754
451.161	756.4
451.572	753.4
451.984	750.4
452.374	739.6
452.786	761.2
453.197	764.4
453.609	765.2
453.999	747.6
454.411	752.6
454.823	774.4
455.235	759.8
455.647	755.6
456.037	776.2
456.449	757.6
456.862	774.4
457.274	774.2
457.665	758.2
458.077	773.2
458.489	801.8
458.902	772.8
459.293	763.4
459.705	767.6
460.118	767.2
460.53	774.6
460.921	784.8
461.334	787.4
461.747	783
462.16	786.6
462.551	793.4
462.964	786.8
463.377	767.4
463.79	782
464.182	794.2
464.595	787.6
465.008	781.8
465.421	800.8
465.813	786.6
466.226	804.8
466.64	800.2
467.053	837.8
467.445	813.6
467.859	821.4
468.272	798.6
468.686	817
469.078	804.2
469.492	791
469.906	806
470.298	811
470.712	791.6
471.126	853.4
471.54	793.6
471.933	804.6
472.347	806
472.761	795.6
473.175	791.8
473.568	804.4
473.982	803.2
474.397	804.6
474.79	803.4
475.204	816.4
475.619	799.8
476.033	806.2
476.426	806.4
476.841	799
477.256	823
477.649	794.6
478.064	799
478.479	786.4
478.872	797.6
479.287	785
479.702	787.2
480.118	798.8
480.511	797.8
480.927	797.8
481.342	800
481.736	799.2
482.151	795
482.566	813.4
482.96	802.2
483.376	799
483.792	779.4
484.186	796
484.602	787.6
485.017	794.6
485.412	793.2
485.827	796.4
486.243	789.6
486.638	816.4
487.054	796.2
487.47	799.4
487.865	785.6
488.281	792.4
488.697	784.6
489.092	785.6
489.508	780.6
489.925	788.6
490.32	772.8
490.736	792.8
491.153	784.6
491.548	781.6
491.964	794.6
492.381	761.2
492.776	786.2
493.193	772.4
493.61	783.8
494.006	774.6
494.422	791.6
494.84	769
495.235	781.6
495.652	767.2
496.069	769.2
496.465	756.6
496.883	764.2
497.3	780.4
497.696	754.2
498.113	771.4
498.509	746.6
498.927	751.8
499.344	760.4
499.741	758.2
500.158	754.2
500.576	764.8
500.973	754.6
501.39	738
501.787	736.8
502.205	755.6
502.623	743.2
503.02	736.2
503.438	744.4
503.856	747.2
504.253	752.2
504.671	736.2
505.068	744.4
505.486	741.8
505.905	763.6
506.302	743.4
506.72	735.2
507.118	727
507.536	733
507.955	729.2
508.352	729.2
508.771	739.6
509.169	736.4
509.587	723.8
510.006	731.4
510.404	720.4
510.823	729.6
511.221	729.4
511.64	717.6
512.038	735
512.457	717.8
512.877	716
513.275	720.8
513.694	727.2
514.092	721.6
514.512	727.6
514.91	718.8
515.33	721.2
515.749	721.6
516.148	718.2
516.568	723.6
516.966	707
517.386	707.8
517.785	694.6
518.205	710.6
518.603	699.4
519.024	694.4
519.444	702.6
519.843	710.8
520.263	714.2
520.662	697.6
521.082	697.6
521.481	695.4
521.902	690.2
522.301	694.8
522.722	696.2
523.121	688.8
523.542	673.4
523.963	684.2
524.362	689.4
524.783	681.4
525.183	687
525.604	684.2
526.003	676.2
526.425	673.8
526.824	686.4
527.246	700.4
527.646	688.6
528.067	682.2
528.467	667.6
528.888	686.6
529.289	683.6
529.71	670.4
530.11	677.2
530.532	664.8
530.932	673.2
531.354	667.6
531.755	707.8
532.176	674.2
532.577	669.2
532.999	667
533.4	675.2
533.822	672.2
534.223	684.2
534.645	669.2
535.046	665.8
535.468	663.6
535.869	684.6
536.292	659
536.693	690.2
537.115	667.2
537.516	656
537.939	652.8
538.34	677.2
538.742	674
539.165	672
539.566	660.2
539.989	652.4
540.391	650.4
540.814	660.6
541.216	651.8
541.639	660.2
542.041	664.2
542.464	647.8
542.866	653.2
543.268	651
543.691	655.8
544.093	658.2
544.517	672.6
544.919	649
545.343	671.6
545.745	643.6
546.147	648.6
546.571	650.4
546.974	635
547.398	657.8
547.8	669
548.224	640.6
548.627	649.6
549.03	651.6
549.454	642.2
549.857	648.2
550.281	641.6
550.684	635.2
551.087	654.8
551.512	655.6
551.915	651
552.34	653.4
552.743	636.4
553.146	643
553.571	645.4
553.975	662.8
554.399	635.6
554.803	684
555.207	626.8
555.632	630.8
556.036	651.2
556.461	644
556.865	630.8
557.268	631.4
557.694	635.2
558.098	640.2
558.502	646.4
558.927	646
559.332	633
559.736	621.4
560.162	639.6
560.566	629.6
560.992	637.4
561.396	634.8
561.801	631.8
562.227	638.2
562.631	628.4
563.036	634.6
563.462	654.2
563.867	625.6
564.272	620.6
564.698	627
565.103	615.2
565.508	648.6
565.935	633.2
566.34	620.4
566.745	640.4
567.172	623.8
567.577	641
567.982	639.4
568.409	626.6
568.815	619
569.22	627.8
569.626	637.6
570.053	614.4
570.459	628.8
570.865	633.8
571.292	625.4
571.698	631.6
572.104	606.4
572.531	628
572.937	637.8
573.343	617
573.75	620.2
574.177	625.2
574.583	625.8
574.99	622.8
575.396	621.6
575.824	617
576.231	626.4
576.637	616.8
577.065	637.4
577.472	621
577.879	617.6
578.286	641.2
578.714	613
579.121	616.2
579.528	617.6
579.935	620.4
580.364	605.8
580.771	606
581.178	609.4
581.585	625
582.014	623
582.421	609.4
582.829	613.4
583.236	615
583.644	615.2
584.073	621.8
584.481	612
584.889	604.6
585.296	622.8
585.726	608
586.134	602
586.542	614
586.95	633
587.358	606
587.787	618.4
588.196	622
588.604	606.8
589.012	612.8
589.421	604.2
589.851	610.2
590.259	611.8
590.668	610.8
591.076	649.4
591.485	605
591.894	606
592.324	618.8
592.733	619.6
593.142	592
593.551	607.2
593.96	612.8
594.369	585.6
594.8	594
595.209	606
595.618	591.2
596.028	597.6
596.437	595.4
596.847	613.8
597.256	606.6
597.687	613
598.097	608.4
598.507	599.2
598.917	608.2
599.327	609.4
599.736	606.4
600.146	612.8
600.556	602
600.988	616.4
601.398	605.4
601.808	617.2
602.219	590.2
602.629	608
603.039	601.4
603.45	631.6
603.86	603.4
604.271	618.2
604.703	598.6
605.114	601.6
605.525	598
605.935	604.8
606.346	627.2
606.757	609.2
607.168	605.4
607.579	602
607.99	610
608.402	600
608.813	606
609.224	603.2
609.636	594.4
610.047	598.8
610.48	606.4
610.892	603.6
611.303	611.4
611.715	598
612.127	598.8
612.539	603
612.95	600.8
613.362	585
613.774	595.2
614.186	597.8
614.599	588.6
615.011	610.4
615.423	602.2
615.835	597.2
616.248	596.6
616.66	603
617.073	585
617.485	590.4
617.898	600
618.311	595.6
618.723	593.2
619.136	618.8
619.549	602.4
619.962	611
620.375	586.8
620.788	599.6
621.201	592.2
621.614	605
622.028	589.4
622.441	598
622.854	611.6
623.268	594.8
623.681	606.8
624.095	598.6
624.509	610.4
624.922	604.8
625.336	592.6
625.728	598.4
626.142	601
626.556	615
626.97	609
627.384	591.8
627.799	599.8
628.213	609.2
628.627	596.6
629.041	599.6
629.456	595.6
629.87	601
630.285	610.4
630.699	614.8
631.093	595.8
631.507	602.4
631.922	603.2
632.337	602.4
632.752	590.2
633.167	596.2
633.582	593
633.997	585.8
634.412	582.8
634.806	594.2
635.221	583.4
635.637	594.6
636.052	581.6
636.468	600.2
636.883	609.4
637.299	601
637.715	580.6
638.109	594.6
638.525	584.8
638.941	603.4
639.357	603.8
639.773	598.6
640.189	592.2
640.584	594
641	592.6
641.416	586.6
641.832	582
642.249	589.6
642.665	592.6
643.06	596.2
643.477	608.2
643.894	584.4
644.31	590.8
644.727	589
645.123	587.4
645.54	587.8
645.957	590.2
646.374	602.2
646.77	591.8
647.187	627.6
647.604	589.2
648.021	587
648.439	581.6
648.835	594.6
649.252	593.6
649.67	595
650.088	592.4
650.484	600
650.902	602.2
651.32	599.4
651.738	587.2
652.134	592
652.552	620.2
652.971	595.8
653.389	592
653.786	602.4
654.204	614.2
654.622	588.6
655.019	592.2
655.438	596
655.857	589.2
656.275	590.4
656.673	588
657.091	599.4
657.51	591.6
657.908	604.4
658.327	609
658.746	583.6
659.144	597.2
659.563	611.4
659.982	601.8
660.38	586.4
660.8	592.6
661.219	604.8
661.617	600.6
662.037	590.4
662.457	602.6
662.855	580.6
663.275	614
663.695	593.6
664.094	595
664.514	599.8
664.934	590.6
665.333	608.4
665.753	591.8
666.152	589.2
666.572	591
666.993	603.2
667.392	591.4
667.812	591.8
668.212	590.2
668.632	597.4
669.053	591.4
669.453	594.8
669.874	599.4
670.273	589.6
670.694	581.4
671.116	601.8
671.515	593.6
671.937	590.8
672.337	587.2
672.758	586
673.158	596.6
673.58	579
673.98	600.8
674.402	604.6
674.824	588.6
675.224	587.8
675.646	577
676.047	589.6
676.469	591.6
676.869	602.6
677.292	590.6
677.693	595.4
678.115	594.4
678.516	597.6
678.939	600
679.34	593
679.762	606
680.164	605
680.586	587
680.988	597
681.411	620.6
681.812	584.6
682.236	583.4
682.637	587
683.061	583.2
683.462	593
683.864	597.6
684.288	595.8
684.69	583
685.114	599.4
685.516	599.6
685.94	585.2
686.342	599.2
686.766	584.4
687.168	591.8
687.571	602.2
687.995	598.2
688.398	588
688.822	593.4
689.225	607
689.628	615.8
690.052	592.4
690.456	603.4
690.88	585.4
691.284	584
691.687	596.6
692.112	582.8
692.515	580.2
692.919	588.8
693.344	592
693.747	581.2
694.173	588.6
694.577	594.2
694.98	597.6
695.406	585.8
695.81	594.8
696.214	594.8
696.64	592
697.044	594.6
697.448	593.6
697.874	594.4
698.279	589.4
698.684	580.6
699.11	580.4
699.514	586
699.919	592.8
700.324	582
700.75	577.8
701.156	590.4
701.561	600.8
701.987	593.4
702.393	597.4
702.798	595.8
703.203	595.6
703.63	590.2
704.036	580.8
704.442	584.4
704.847	586.2
705.274	585.8
705.68	594.8
706.086	599.2
706.492	579.6
706.92	586
707.326	593.8
707.732	589.2
708.139	578.4
708.545	581.4
708.973	585.8
709.38	586.8
709.786	582.2
710.193	613.6
710.6	594.4
711.028	577.8
711.435	586.4
711.842	584.6
712.249	582.6
712.656	574.6
713.064	601.4
713.492	575.2
713.9	585.4
714.307	590
714.715	581
715.123	585
715.53	586.8
715.938	595.8
716.367	581.8
716.775	588.4
717.184	573.8
717.592	588.4
718	591.6
718.408	615.4
718.816	634
719.225	591
719.633	589.2
720.042	579.2
720.472	585.8
720.881	604
721.29	587.8
721.699	579.6
722.108	590
722.517	592.8
722.926	583.2
723.335	596.6
723.744	585.8
724.154	593
724.563	593
724.973	591.6
725.382	585.4
725.792	583
726.202	580
726.612	608.4
727.022	588.8
727.432	584.6
779.813	578
780.223	628.8
780.634	588
781.044	576.8
781.454	584.8
781.865	590.4
782.276	577.6
782.686	591.8
783.097	578.2
783.508	583.2
783.919	578.2
784.33	595
784.741	598.4
785.152	583.6
785.563	574.4
785.974	576.2
786.386	594.2
786.776	580.4
787.188	585.8
787.599	579.4
788.011	589.4
788.423	587.6
788.835	582.8
789.247	575.8
789.659	575.8
790.071	578
790.483	624.2
790.874	581.8
791.286	595.8
791.699	585.4
792.111	586.2
792.524	593.4
792.937	586.8
793.349	576.2
793.741	575.2
794.154	577.8
794.567	604.2
794.98	588.6
795.393	585.8
795.785	604.8
796.198	584.8
796.612	585.2
797.026	579.6
797.439	575
797.831	580.8
798.245	572
798.659	589
799.073	582.6
799.487	583
799.88	585.4
800.294	581.2
800.708	580.2
801.123	581.6
801.516	604.4
801.93	570
802.345	567.8
802.76	583.4
803.153	600.8
803.568	597.8
803.983	597.2
804.377	591.2
804.792	577
805.207	575.2
805.601	580.4
806.016	620.8
806.432	579.2
806.826	614.4
807.242	606.4
807.658	585.6
808.052	571.4
808.468	578
808.884	584.4
809.279	582.2
809.695	596.6
810.111	607.6
810.506	581.2
810.922	601.6
811.339	573.6
811.734	586.6
812.151	587.8
812.546	575.8
812.963	575.4
813.38	587.8
813.776	586
814.193	605.8
814.589	584.4
815.006	582.8
815.402	586.2
815.82	580.4
816.237	577.2
816.633	589.2
817.051	575.4
817.448	584.4
817.866	572.4
818.262	600.4
818.68	587.6
819.077	583.6
819.495	584
819.892	635
820.311	575
820.708	592.8
821.127	580.2
821.524	593.4
821.943	586.2
822.34	606.2
822.759	583.2
823.157	575.2
823.576	598.6
823.974	594.2
824.393	633.2
824.791	584.6
825.189	573.8
825.609	576.6
826.007	583
826.427	579.2
826.826	584.4
827.246	591.6
827.644	575.2
828.043	592.4
828.463	582.4
828.862	598.2
829.261	592.8
829.682	570.2
830.081	588.2
830.502	574.6
830.901	587.4
831.301	600.6
831.722	571.6
832.121	586.2
832.521	579.4
832.943	581
833.342	589.8
833.742	576.8
834.164	586.8
834.564	577.4
834.965	582.6
835.386	580.8
835.787	588
836.188	573
836.588	582.8
837.01	589.6
837.411	579.8
837.812	590.8
838.213	587.2
838.636	572.6
839.037	648.8
839.438	595
839.84	590
840.263	585.8
840.664	592.6
841.066	586
841.468	585.4
841.891	585.2
842.293	598.4
842.695	584
843.098	594.4
843.5	582.8
843.902	592.8
844.326	587.2
844.729	585
845.131	599
845.534	587.2
845.937	601.4
846.34	600.2
846.764	583.6
847.167	581.8
847.571	571.2
847.974	581.8
848.377	574
848.781	635.8
849.184	597.4
849.588	581.2
849.992	579.4
850.396	591.6
850.821	605
851.225	589.2
851.63	577.6
852.034	594.6
852.438	582.6
852.843	612
853.247	572.8
853.652	581.6
854.057	602.6
854.462	583.8
854.867	583.4
855.272	610.8
855.677	591.6
