#lambda/nm	C1
208.295	507.4
208.67	463.2
209.045	427.4
209.419	431
209.794	608.8
210.169	599.8
210.544	719.8
210.919	626
211.295	605.2
211.67	618.6
212.045	613.4
212.421	613.4
212.796	645.6
213.172	613.6
213.547	612.6
213.923	614.2
214.299	610
214.675	626.4
215.051	606.8
215.427	629.8
215.803	630.6
216.179	623
216.555	610.2
216.932	623.8
217.308	615.2
217.684	625.2
218.061	627.8
218.438	617.4
218.814	608.4
219.191	620.4
219.568	603
219.945	612.2
220.322	626.2
220.699	617.2
221.076	624
221.453	619.6
221.83	607.4
222.208	612
222.585	601.6
222.962	612.2
223.34	616.8
223.717	613
224.095	610
224.473	606.2
224.851	602.4
225.229	602.2
225.607	629.8
225.985	602.6
226.363	608.6
226.741	613
227.119	613.4
227.497	628.6
227.876	601.2
228.254	618.4
228.633	623.8
229.011	623.2
229.39	623
229.769	622
230.148	617
230.527	639
230.905	622.2
231.284	622.4
231.664	611.2
232.043	633.8
232.422	617
232.801	612.4
233.181	623.6
233.56	610.2
233.94	618.6
234.319	604.8
234.699	602.4
235.079	669.8
235.458	645.4
235.838	633
236.218	614.4
236.598	595.4
236.978	615
237.358	610
237.738	607.4
238.119	619.2
238.499	600.6
238.88	618.2
239.26	631.8
239.641	600.6
240.021	612.2
240.402	617.2
240.783	613
241.163	613.6
241.544	620.2
241.925	614.6
242.306	633.4
242.687	623.8
243.069	613.2
243.45	622.8
243.831	611.2
244.212	605.6
244.594	645.6
244.975	623.6
245.357	625.4
245.739	610.4
246.12	610
246.502	632
246.884	610
247.266	614.4
247.648	623.2
248.03	632.4
248.412	612.2
248.794	619.6
249.176	603.2
249.559	620.8
249.941	608.8
250.323	610.6
250.706	615
251.089	612.6
251.471	617.4
251.854	618.8
252.237	622.6
252.62	624
253.002	618.6
253.385	611.6
253.769	633.6
254.152	622.4
254.535	625.8
254.918	605.4
255.301	621.2
255.685	617.2
256.068	600.2
256.452	637.4
256.835	621.2
257.219	623.8
257.603	630.4
257.986	614
258.37	623.4
258.754	611.4
259.138	623.4
259.522	630.4
259.906	615.8
260.29	625.4
260.675	610.2
261.059	616.6
261.443	605.2
261.828	620.8
262.212	619.8
262.597	604.8
262.981	610.2
263.366	622.6
263.751	607.8
264.136	616
264.521	618.8
264.906	608.8
265.291	627.8
265.676	609.2
266.061	617
266.446	629
266.831	624.2
267.217	634.2
267.602	619
267.987	626.2
268.373	613.6
268.759	621.4
269.144	621.2
269.53	613.4
269.916	605.4
270.302	614.8
270.688	620.2
271.074	619
271.46	624.4
271.846	645.6
272.232	615.8
272.618	608.6
273.004	611.6
273.391	627.2
273.777	625.4
274.164	624
274.55	634.6
274.937	612.8
275.324	618.4
275.71	620.8
276.097	613.8
276.484	605
276.871	618.2
277.258	612.6
277.645	601.2
278.032	612.8
278.419	614.6
278.807	615.8
279.194	611.6
279.581	607.4
279.969	620
280.356	628
280.744	613
281.131	650.2
281.519	626.4
281.907	614.4
282.295	612
282.682	631.2
283.07	618
283.458	625.4
283.846	629
284.235	627.8
284.623	627.4
285.011	612
285.399	623.8
285.788	616.4
286.176	593
286.565	626.6
286.953	607.6
287.342	624
287.731	608
288.119	610
288.508	610.2
288.897	621.6
289.286	605.8
289.675	613.2
290.064	632
290.453	607.6
290.821	617
291.21	630.6
291.599	610.6
291.989	615.2
292.378	628.4
292.768	642.4
293.157	621.8
293.547	629.2
293.936	628.4
294.326	608
294.716	624.2
295.106	612.4
295.496	628.6
295.886	623.6
296.276	611.4
296.666	608.2
297.056	600
297.446	605.2
297.836	630.6
298.227	615.8
298.617	620.8
299.008	630.8
299.398	609.6
299.789	612.2
300.179	621.2
300.57	628.4
300.961	611.4
301.352	621.8
301.742	625
302.133	612
302.524	615.8
302.915	613.4
303.307	612
303.698	625
304.089	621.2
304.48	612.2
304.872	623.4
305.263	625.6
305.655	606.2
306.046	628.2
306.438	614.6
306.829	624
307.221	634
307.613	620.8
308.005	623.8
308.397	627.6
308.789	635
309.181	645.6
309.573	632.8
309.965	623.2
310.357	623
310.749	632.6
311.142	611.8
311.534	611.6
311.926	629.2
312.319	623.4
312.711	618.2
313.104	637.6
313.497	611.8
313.889	651
314.282	637.4
314.675	652
315.068	617.2
315.461	626.4
315.854	641.6
316.247	626.6
316.64	622.4
317.033	620.4
317.405	631.6
317.798	616.6
318.192	618
318.585	617.2
318.979	621.4
319.372	607
319.766	611.6
320.16	622.2
320.553	634.6
320.947	647.4
321.341	613.4
321.735	622
322.129	604
322.523	634.4
322.917	600.2
323.311	628.8
323.705	624.4
324.099	632.6
324.494	632.4
324.888	624.8
325.282	610.4
325.677	627.6
326.071	624.4
326.466	629
326.861	619.6
327.255	630.8
327.65	625
328.045	635.8
328.44	617.8
328.835	620
329.23	613.8
329.625	641.4
330.02	615.2
330.415	639
330.81	619.6
331.206	621.2
331.601	615
331.996	627.8
332.37	639.2
332.766	599.2
333.161	640.8
333.557	617.8
333.953	617
334.348	1044.4
334.744	625.2
335.14	612
335.536	606
335.932	632
336.328	620.6
336.724	623.4
337.12	622.4
337.516	620.2
337.913	608.2
338.309	622.2
338.705	611.6
339.102	625.2
339.498	611.4
339.895	629.2
340.291	609.4
340.688	630.2
341.085	612.4
341.481	612.6
341.878	615.8
342.275	634.4
342.672	607.2
343.069	614.2
343.466	603.8
343.842	620.4
344.239	620.2
344.636	618.4
345.033	611
345.431	604
345.828	620.4
346.225	617.8
346.623	644
347.02	622
347.418	623
347.816	635
348.213	606.4
348.611	616.8
349.009	607.4
349.407	630.8
349.805	601.6
350.203	605
350.601	631
350.999	615.8
351.397	680.8
351.795	614.6
352.193	626.8
352.57	622.4
352.969	627.6
353.367	601.6
353.766	609.4
354.164	620.2
354.563	623.2
354.961	615.6
355.36	608.4
355.759	613.6
356.158	604.4
356.557	613.6
356.956	608
357.355	594.6
357.754	630.8
358.153	620
358.552	635.4
358.951	617
359.35	625.8
359.75	602.8
360.149	597.2
360.527	598.2
360.926	606.2
361.326	612.6
361.726	606.2
362.125	609.8
362.525	609.8
362.925	609
363.325	619
363.724	610.6
364.124	605
364.524	598.2
364.924	614
365.324	623.8
365.725	596.2
366.125	612.8
366.525	612
366.904	603.6
367.304	593.2
367.705	627.2
368.105	618.2
368.506	611
368.906	606.4
369.307	605.2
369.708	614.8
370.108	596
370.509	612
370.91	599.4
371.311	612.8
371.712	610.2
372.113	607.6
372.514	596.6
372.894	608
373.295	597.6
373.696	615
374.097	620.6
374.499	632.2
374.9	607.2
375.301	598
375.703	603
376.105	596
376.506	613.2
376.908	610.4
377.309	621.8
377.711	607.8
378.113	602.4
378.493	603.8
378.895	601.8
379.297	623
379.699	603.4
380.102	624.2
380.504	620.4
380.906	610.4
381.308	632.4
381.71	616.4
382.113	610
382.515	620
382.918	609.4
383.299	613.6
383.701	624.8
384.104	609.4
384.507	590
384.909	609.8
385.312	613.2
385.715	602.8
386.118	603.8
386.521	594.6
386.924	621
387.327	611.2
387.709	594.4
388.112	587.2
388.515	605.8
388.918	614
389.322	612.8
389.725	601.8
390.129	629
390.532	615.4
390.936	605.4
391.339	600.4
391.743	606.2
392.125	605.4
392.529	607.6
392.933	616.8
393.337	615.6
393.74	602.4
394.144	604.6
394.548	598.4
394.953	600.2
395.357	609.6
395.761	600.8
396.144	603.4
396.548	613.6
396.952	598.8
397.357	608.4
397.761	594.6
398.166	601.2
398.57	602.6
398.975	593.6
399.379	613.4
399.763	659.8
400.168	608.6
400.572	598
400.977	614.4
401.382	624.2
401.787	615.2
402.192	621.6
402.597	630.2
403.002	595.4
403.386	618
403.791	623
404.197	607.4
404.602	605.2
405.007	606.6
405.413	612
405.818	613.4
406.224	605.6
406.608	607.4
407.014	602
407.42	613
407.825	595.8
408.231	620
408.637	615.4
409.043	620.2
409.449	602.6
409.834	591.6
410.24	608
410.646	628
411.052	624.6
411.458	615.4
411.865	617.2
412.271	618
412.677	615.2
413.062	615.6
413.469	601.8
413.875	641
414.282	615
414.689	613.2
415.095	607.2
415.502	598.4
415.888	611.8
416.294	593.6
416.701	646.4
417.108	603.6
417.515	610.4
417.923	611.8
418.33	625.6
418.715	605
419.123	613
419.53	605.4
419.937	610.2
420.345	626.6
420.752	604
421.16	611.2
421.546	608
421.953	614.6
422.361	591.6
422.769	613
423.177	609.2
423.585	631
423.992	629.6
424.379	623.6
424.787	618
425.195	627.2
425.603	599.8
426.011	622.4
426.419	623.2
426.806	614.4
427.214	611.2
427.623	625.6
428.031	629.6
428.44	619
428.848	629.8
429.235	636.6
429.644	616
430.053	609.8
430.461	637.6
430.87	656
431.279	645
431.666	625.4
432.075	648.8
432.484	648.2
432.893	644.6
433.302	665
433.711	695.2
434.099	665.8
434.508	670.4
434.918	673.2
435.327	693.4
435.737	691.4
436.125	690.2
436.534	712.6
436.944	716.6
437.353	722
437.763	758.4
438.173	734.8
438.561	752.4
438.971	733.6
439.381	744.8
439.791	765.4
440.201	741.6
440.589	776
440.999	784.2
441.409	791.6
441.819	783.4
442.23	809
442.619	816.4
443.029	811.6
443.439	819.2
443.85	830
444.26	839.4
444.649	848.8
445.06	829.4
445.471	819.6
445.881	846.8
446.292	850.8
446.682	861.8
447.092	838.2
447.503	902
447.914	860
448.325	852.6
448.715	865.4
449.126	854.4
449.537	884.8
449.948	863.8
450.338	879.6
450.75	878.6
451.161	881.2
451.572	881
451.984	874.2
452.374	863.8
452.786	880
453.197	884.2
453.609	888.4
453.999	869
454.411	878.4
454.823	896.6
455.235	883.6
455.647	882.2
456.037	894
456.449	888.8
456.862	883.8
457.274	897.4
457.665	885
458.077	892
458.489	922.6
458.902	883.6
459.293	882
459.705	887.8
460.118	882.4
460.53	885.6
460.921	887.6
461.334	894.2
461.747	887.4
462.16	893.4
462.551	898.2
462.964	898
463.377	872.6
463.79	891
464.182	902.8
464.595	895.4
465.008	906.4
465.421	901.8
465.813	904.4
466.226	894.2
466.64	881.8
467.053	934
467.445	903.8
467.859	915.8
468.272	881.6
468.686	905.2
469.078	881
469.492	886
469.906	886.6
470.298	893.4
470.712	882.4
471.126	928.6
471.54	871.8
471.933	874.6
472.347	882.2
472.761	872.6
473.175	875.2
473.568	883
473.982	881
474.397	884.2
474.79	878.2
475.204	889.6
475.619	869.6
476.033	892
476.426	882.4
476.841	861.8
477.256	910.2
477.649	871.4
478.064	859
478.479	857.4
478.872	865.6
479.287	852.4
479.702	854.6
480.118	870.8
480.511	858
480.927	860.6
481.342	855.4
481.736	869.6
482.151	851.2
482.566	857.8
482.96	856.8
483.376	867.8
483.792	842.6
484.186	847.4
484.602	857.6
485.017	849
485.412	857.4
485.827	849
486.243	847.2
486.638	869.4
487.054	847.2
487.47	852.6
487.865	837.8
488.281	835.8
488.697	835.4
489.092	849
489.508	827.2
489.925	842.6
490.32	807
490.736	838
491.153	821.2
491.548	823
491.964	836.4
492.381	804.8
492.776	824.8
493.193	819.2
493.61	818.2
494.006	814
494.422	822.6
494.84	804.8
495.235	821.4
495.652	807.4
496.069	809.6
496.465	797.8
496.883	794.8
497.3	829.2
497.696	799.4
498.113	797.8
498.509	788
498.927	790.6
499.344	792
499.741	782.6
500.158	795.2
500.576	795.2
500.973	794.6
501.39	781.6
501.787	767.4
502.205	789.8
502.623	779.8
503.02	773.2
503.438	769.6
503.856	765.4
504.253	777.8
504.671	776.6
505.068	760.2
505.486	768
505.905	779.4
506.302	763.6
506.72	761.8
507.118	753.8
507.536	761.4
507.955	748.2
508.352	765.6
508.771	766.2
509.169	759
509.587	736.4
510.006	748.4
510.404	748.4
510.823	742.6
511.221	737.6
511.64	738.2
512.038	755.2
512.457	736.8
512.877	746.2
513.275	728.4
513.694	733
514.092	738
514.512	738.6
514.91	742.6
515.33	727.6
515.749	730.2
516.148	724.6
516.568	730.8
516.966	730.2
517.386	714
517.785	716
518.205	712.2
518.603	709
519.024	715.4
519.444	716.6
519.843	722.4
520.263	720
520.662	717.8
521.082	707.8
521.481	714.2
521.902	718.4
522.301	707
522.722	700.2
523.121	709.6
523.542	705.2
523.963	716
524.362	695
524.783	705.8
525.183	702.8
525.604	707.2
526.003	697.8
526.425	696.2
526.824	708.8
527.246	709
527.646	706
528.067	697.6
528.467	696.2
528.888	692.4
529.289	695.8
529.71	686.4
530.11	678.2
530.532	682.2
530.932	680.8
531.354	676.4
531.755	720.8
532.176	697
532.577	687.8
532.999	685.8
533.4	670
533.822	697.6
534.223	680.8
534.645	679.6
535.046	681.4
535.468	682.6
535.869	690.6
536.292	667.2
536.693	703.2
537.115	676.2
537.516	661.6
537.939	671
538.34	689.4
538.742	684.6
539.165	668.6
539.566	666.2
539.989	657.4
540.391	663.8
540.814	677.2
541.216	677
541.639	667.4
542.041	672.4
542.464	662
542.866	652.8
543.268	657.2
543.691	667.2
544.093	667.6
544.517	684.2
544.919	654
545.343	687.8
545.745	663.8
546.147	664.8
546.571	662
546.974	652.2
547.398	660.2
547.8	663.4
548.224	656
548.627	651
549.03	662.4
549.454	652
549.857	647.8
550.281	642.6
550.684	652.2
551.087	658.2
551.512	651.4
551.915	653.8
552.34	645.8
552.743	646
553.146	646.4
553.571	639.4
553.975	666.6
554.399	649.2
554.803	691
555.207	643.6
555.632	640.4
556.036	645.4
556.461	638.8
556.865	641.4
557.268	643
557.694	642.2
558.098	648
558.502	642.6
558.927	640.2
559.332	651
559.736	633.4
560.162	654.8
560.566	634.8
560.992	638.8
561.396	638
561.801	632.4
562.227	634.6
562.631	632
563.036	632.2
563.462	645.2
563.867	633.6
564.272	611.4
564.698	623.4
565.103	624.4
565.508	649.8
565.935	635.6
566.34	629.6
566.745	635.6
567.172	624.8
567.577	648.4
567.982	646.6
568.409	638.8
568.815	624.8
569.22	628.8
569.626	638.2
570.053	612.6
570.459	633.2
570.865	640
571.292	632.4
571.698	631.8
572.104	617.4
572.531	615.8
572.937	639.6
573.343	628.4
573.75	624.6
574.177	626.2
574.583	633
574.99	624
575.396	625.2
575.824	623.6
576.231	627.8
576.637	623.6
577.065	646
577.472	610.2
577.879	620
578.286	634.4
578.714	618
579.121	614.8
579.528	623.8
579.935	628.6
580.364	619.2
580.771	616.6
581.178	621.2
581.585	622.6
582.014	626.2
582.421	611.8
582.829	611.4
583.236	623.2
583.644	610.4
584.073	613.2
584.481	616.4
584.889	609.4
585.296	629.4
585.726	619
586.134	602.6
586.542	606.2
586.95	633
587.358	607
587.787	615.4
588.196	624.6
588.604	607
589.012	608.6
589.421	593
589.851	593.4
590.259	610.6
590.668	603.8
591.076	649
591.485	606.2
591.894	605.2
592.324	611.8
592.733	618.2
593.142	593
593.551	601.6
593.96	618.8
594.369	602.4
594.8	598.8
595.209	609.4
595.618	588.6
596.028	599.4
596.437	595.2
596.847	611
597.256	604.4
597.687	604
598.097	611.6
598.507	599.2
598.917	614
599.327	610
599.736	617.4
600.146	617.2
600.556	610.2
600.988	621.8
601.398	598.6
601.808	611
602.219	598.6
602.629	607.6
603.039	607
603.45	628.8
603.86	601.4
604.271	625.2
604.703	605.2
605.114	600
605.525	600
605.935	613.2
606.346	621.6
606.757	597
607.168	599
607.579	593.2
607.99	610.8
608.402	602.8
608.813	593
609.224	597.2
609.636	589
610.047	597.4
610.48	600.2
610.892	604.4
611.303	607.6
611.715	594.8
612.127	594.4
612.539	592.4
612.95	594
613.362	585
613.774	586.2
614.186	601.4
614.599	595.6
615.011	607.6
615.423	602.2
615.835	591.2
616.248	590.2
616.66	612.4
617.073	596.4
617.485	607
617.898	610.8
618.311	603.2
618.723	593.8
619.136	625.6
619.549	615.2
619.962	622
620.375	600.6
620.788	604
621.201	591
621.614	597
622.028	596.4
622.441	599.2
622.854	617.2
623.268	596.4
623.681	599.2
624.095	600.2
624.509	607.6
624.922	600.6
625.336	589.2
625.728	598.4
626.142	610.4
626.556	618.4
626.97	596.8
627.384	597
627.799	593.4
628.213	604.6
628.627	596.6
629.041	587.2
629.456	592
629.87	597.6
630.285	607.4
630.699	610.2
631.093	588.6
631.507	608.2
631.922	603.2
632.337	615.4
632.752	587.6
633.167	597.2
633.582	592.8
633.997	587
634.412	581.8
634.806	590
635.221	576.2
635.637	604.8
636.052	585.6
636.468	604.6
636.883	609.6
637.299	591.2
637.715	587.4
638.109	590.6
638.525	583.2
638.941	610.4
639.357	589
639.773	602.6
640.189	592.4
640.584	588.4
641	595.8
641.416	580.4
641.832	598.2
642.249	586.4
642.665	593.4
643.06	601.8
643.477	598.6
643.894	585.4
644.31	591.8
644.727	597.4
645.123	593.4
645.54	585.2
645.957	601.6
646.374	602
646.77	587.6
647.187	619
647.604	598.6
648.021	591.6
648.439	586.6
648.835	594.2
649.252	600.2
649.67	592.8
650.088	590.2
650.484	597.2
650.902	601
651.32	600.4
651.738	594.6
652.134	590
652.552	609.6
652.971	602.4
653.389	581.6
653.786	607
654.204	616.2
654.622	592.8
655.019	589.4
655.438	589
655.857	595.2
656.275	591.4
656.673	580.8
657.091	603.2
657.51	585.2
657.908	597.8
658.327	608.6
658.746	573
659.144	591.2
659.563	602.4
659.982	594.6
660.38	577.8
660.8	610.2
661.219	596.2
661.617	587
662.037	589.6
662.457	608.4
662.855	581.6
663.275	622.4
663.695	594.4
664.094	588.6
664.514	598.4
664.934	587.8
665.333	597.4
665.753	585.6
666.152	588.4
666.572	585.8
666.993	599
667.392	588.6
667.812	590
668.212	590
668.632	605.8
669.053	586
669.453	596.6
669.874	596.6
670.273	595
670.694	582
671.116	601.4
671.515	603.6
671.937	587
672.337	582.4
672.758	583.4
673.158	609.2
673.58	587.8
673.98	586
674.402	605
674.824	589.8
675.224	584.4
675.646	584.2
676.047	588
676.469	591.8
676.869	602
677.292	594.6
677.693	585.6
678.115	585.4
678.516	586.4
678.939	588.6
679.34	592
679.762	595.8
680.164	594.2
680.586	581.4
680.988	599.2
681.411	612.8
681.812	592
682.236	578.4
682.637	577.2
683.061	584.2
683.462	597
683.864	584.6
684.288	595.6
684.69	582.2
685.114	596.2
685.516	588.6
685.94	579.6
686.342	593.8
686.766	582.6
687.168	583.2
687.571	598.4
687.995	588.8
688.398	576.8
688.822	578.8
689.225	597
689.628	609.4
690.052	588.6
690.456	590.6
690.88	590.2
691.284	581.8
691.687	588.4
692.112	578.8
692.515	579.8
692.919	590.4
693.344	594.4
693.747	582.2
694.173	589.6
694.577	606.2
694.98	587.2
695.406	581.4
695.81	585.4
696.214	590.8
696.64	595.6
697.044	593.8
697.448	594.2
697.874	595
698.279	586.8
698.684	574.6
699.11	579.2
699.514	582.8
699.919	581.6
700.324	589.4
700.75	585.8
701.156	592.6
701.561	595.8
701.987	589
702.393	604.2
702.798	590.8
703.203	580.2
703.63	588
704.036	581.4
704.442	590.4
704.847	572.8
705.274	587.2
705.68	591.2
706.086	593.2
706.492	578.2
706.92	585.8
707.326	594.8
707.732	581
708.139	583.2
708.545	575.6
708.973	576.6
709.38	577.8
709.786	568
710.193	599.6
710.6	589.8
711.028	575.6
711.435	591.2
711.842	585.6
712.249	578
712.656	589
713.064	597.4
713.492	571.4
713.9	589.6
714.307	581.6
714.715	596.4
715.123	591
715.53	590.8
715.938	600
716.367	584.4
716.775	589.8
717.184	578.8
717.592	578.4
718	600
718.408	624
718.816	632.4
719.225	588.4
719.633	590
720.042	583.2
720.472	590.4
720.881	611.8
721.29	586.2
721.699	571.2
722.108	591.2
722.517	590.2
722.926	581.6
723.335	600.2
723.744	586.6
724.154	590
724.563	592
724.973	580
725.382	583.2
725.792	583.4
726.202	575.2
726.612	607.2
727.022	587
727.432	575.2
779.813	572.6
780.223	623.8
780.634	583
781.044	576.6
781.454	587.8
781.865	596
782.276	571.8
782.686	596.2
783.097	583
783.508	578.2
783.919	591.8
784.33	603
784.741	592.2
785.152	579
785.563	568.6
785.974	581.6
786.386	605
786.776	584.6
787.188	587.6
787.599	573.8
788.011	588.8
788.423	581.8
788.835	571.8
789.247	573.6
789.659	583.6
790.071	577.2
790.483	628
790.874	583.2
791.286	593.4
791.699	581.6
792.111	584.2
792.524	587
792.937	590
793.349	577.4
793.741	581.2
794.154	582.2
794.567	602.2
794.98	585
795.393	569.4
795.785	599.2
796.198	569.8
796.612	586.6
797.026	580.8
797.439	565.2
797.831	587.8
798.245	576.8
798.659	591.2
799.073	582.6
799.487	579.2
799.88	586.8
800.294	589
800.708	586
801.123	588.8
801.516	601.2
801.93	577.6
802.345	566.2
802.76	591.4
803.153	600.2
803.568	588
803.983	587.4
804.377	591.6
804.792	572.8
805.207	572
805.601	586.4
806.016	618.8
806.432	581.2
806.826	612.2
807.242	588
807.658	590.8
808.052	572.4
808.468	579.6
808.884	580.6
809.279	582
809.695	597.4
810.111	596
810.506	588.6
810.922	607
811.339	583.2
811.734	590.6
812.151	582.8
812.546	588.2
812.963	578.6
813.38	592.4
813.776	586.6
814.193	604.4
814.589	574.6
815.006	585.2
815.402	580
815.82	585
816.237	582
816.633	582.4
817.051	577.6
817.448	587.2
817.866	577.6
818.262	608.2
818.68	580
819.077	580.6
819.495	592.2
819.892	629.2
820.311	582.4
820.708	576.6
821.127	574.2
821.524	587
821.943	586.6
822.34	597.8
822.759	589.8
823.157	579.6
823.576	593.8
823.974	593
824.393	616.6
824.791	580
825.189	583.6
825.609	581.2
826.007	582.6
826.427	571.8
826.826	583.6
827.246	586.4
827.644	564.2
828.043	599.2
828.463	579.8
828.862	587.2
829.261	588.2
829.682	568.4
830.081	583.4
830.502	573.8
830.901	584.6
831.301	592.6
831.722	568.6
832.121	579.4
832.521	572.2
832.943	578.8
833.342	579.8
833.742	578.4
834.164	574.8
834.564	569.6
834.965	571.2
835.386	572.2
835.787	577.8
836.188	574.4
836.588	579
837.01	580.4
837.411	575.2
837.812	585.6
838.213	590.2
838.636	571.8
839.037	652
839.438	582.4
839.84	595.8
840.263	588.4
840.664	585.2
841.066	580.4
841.468	580.8
841.891	580.4
842.293	592.8
842.695	582.2
843.098	597.6
843.5	577.2
843.902	588.8
844.326	587.6
844.729	579.4
845.131	592.8
845.534	590.6
845.937	598.8
846.34	601
846.764	573.8
847.167	588.8
847.571	577
847.974	586.4
848.377	578.2
848.781	629.2
849.184	597.2
849.588	577.2
849.992	590
850.396	581.4
850.821	606
851.225	582.8
851.63	578.8
852.034	596.4
852.438	581
852.843	662.6
853.247	570
853.652	570.6
854.057	598.6
854.462	580.2
854.867	585
855.272	606.2
855.677	584.4
856.082	573
856.487	562
856.893	582.6
