#lambda/nm	C1
208.295	508
208.67	470.6
209.045	431.6
209.419	425.6
209.794	611.4
210.169	601.4
210.544	721.8
210.919	615.4
211.295	610.2
211.67	617.2
212.045	614.8
212.421	613.8
212.796	651.4
213.172	600.8
213.547	604.4
213.923	613.8
214.299	611.4
214.675	625
215.051	617.6
215.427	622.6
215.803	630.6
216.179	616
216.555	596.2
216.932	620
217.308	616.4
217.684	619.8
218.061	619.8
218.438	617.8
218.814	608
219.191	609.6
219.568	612.6
219.945	612.8
220.322	616.6
220.699	615.6
221.076	619.6
221.453	628.4
221.83	602.2
222.208	607.6
222.585	611
222.962	624
223.34	618.8
223.717	618
224.095	616.4
224.473	619
224.851	608.8
225.229	608.2
225.607	639
225.985	602
226.363	613.4
226.741	623.2
227.119	611.2
227.497	618
227.876	607.8
228.254	617
228.633	623
229.011	625.4
229.39	619
229.769	613.4
230.148	620
230.527	625
230.905	623.6
231.284	621.2
231.664	611.2
232.043	625
232.422	627.4
232.801	605.2
233.181	615.2
233.56	614.6
233.94	614.8
234.319	594
234.699	610
235.079	651.2
235.458	656
235.838	623.2
236.218	601.6
236.598	612.6
236.978	614.2
237.358	605.8
237.738	608.4
238.119	617.2
238.499	606.8
238.88	608.8
239.26	633.8
239.641	600.4
240.021	619.2
240.402	612
240.783	611.2
241.163	607
241.544	617.8
241.925	616.2
242.306	627.2
242.687	622.8
243.069	614
243.45	623.2
243.831	604.2
244.212	613.8
244.594	649.2
244.975	616.8
245.357	613.4
245.739	606.4
246.12	618.6
246.502	631.2
246.884	615
247.266	612.8
247.648	618.4
248.03	630.2
248.412	610.8
248.794	619
249.176	609.2
249.559	624.8
249.941	603.4
250.323	602.8
250.706	608.6
251.089	618.2
251.471	610.4
251.854	614.2
252.237	605.2
252.62	623
253.002	613.6
253.385	607.6
253.769	629.2
254.152	612
254.535	613
254.918	607.4
255.301	613.2
255.685	614.8
256.068	607.6
256.452	630
256.835	617.4
257.219	612.4
257.603	628
257.986	595.8
258.37	615.6
258.754	606.6
259.138	618
259.522	631.2
259.906	611.4
260.29	621.6
260.675	609.6
261.059	615
261.443	602.4
261.828	619.4
262.212	621.4
262.597	602.4
262.981	613.6
263.366	623.6
263.751	615
264.136	607.4
264.521	605.2
264.906	605
265.291	632.6
265.676	609.4
266.061	630.6
266.446	629.8
266.831	615.2
267.217	634.8
267.602	618.4
267.987	615.8
268.373	611.2
268.759	626.6
269.144	620.6
269.53	615.2
269.916	615
270.302	616.8
270.688	618.6
271.074	614.8
271.46	632.8
271.846	649.6
272.232	619.2
272.618	607.4
273.004	618.6
273.391	628.2
273.777	631
274.164	625.6
274.55	627.6
274.937	615.6
275.324	614.6
275.71	624.6
276.097	616.4
276.484	610.8
276.871	618.4
277.258	626.2
277.645	601.8
278.032	603.8
278.419	608
278.807	620.6
279.194	607
279.581	609
279.969	614.4
280.356	617
280.744	622.4
281.131	647.2
281.519	636
281.907	609
282.295	608
282.682	626.4
283.07	616.2
283.458	627.2
283.846	624.4
284.235	633
284.623	624.2
285.011	609.4
285.399	617.8
285.788	616.6
286.176	606.4
286.565	635.8
286.953	608.4
287.342	604.6
287.731	604.8
288.119	609.8
288.508	617.6
288.897	620.2
289.286	606
289.675	619.6
290.064	625.2
290.453	614.8
290.821	618.8
291.21	633.6
291.599	611.8
291.989	621.8
292.378	625.4
292.768	624.4
293.157	614.4
293.547	622.8
293.936	616.2
294.326	606.2
294.716	614
295.106	614.4
295.496	624
295.886	623.4
296.276	616.6
296.666	611.8
297.056	608.2
297.446	605.8
297.836	624.8
298.227	608.8
298.617	624.2
299.008	628.4
299.398	618
299.789	609.8
300.179	616.4
300.57	631
300.961	607.4
301.352	613.4
301.742	613.6
302.133	611.8
302.524	617.2
302.915	612.4
303.307	599.8
303.698	616.4
304.089	623.4
304.48	616.6
304.872	613
305.263	610
305.655	621.8
306.046	618.4
306.438	616.2
306.829	614.6
307.221	630.6
307.613	622.8
308.005	628.6
308.397	632.4
308.789	640.2
309.181	646
309.573	636.4
309.965	627.4
310.357	624.4
310.749	623.6
311.142	615.2
311.534	615.2
311.926	625
312.319	623
312.711	608.8
313.104	623
313.497	611.6
313.889	651.2
314.282	625.8
314.675	642.8
315.068	616
315.461	615.4
315.854	639.6
316.247	628.2
316.64	626.2
317.033	613
317.405	627
317.798	616.8
318.192	614
318.585	607
318.979	622.2
319.372	608.6
319.766	618.6
320.16	634
320.553	626.2
320.947	625.8
321.341	619.2
321.735	620
322.129	603.8
322.523	640.8
322.917	610
323.311	630.4
323.705	625
324.099	621.6
324.494	628.8
324.888	626.6
325.282	617.2
325.677	628.2
326.071	625.8
326.466	629
326.861	616.2
327.255	631
327.65	632.8
328.045	640
328.44	625
328.835	631
329.23	616.2
329.625	630.2
330.02	604.2
330.415	629.2
330.81	616.8
331.206	622
331.601	602.6
331.996	627
332.37	645.8
332.766	602.8
333.161	636.2
333.557	606.6
333.953	616
334.348	895
334.744	613
335.14	611.2
335.536	617
335.932	625
336.328	619.6
336.724	629.4
337.12	615.8
337.516	618.6
337.913	616
338.309	639.2
338.705	615.6
339.102	629.8
339.498	613.4
339.895	626.8
340.291	616.2
340.688	633.2
341.085	600.6
341.481	625.4
341.878	614.8
342.275	636.6
342.672	611
343.069	604.2
343.466	588.8
343.842	623.8
344.239	615.8
344.636	616.8
345.033	608.8
345.431	606.8
345.828	612.6
346.225	599
346.623	649.4
347.02	608.4
347.418	614.4
347.816	628.4
348.213	606
348.611	620.8
349.009	605.2
349.407	622.6
349.805	602.8
350.203	602.2
350.601	623.8
350.999	606.8
351.397	667.8
351.795	611.4
352.193	628.4
352.57	616.4
352.969	618.4
353.367	601.4
353.766	602.8
354.164	612
354.563	617.2
354.961	609.4
355.36	609.2
355.759	610.6
356.158	597.6
356.557	600.8
356.956	596
357.355	598
357.754	613.4
358.153	614.8
358.552	639
358.951	615.4
359.35	630.4
359.75	606.6
360.149	613.4
360.527	598.4
360.926	600.4
361.326	621.2
361.726	608
362.125	613.4
362.525	618
362.925	607.8
363.325	613.8
363.724	609.2
364.124	602.4
364.524	607.4
364.924	608
365.324	631.4
365.725	597
366.125	614.4
366.525	610
366.904	604
367.304	595.2
367.705	628
368.105	621.4
368.506	613.4
368.906	602.8
369.307	597.6
369.708	614
370.108	595.4
370.509	614.2
370.91	599
371.311	609.8
371.712	614.8
372.113	608.4
372.514	596.4
372.894	600.8
373.295	602.4
373.696	615.4
374.097	623.4
374.499	641.8
374.9	615.6
375.301	600.4
375.703	621.2
376.105	603.8
376.506	614.4
376.908	614
377.309	612.6
377.711	608
378.113	609.8
378.493	613
378.895	601.2
379.297	619.2
379.699	595.4
380.102	608.8
380.504	612.4
380.906	601
381.308	635.6
381.71	606.4
382.113	623.2
382.515	599.8
382.918	615.2
383.299	601.6
383.701	610
384.104	617.2
384.507	594.4
384.909	603.6
385.312	592.4
385.715	592.6
386.118	603.8
386.521	602.6
386.924	615.6
387.327	595.2
387.709	599.4
388.112	601.2
388.515	607.6
388.918	613.4
389.322	610
389.725	605.8
390.129	623
390.532	607.2
390.936	606.2
391.339	594.4
391.743	607.8
392.125	603
392.529	617
392.933	615
393.337	607.2
393.74	602.2
394.144	605.2
394.548	601.4
394.953	598
395.357	613.4
395.761	602.2
396.144	604.6
396.548	608.4
396.952	604.8
397.357	610.6
397.761	606.8
398.166	603.2
398.57	610.8
398.975	585.4
399.379	604
399.763	658.2
400.168	606
400.572	603
400.977	605.4
401.382	628.2
401.787	614.8
402.192	619.2
402.597	622.6
403.002	592.4
403.386	619.4
403.791	627.4
404.197	606.2
404.602	612.2
405.007	598.8
405.413	603.6
405.818	604.8
406.224	602.6
406.608	599.2
407.014	600.6
407.42	621.8
407.825	594.6
408.231	617.6
408.637	604.4
409.043	626.2
409.449	605.8
409.834	604.4
410.24	607.4
410.646	623.8
411.052	617.4
411.458	605
411.865	612.2
412.271	612.6
412.677	610.4
413.062	614.8
413.469	599.8
413.875	628.8
414.282	623
414.689	611.6
415.095	612.8
415.502	601
415.888	603
416.294	596.6
416.701	653
417.108	603
417.515	611.8
417.923	608.6
418.33	630.6
418.715	622
419.123	609.4
419.53	600.6
419.937	609.6
420.345	625
420.752	604.6
421.16	618.2
421.546	607.4
421.953	616.4
422.361	599.8
422.769	607.6
423.177	602.8
423.585	639
423.992	631.4
424.379	624.2
424.787	618.8
425.195	627
425.603	616.8
426.011	621.8
426.419	615.6
426.806	613.8
427.214	621
427.623	621.2
428.031	631.4
428.44	610.2
428.848	617.8
429.235	624.8
429.644	611.4
430.053	606.2
430.461	623.4
430.87	635.6
431.279	616.4
431.666	609.2
432.075	613
432.484	618
432.893	616.8
433.302	635.4
433.711	657.6
434.099	621.6
434.508	615.8
434.918	612.2
435.327	632.2
435.737	626.6
436.125	628.8
436.534	637
436.944	627.8
437.353	639.2
437.763	662.6
438.173	637.6
438.561	652.2
438.971	641
439.381	647
439.791	660.4
440.201	633.8
440.589	666.6
440.999	669.4
441.409	663.4
441.819	651.6
442.23	680.6
442.619	694.6
443.029	681.2
443.439	676.8
443.85	688.4
444.26	707.4
444.649	707.6
445.06	694.4
445.471	688.4
445.881	697
446.292	728.4
446.682	724.8
447.092	695
447.503	756.4
447.914	720.6
448.325	714.8
448.715	710.6
449.126	709.8
449.537	729.6
449.948	709.6
450.338	729.4
450.75	740.2
451.161	721.4
451.572	740.8
451.984	729.6
452.374	707.6
452.786	729.8
453.197	739.8
453.609	750
453.999	725.2
454.411	724.2
454.823	747.4
455.235	739.8
455.647	735
456.037	744.4
456.449	718.2
456.862	736.6
457.274	748.2
457.665	733.8
458.077	753
458.489	768
458.902	740.2
459.293	745
459.705	737.6
460.118	739.6
460.53	745
460.921	741.2
461.334	751.4
461.747	736.8
462.16	765.2
462.551	755
462.964	752.8
463.377	737.6
463.79	738.4
464.182	756.6
464.595	734.6
465.008	749
465.421	760.4
465.813	743.8
466.226	758.4
466.64	742.8
467.053	797.6
467.445	759.4
467.859	772.4
468.272	761.8
468.686	757.6
469.078	756.4
469.492	735.4
469.906	749.2
470.298	758
470.712	743
471.126	809
471.54	738.6
471.933	740.2
472.347	748.6
472.761	745.8
473.175	741.4
473.568	747.6
473.982	744.6
474.397	738
474.79	754.6
475.204	751.8
475.619	748.8
476.033	755
476.426	755.6
476.841	733.6
477.256	768
477.649	740.8
478.064	740
478.479	737.8
478.872	734.8
479.287	737.6
479.702	745.6
480.118	733.2
480.511	744
480.927	737.6
481.342	744
481.736	742.4
482.151	736.8
482.566	751.8
482.96	739.8
483.376	746.8
483.792	734.2
484.186	735
484.602	737.2
485.017	735.2
485.412	741
485.827	747.4
486.243	737.8
486.638	766
487.054	759.8
487.47	752.4
487.865	734
488.281	725.8
488.697	729.2
489.092	742
489.508	712.4
489.925	746
490.32	719.2
490.736	740.4
491.153	724
491.548	723.2
491.964	730.8
492.381	716
492.776	727
493.193	711.6
493.61	729.6
494.006	725.8
494.422	718
494.84	714
495.235	735.8
495.652	715.6
496.069	717.6
496.465	711.4
496.883	713.6
497.3	745
497.696	716.6
498.113	726
498.509	705
498.927	714.4
499.344	709
499.741	712.4
500.158	728.6
500.576	715.8
500.973	723.4
501.39	703.4
501.787	694.2
502.205	716.2
502.623	698.4
503.02	688.8
503.438	705.8
503.856	695.6
504.253	705.6
504.671	708.8
505.068	694
505.486	687.6
505.905	712.8
506.302	695
506.72	712
507.118	698.6
507.536	688.2
507.955	684.8
508.352	693.2
508.771	706.8
509.169	708.8
509.587	686
510.006	686
510.404	683
510.823	684
511.221	696.4
511.64	674.6
512.038	701
512.457	680.8
512.877	675.2
513.275	666.6
513.694	683.6
514.092	681.8
514.512	681.6
514.91	692.8
515.33	685.6
515.749	682.4
516.148	679
516.568	672.8
516.966	671.2
517.386	673
517.785	674.6
518.205	672.4
518.603	665
519.024	665.6
519.444	679.8
519.843	681.4
520.263	686.4
520.662	680.8
521.082	670.6
521.481	661.2
521.902	666.6
522.301	668
522.722	666.6
523.121	658.8
523.542	671.4
523.963	669.2
524.362	662.2
524.783	661.4
525.183	659.4
525.604	663.6
526.003	650.8
526.425	658.6
526.824	671
527.246	661.6
527.646	663.2
528.067	659.2
528.467	663.4
528.888	657
529.289	657.8
529.71	652.6
530.11	653
530.532	650.2
530.932	645.4
531.354	641.8
531.755	685
532.176	653.2
532.577	652.2
532.999	654.6
533.4	649.8
533.822	664.4
534.223	659.8
534.645	650.2
535.046	639.2
535.468	648.4
535.869	665.4
536.292	641.4
536.693	692
537.115	645.6
537.516	632.6
537.939	632.6
538.34	664.8
538.742	648.4
539.165	646.4
539.566	640
539.989	636.2
540.391	635.2
540.814	637.2
541.216	634
541.639	637.4
542.041	645.2
542.464	636.8
542.866	635.6
543.268	639.2
543.691	640.6
544.093	643
544.517	653.4
544.919	637.4
545.343	657.8
545.745	632.6
546.147	642.4
546.571	638.6
546.974	625
547.398	638.6
547.8	648.2
548.224	627.2
548.627	631.4
549.03	635
549.454	629
549.857	610.2
550.281	626.8
550.684	625.4
551.087	645.4
551.512	643.2
551.915	632.8
552.34	630
552.743	632.6
553.146	635.2
553.571	625.2
553.975	641.2
554.399	621.2
554.803	686.8
555.207	635.8
555.632	628.2
556.036	628.4
556.461	623.6
556.865	636.4
557.268	627.6
557.694	633.8
558.098	640
558.502	632.6
558.927	609.8
559.332	629.2
559.736	621.8
560.162	634.6
560.566	634
560.992	621.4
561.396	629.2
561.801	629
562.227	624.6
562.631	619.8
563.036	626.4
563.462	635.4
563.867	623.2
564.272	613.4
564.698	639.2
565.103	606
565.508	647
565.935	626.2
566.34	620.6
566.745	635.6
567.172	623.6
567.577	647.2
567.982	629.4
568.409	617.4
568.815	613.6
569.22	621.2
569.626	630.6
570.053	604.2
570.459	623.6
570.865	629.2
571.292	632.2
571.698	625.8
572.104	602.8
572.531	614.2
572.937	625.4
573.343	622
573.75	605
574.177	621.2
574.583	619.4
574.99	614.2
575.396	615.6
575.824	612
576.231	629.2
576.637	610.4
577.065	641.4
577.472	611.2
577.879	606.4
578.286	631.4
578.714	609.6
579.121	611.8
579.528	615.6
579.935	615.6
580.364	605.2
580.771	601
581.178	603.2
581.585	617.8
582.014	619.4
582.421	598.8
582.829	609
583.236	615.4
583.644	602.8
584.073	609.2
584.481	613
584.889	605.2
585.296	616.8
585.726	612.2
586.134	600.2
586.542	611.4
586.95	615
587.358	596.8
587.787	604.6
588.196	619.2
588.604	605.4
589.012	612.8
589.421	599.4
589.851	593.4
590.259	610.6
590.668	605
591.076	637.6
591.485	595
591.894	609.4
592.324	615.4
592.733	624.2
593.142	591.8
593.551	599.2
593.96	610.2
594.369	596.6
594.8	592.6
595.209	605.2
595.618	595.4
596.028	594.8
596.437	597.8
596.847	605.8
597.256	608.4
597.687	600.6
598.097	601.2
598.507	594.6
598.917	604
599.327	613.4
599.736	609
600.146	612.8
600.556	604.6
600.988	607.6
601.398	590.4
601.808	603.6
602.219	590.6
602.629	599.4
603.039	596
603.45	616.8
603.86	608.2
604.271	619.4
604.703	607.6
605.114	597
605.525	596
605.935	608
606.346	629
606.757	603.2
607.168	591.6
607.579	592
607.99	613
608.402	606
608.813	596.4
609.224	599
609.636	596
610.047	598.8
610.48	599.6
610.892	605.6
611.303	610.2
611.715	602
612.127	590.4
612.539	591.6
612.95	596.4
613.362	595.8
613.774	598
614.186	597.2
614.599	596.6
615.011	614
615.423	598.6
615.835	592.8
616.248	583.8
616.66	598.6
617.073	590.2
617.485	593.6
617.898	613.2
618.311	597
618.723	600
619.136	619.6
619.549	610
619.962	614.2
620.375	590.8
620.788	598.6
621.201	595.4
621.614	602.6
622.028	596.8
622.441	597
622.854	609.4
623.268	591.8
623.681	601
624.095	593.6
624.509	600.6
624.922	597.4
625.336	582.8
625.728	594.4
626.142	605.2
626.556	610.2
626.97	605.2
627.384	589.4
627.799	595.2
628.213	605
628.627	604.4
629.041	590.2
629.456	592
629.87	592.4
630.285	606
630.699	601.6
631.093	605.6
631.507	599.8
631.922	601
632.337	608.2
632.752	585.2
633.167	594.4
633.582	586.6
633.997	597
634.412	593.2
634.806	593.6
635.221	579.6
635.637	609
636.052	574.8
636.468	596.4
636.883	606.8
637.299	584.4
637.715	575.8
638.109	583.8
638.525	579.2
638.941	599.4
639.357	591.4
639.773	602.4
640.189	580.2
640.584	581.4
641	593.4
641.416	569
641.832	582.4
642.249	578.6
642.665	587
643.06	591.2
643.477	598.4
643.894	582
644.31	587.2
644.727	589
645.123	589.4
645.54	583.4
645.957	590.2
646.374	605.8
646.77	588.6
647.187	615
647.604	593.6
648.021	581.2
648.439	584.2
648.835	589.4
649.252	590.2
649.67	594
650.088	590.6
650.484	590.2
650.902	592.6
651.32	602.8
651.738	587.6
652.134	589.4
652.552	615.6
652.971	598.8
653.389	587.4
653.786	606.6
654.204	606.4
654.622	589.4
655.019	600.2
655.438	593
655.857	595.6
656.275	586.6
656.673	581.8
657.091	592.2
657.51	588
657.908	598.8
658.327	603.8
658.746	590.4
659.144	598.8
659.563	603
659.982	593.2
660.38	577.6
660.8	589.6
661.219	600.4
661.617	595.6
662.037	591.8
662.457	607.6
662.855	574.4
663.275	622.8
663.695	597
664.094	585.6
664.514	589.4
664.934	583
665.333	598.8
665.753	584.2
666.152	583
666.572	589.2
666.993	600
667.392	588.4
667.812	586.2
668.212	587.6
668.632	600
669.053	594.8
669.453	585.2
669.874	588.6
670.273	597
670.694	586.6
671.116	607
671.515	601.6
671.937	588.4
672.337	584.8
672.758	583.2
673.158	597.4
673.58	579.6
673.98	581.8
674.402	595
674.824	587.8
675.224	579
675.646	583
676.047	584.4
676.469	595.2
676.869	604.8
677.292	591.6
677.693	586.2
678.115	586
678.516	592.6
678.939	593.8
679.34	581.2
679.762	603
680.164	589.6
680.586	582
680.988	587
681.411	615.2
681.812	585.4
682.236	574
682.637	583.4
683.061	579.6
683.462	591
683.864	588.8
684.288	596.2
684.69	584.2
685.114	598.6
685.516	600.8
685.94	582
686.342	592
686.766	588
687.168	580.6
687.571	603.6
687.995	587.6
688.398	579.2
688.822	586.2
689.225	607
689.628	601.2
690.052	579.4
690.456	597.2
690.88	596
691.284	580.8
691.687	595
692.112	576.6
692.515	579.8
692.919	588.2
693.344	591.2
693.747	587
694.173	572.4
694.577	595.8
694.98	587.8
695.406	579.8
695.81	590.2
696.214	597.6
696.64	591.2
697.044	598.4
697.448	601.8
697.874	585
698.279	586.6
698.684	572.6
699.11	578
699.514	580.4
699.919	583.4
700.324	579.2
700.75	592
701.156	588
701.561	593.8
701.987	596
702.393	594.4
702.798	593.8
703.203	586
703.63	583
704.036	579.4
704.442	586.2
704.847	581.8
705.274	583.4
705.68	585.6
706.086	593.2
706.492	576
706.92	585.8
707.326	584.2
707.732	577.4
708.139	578.6
708.545	582.6
708.973	584.6
709.38	590.4
709.786	581
710.193	596.4
710.6	589.6
711.028	577.2
711.435	586.6
711.842	589.2
712.249	587.4
712.656	586.8
713.064	592.8
713.492	589
713.9	581.2
714.307	588.6
714.715	583
715.123	591.2
715.53	589.4
715.938	595
716.367	587.6
716.775	580
717.184	579.4
717.592	585
718	590.4
718.408	616.6
718.816	621
719.225	584
719.633	588.2
720.042	581.2
720.472	573
720.881	604.6
721.29	590
721.699	574.4
722.108	595.6
722.517	585.6
722.926	579.2
723.335	595
723.744	588.4
724.154	583.8
724.563	594.8
724.973	594.8
725.382	588.6
725.792	584.2
726.202	576.2
726.612	603
727.022	583
727.432	579.4
779.813	580
780.223	621.8
780.634	584
781.044	581.2
781.454	578.6
781.865	593
782.276	575.4
782.686	589.2
783.097	576.6
783.508	576.8
783.919	579.4
784.33	590.4
784.741	599
785.152	577.4
785.563	571.8
785.974	578.4
786.386	593.2
786.776	580.2
787.188	584.8
787.599	572.4
788.011	587.8
788.423	589.4
788.835	578.2
789.247	569.4
789.659	563.4
790.071	575.2
790.483	631.6
790.874	582.8
791.286	590
791.699	575.4
792.111	575.8
792.524	587
792.937	585.8
793.349	565.4
793.741	571.8
794.154	573
794.567	598
794.98	577.2
795.393	576
795.785	599.2
796.198	584
796.612	583
797.026	580
797.439	568.4
797.831	582.6
798.245	565.8
798.659	581.4
799.073	580.8
799.487	571.8
799.88	584
800.294	578.8
800.708	574.6
801.123	588.4
801.516	598
801.93	578.6
802.345	573
802.76	581.6
803.153	589
803.568	589.4
803.983	594.6
804.377	586.8
804.792	575.2
805.207	577.8
805.601	586.2
806.016	619.4
806.432	578.8
806.826	620.8
807.242	591.6
807.658	584.4
808.052	579.6
808.468	578.8
808.884	571
809.279	583.4
809.695	594.4
810.111	611.4
810.506	587.8
810.922	603
811.339	584.6
811.734	594.6
812.151	587
812.546	582.6
812.963	581.8
813.38	585.2
813.776	585.2
814.193	608.2
814.589	591.8
815.006	587.4
815.402	585.4
815.82	572.6
816.237	585.8
816.633	581.8
817.051	579.4
817.448	586
817.866	573.2
818.262	598.2
818.68	566.8
819.077	589.6
819.495	578.2
819.892	624.2
820.311	579
820.708	582.2
821.127	577.8
821.524	591.4
821.943	579
822.34	599.8
822.759	581
823.157	588.4
823.576	597.2
823.974	593.8
824.393	623.6
824.791	579.6
825.189	568
825.609	579.6
826.007	582.6
826.427	570
826.826	581.4
827.246	589.4
827.644	578.8
828.043	593.6
828.463	579
828.862	591.6
829.261	587.2
829.682	572.4
830.081	591
830.502	578
830.901	587
831.301	597.2
831.722	568.2
832.121	584.4
832.521	574.8
832.943	584
833.342	581.8
833.742	579.8
834.164	577.4
834.564	572.2
834.965	580
835.386	572
835.787	584.2
836.188	581.8
836.588	586.2
837.01	580.2
837.411	573.2
837.812	585
838.213	587.4
838.636	576.6
839.037	644.6
839.438	591.6
839.84	581.8
840.263	591.6
840.664	587.6
841.066	578.6
841.468	583.6
841.891	576
842.293	598.8
842.695	585
843.098	588
843.5	582.4
843.902	587.6
844.326	583.2
844.729	581.2
845.131	596.4
845.534	580.4
845.937	595
846.34	596.8
846.764	573.8
847.167	588.2
847.571	573.6
847.974	581.4
848.377	579.8
848.781	626
849.184	596.8
849.588	572.2
849.992	576.2
850.396	578.6
850.821	591.6
851.225	585
851.63	575.2
852.034	597.6
852.438	586.6
852.843	657.6
853.247	569.4
853.652	574
854.057	593.8
854.462	580.8
854.867	584.2
855.272	609.4
855.677	586.4
856.082	578.8
856.487	578
856.893	589.4
857.298	575.4
857.704	578.6
