#lambda/nm	C1
208.295	504.8
208.67	460.6
209.045	429.6
209.419	427.2
209.794	607
210.169	600.4
210.544	722.6
210.919	622.4
211.295	607.8
211.67	610
212.045	611.2
212.421	609.8
212.796	659
213.172	603.2
213.547	607.4
213.923	614.2
214.299	612.2
214.675	623
215.051	612.2
215.427	633.4
215.803	632.2
216.179	623.8
216.555	607.8
216.932	621
217.308	621.6
217.684	617.2
218.061	623.4
218.438	608.8
218.814	605.8
219.191	618.6
219.568	600
219.945	608.4
220.322	620.4
220.699	614
221.076	620.4
221.453	619.8
221.83	602
222.208	605
222.585	614
222.962	608.2
223.34	613.4
223.717	610.2
224.095	610.2
224.473	612.4
224.851	612.4
225.229	603.2
225.607	621.8
225.985	604.6
226.363	611
226.741	608
227.119	621.4
227.497	635.6
227.876	604.6
228.254	629.4
228.633	614.6
229.011	610.4
229.39	615
229.769	621.2
230.148	629.6
230.527	640
230.905	615.2
231.284	614.4
231.664	609.8
232.043	633.6
232.422	622.4
232.801	608.8
233.181	615.8
233.56	617.6
233.94	624.6
234.319	608.8
234.699	612
235.079	656.6
235.458	652.6
235.838	628.4
236.218	604.8
236.598	603.6
236.978	608.6
237.358	609.8
237.738	616.2
238.119	620.6
238.499	601.4
238.88	609
239.26	631.2
239.641	601.2
240.021	614
240.402	610.6
240.783	610.2
241.163	613.2
241.544	627.8
241.925	624.4
242.306	628.4
242.687	622.4
243.069	616.8
243.45	624.4
243.831	615
244.212	610
244.594	648.2
244.975	628
245.357	614.2
245.739	611
246.12	624
246.502	630.2
246.884	613.2
247.266	615.8
247.648	624.8
248.03	635.6
248.412	621.4
248.794	625.8
249.176	610
249.559	631.4
249.941	610.6
250.323	602.6
250.706	603.8
251.089	623.2
251.471	613.8
251.854	611
252.237	614.8
252.62	622.2
253.002	609.8
253.385	611.4
253.769	630.8
254.152	620.4
254.535	616.6
254.918	605.6
255.301	619
255.685	611.4
256.068	608.6
256.452	644.6
256.835	629.8
257.219	616.6
257.603	637
257.986	609.2
258.37	630
258.754	615
259.138	620.8
259.522	634.2
259.906	616.4
260.29	621
260.675	618.4
261.059	622.2
261.443	608.2
261.828	615.2
262.212	620.2
262.597	601.2
262.981	608.8
263.366	624
263.751	620.4
264.136	606
264.521	609.8
264.906	605.8
265.291	623.4
265.676	608
266.061	627.2
266.446	632.6
266.831	615.2
267.217	635.6
267.602	620.8
267.987	622.2
268.373	610.8
268.759	625.8
269.144	618.6
269.53	619.2
269.916	612.8
270.302	617.2
270.688	624.2
271.074	615
271.46	622
271.846	643.4
272.232	615
272.618	612.4
273.004	618.2
273.391	630
273.777	624.4
274.164	619.8
274.55	626
274.937	615.8
275.324	614.6
275.71	626.8
276.097	630.8
276.484	604.2
276.871	615.6
277.258	621.8
277.645	607.6
278.032	619.6
278.419	607.8
278.807	617.8
279.194	610.8
279.581	616.8
279.969	620
280.356	620.2
280.744	614.4
281.131	641.6
281.519	626.6
281.907	614.6
282.295	621.2
282.682	628.6
283.07	613.8
283.458	623.6
283.846	626
284.235	630.4
284.623	632.6
285.011	606.6
285.399	625
285.788	613.6
286.176	607.8
286.565	626.4
286.953	614.6
287.342	617.6
287.731	601.8
288.119	615
288.508	605.8
288.897	613.8
289.286	601.6
289.675	618.8
290.064	630.8
290.453	620.2
290.821	622.2
291.21	636.6
291.599	612.8
291.989	624.8
292.378	625.6
292.768	630.8
293.157	616.8
293.547	628.8
293.936	621.6
294.326	613.2
294.716	614.6
295.106	616.6
295.496	625
295.886	627.2
296.276	614.2
296.666	609.2
297.056	609.6
297.446	607
297.836	629
298.227	605.2
298.617	617
299.008	629.8
299.398	620
299.789	607.8
300.179	625.2
300.57	640.2
300.961	609
301.352	614
301.742	627.2
302.133	620.2
302.524	609.2
302.915	616.8
303.307	603.4
303.698	629.4
304.089	623.8
304.48	609.2
304.872	616.4
305.263	616
305.655	609.8
306.046	623.2
306.438	611.8
306.829	605.2
307.221	636.2
307.613	619.2
308.005	626.6
308.397	632.2
308.789	636
309.181	634
309.573	626.4
309.965	626.8
310.357	622
310.749	621.4
311.142	614
311.534	619.2
311.926	628
312.319	616.2
312.711	607.8
313.104	637.4
313.497	617
313.889	659.8
314.282	632
314.675	641.6
315.068	625.2
315.461	625.8
315.854	645.8
316.247	617.8
316.64	616
317.033	617.2
317.405	624
317.798	607.4
318.192	611.2
318.585	607.2
318.979	616
319.372	609.4
319.766	622
320.16	625.4
320.553	630.8
320.947	628.6
321.341	612.8
321.735	611
322.129	592.2
322.523	635.6
322.917	605.8
323.311	624
323.705	619.2
324.099	625.2
324.494	631.2
324.888	628.6
325.282	615.8
325.677	622.8
326.071	631.6
326.466	618.2
326.861	618
327.255	622.8
327.65	626.2
328.045	635.8
328.44	618
328.835	616.8
329.23	616.2
329.625	642.8
330.02	618.8
330.415	634.2
330.81	626
331.206	631.2
331.601	612
331.996	620.2
332.37	632.8
332.766	618
333.161	640
333.557	616.8
333.953	617
334.348	901.8
334.744	615.2
335.14	609
335.536	609.4
335.932	628.6
336.328	612.8
336.724	628.4
337.12	618.4
337.516	618.4
337.913	619.2
338.309	629.2
338.705	616.8
339.102	631.2
339.498	608.4
339.895	626.8
340.291	613.6
340.688	634
341.085	610.4
341.481	610.8
341.878	611.4
342.275	639.4
342.672	605.6
343.069	619
343.466	602
343.842	624.2
344.239	613.6
344.636	614.6
345.033	608.2
345.431	618.8
345.828	624.2
346.225	613.6
346.623	640
347.02	622.6
347.418	623.6
347.816	628.4
348.213	606.2
348.611	623.4
349.009	614
349.407	623.8
349.805	605.2
350.203	600.4
350.601	614.8
350.999	611.2
351.397	674
351.795	627
352.193	622.2
352.57	621.2
352.969	622
353.367	602.8
353.766	607.2
354.164	608.8
354.563	623.4
354.961	609.8
355.36	612.6
355.759	614.4
356.158	605.6
356.557	613.4
356.956	609.6
357.355	599.4
357.754	619.2
358.153	619.6
358.552	637
358.951	614.8
359.35	625
359.75	603.4
360.149	607.2
360.527	603.6
360.926	608.4
361.326	615.8
361.726	625.6
362.125	608.2
362.525	616.8
362.925	606.2
363.325	611.4
363.724	608.8
364.124	601.4
364.524	606.4
364.924	610.4
365.324	616.6
365.725	597.8
366.125	619.2
366.525	599
366.904	602.4
367.304	593.8
367.705	623.4
368.105	622.4
368.506	608.8
368.906	619.2
369.307	609
369.708	618.4
370.108	591.2
370.509	631
370.91	609.6
371.311	610.6
371.712	613.2
372.113	613.2
372.514	599.8
372.894	614.8
373.295	609.8
373.696	617.6
374.097	609
374.499	630
374.9	612.6
375.301	601.6
375.703	606.4
376.105	601.8
376.506	617
376.908	621
377.309	615
377.711	615.8
378.113	602.8
378.493	605.4
378.895	602.8
379.297	618.4
379.699	600.8
380.102	608.8
380.504	611.2
380.906	614.4
381.308	633.8
381.71	613
382.113	616.8
382.515	603.2
382.918	616
383.299	613.8
383.701	612.2
384.104	619.8
384.507	596
384.909	608.4
385.312	607.8
385.715	602.6
386.118	603
386.521	591.8
386.924	622.2
387.327	606.8
387.709	595.4
388.112	600.2
388.515	607.2
388.918	611
389.322	614.6
389.725	602.4
390.129	632
390.532	605.2
390.936	610
391.339	603.4
391.743	606
392.125	601.2
392.529	609.8
392.933	626.8
393.337	608.4
393.74	608.4
394.144	612.6
394.548	604
394.953	605
395.357	619.2
395.761	600.4
396.144	602.8
396.548	608.6
396.952	611.8
397.357	611
397.761	605.2
398.166	614.4
398.57	613.8
398.975	594.6
399.379	611.4
399.763	658.6
400.168	609.8
400.572	603
400.977	611.2
401.382	623.4
401.787	610
402.192	617.8
402.597	621.2
403.002	597
403.386	621
403.791	617.2
404.197	598.4
404.602	608.8
405.007	605.4
405.413	601.8
405.818	606.8
406.224	602
406.608	603.4
407.014	598.2
407.42	614
407.825	603.6
408.231	614.6
408.637	609.6
409.043	621.6
409.449	608.2
409.834	591.8
410.24	607
410.646	621
411.052	620.6
411.458	614.2
411.865	616.8
412.271	612.8
412.677	612.4
413.062	614.4
413.469	599.2
413.875	636.2
414.282	630.4
414.689	611
415.095	614.6
415.502	601
415.888	612.2
416.294	588.4
416.701	642.6
417.108	607.8
417.515	618
417.923	605.6
418.33	626
418.715	622.6
419.123	610.6
419.53	605
419.937	605.4
420.345	620.8
420.752	607.8
421.16	620
421.546	605.4
421.953	611.6
422.361	602.6
422.769	612.4
423.177	597.8
423.585	624.8
423.992	631.4
424.379	621.8
424.787	616.2
425.195	637
425.603	608
426.011	618.8
426.419	626.8
426.806	611.4
427.214	610.8
427.623	625.2
428.031	625.4
428.44	619.2
428.848	618.6
429.235	631.6
429.644	615.4
430.053	610.2
430.461	633
430.87	636
431.279	624.6
431.666	604.2
432.075	618
432.484	622.8
432.893	610
433.302	631
433.711	654.6
434.099	619
434.508	610.8
434.918	615.4
435.327	629.4
435.737	630.2
436.125	629.8
436.534	632.2
436.944	628.2
437.353	638
437.763	653
438.173	633.4
438.561	655.8
438.971	625
439.381	646.2
439.791	656
440.201	630
440.589	655
440.999	664.6
441.409	664
441.819	655.4
442.23	669.6
442.619	689
443.029	675.8
443.439	681.2
443.85	685.4
444.26	696
444.649	689
445.06	693.6
445.471	693.8
445.881	686
446.292	724.6
446.682	723.6
447.092	698.6
447.503	752
447.914	718
448.325	705.4
448.715	707.2
449.126	710.6
449.537	708.4
449.948	718.8
450.338	725.6
450.75	728.8
451.161	714.2
451.572	738.4
451.984	725.4
452.374	711.4
452.786	720.6
453.197	729
453.609	741
453.999	728.2
454.411	717.6
454.823	747.2
455.235	726.6
455.647	726
456.037	730.4
456.449	719
456.862	740.6
457.274	746.2
457.665	732.8
458.077	744.6
458.489	765.6
458.902	733.4
459.293	738.4
459.705	738
460.118	735
460.53	751.4
460.921	736.2
461.334	740
461.747	746.6
462.16	759
462.551	749.4
462.964	748.4
463.377	737.4
463.79	743.6
464.182	759.4
464.595	749.6
465.008	754.4
465.421	758.6
465.813	750.6
466.226	759
466.64	754.8
467.053	805
467.445	768.6
467.859	776
468.272	765.8
468.686	766.4
469.078	763.6
469.492	745.8
469.906	772
470.298	767.8
470.712	748.6
471.126	811
471.54	738.4
471.933	747.6
472.347	757
472.761	758
473.175	747.2
473.568	759
473.982	746.2
474.397	756.4
474.79	761.6
475.204	765
475.619	752
476.033	769.8
476.426	758.4
476.841	753.4
477.256	774.4
477.649	757
478.064	749.6
478.479	756.6
478.872	748.6
479.287	748.4
479.702	753.4
480.118	752.2
480.511	756.2
480.927	756.2
481.342	753.4
481.736	766
482.151	749.6
482.566	764.4
482.96	751.4
483.376	757.2
483.792	738.8
484.186	754.4
484.602	742.4
485.017	757
485.412	751
485.827	751.8
486.243	750.8
486.638	769
487.054	750.8
487.47	765.8
487.865	736.6
488.281	742
488.697	737.8
489.092	747.4
489.508	733.2
489.925	752.2
490.32	733
490.736	746.8
491.153	747
491.548	739.4
491.964	752.4
492.381	718.6
492.776	742.4
493.193	738
493.61	735.6
494.006	733.8
494.422	739.8
494.84	729
495.235	736.8
495.652	733.4
496.069	735.8
496.465	719.2
496.883	729.8
497.3	758
497.696	714.4
498.113	725.8
498.509	710.2
498.927	710
499.344	708.4
499.741	707
500.158	741.2
500.576	716.2
500.973	716.6
501.39	705.2
501.787	701.6
502.205	722.2
502.623	705.6
503.02	703.2
503.438	707.6
503.856	710.2
504.253	707
504.671	705.8
505.068	700.6
505.486	703.2
505.905	721.8
506.302	708.4
506.72	714.6
507.118	692.2
507.536	700.2
507.955	689.2
508.352	707.6
508.771	712.4
509.169	709.6
509.587	685.2
510.006	694.6
510.404	686.4
510.823	687.8
511.221	688
511.64	689.4
512.038	703
512.457	691
512.877	698.4
513.275	689.4
513.694	687.8
514.092	682.6
514.512	683.2
514.91	682.8
515.33	682.6
515.749	689
516.148	689.4
516.568	690.4
516.966	687.6
517.386	686.4
517.785	686
518.205	667
518.603	666.4
519.024	669
519.444	674.4
519.843	672.6
520.263	688
520.662	682.4
521.082	676
521.481	686
521.902	677.4
522.301	665.6
522.722	672.4
523.121	670.4
523.542	660.8
523.963	669.4
524.362	675.4
524.783	667.4
525.183	672.4
525.604	678.2
526.003	650
526.425	663.6
526.824	671.4
527.246	673.8
527.646	676.4
528.067	667.4
528.467	670.6
528.888	664.6
529.289	664.8
529.71	661.6
530.11	649.2
530.532	651.6
530.932	652
531.354	649.4
531.755	688.8
532.176	668
532.577	661.8
532.999	656
533.4	655.2
533.822	666
534.223	659.2
534.645	652.6
535.046	648.2
535.468	654.4
535.869	660
536.292	648.2
536.693	685.4
537.115	657.4
537.516	658.4
537.939	645.6
538.34	665.8
538.742	661.6
539.165	652
539.566	653.6
539.989	645
540.391	649
540.814	646.4
541.216	653.6
541.639	643.4
542.041	655
542.464	637
542.866	634.6
543.268	636.6
543.691	651.8
544.093	641.6
544.517	665.8
544.919	640.4
545.343	667.8
545.745	641.4
546.147	646
546.571	631.4
546.974	620
547.398	640.2
547.8	650
548.224	640.4
548.627	640.4
549.03	644
549.454	621.6
549.857	630.4
550.281	631.6
550.684	628.8
551.087	655.6
551.512	635.6
551.915	639.6
552.34	630.2
552.743	634
553.146	634
553.571	630.8
553.975	645
554.399	626
554.803	683.2
555.207	629.4
555.632	618.6
556.036	636.4
556.461	627.2
556.865	626.2
557.268	627.2
557.694	626
558.098	632
558.502	630.4
558.927	618.8
559.332	631
559.736	632.8
560.162	629.2
560.566	622.6
560.992	633.8
561.396	633
561.801	629.4
562.227	624
562.631	620.6
563.036	627
563.462	637
563.867	622.8
564.272	611.6
564.698	629.8
565.103	614
565.508	641.2
565.935	620.6
566.34	626.6
566.745	630.2
567.172	611.4
567.577	636.8
567.982	633.2
568.409	627.2
568.815	609.4
569.22	611.6
569.626	623.8
570.053	607
570.459	624.4
570.865	624
571.292	632.8
571.698	613.6
572.104	600.4
572.531	608.2
572.937	635.6
573.343	621.8
573.75	620.8
574.177	620.2
574.583	627.8
574.99	621.6
575.396	621.6
575.824	620.2
576.231	624.4
576.637	610.4
577.065	638.2
577.472	602.6
577.879	609.4
578.286	628.6
578.714	598.8
579.121	611.4
579.528	618.4
579.935	626
580.364	614
580.771	601
581.178	605.2
581.585	615.2
582.014	617.4
582.421	605.8
582.829	597.8
583.236	623.2
583.644	604.8
584.073	599.6
584.481	606.2
584.889	601.8
585.296	613.2
585.726	622.6
586.134	599.8
586.542	605.6
586.95	625.6
587.358	608.2
587.787	604.6
588.196	618.6
588.604	602
589.012	605.6
589.421	604.2
589.851	607.2
590.259	621.2
590.668	603.8
591.076	633.8
591.485	600.6
591.894	607.2
592.324	613.2
592.733	614.4
593.142	602.4
593.551	603
593.96	627.6
594.369	593.2
594.8	589.6
595.209	599.8
595.618	587.6
596.028	598.4
596.437	593.4
596.847	600.8
597.256	606.4
597.687	604.8
598.097	600.4
598.507	591
598.917	600.6
599.327	612.6
599.736	603.2
600.146	608.4
600.556	595.6
600.988	601
601.398	599.8
601.808	602
602.219	591.6
602.629	590.6
603.039	604.2
603.45	627.8
603.86	596.2
604.271	621
604.703	597
605.114	596.4
605.525	597.8
605.935	602.2
606.346	620.8
606.757	607.2
607.168	595.2
607.579	590.2
607.99	609.8
608.402	590.8
608.813	596
609.224	600.6
609.636	582.8
610.047	586
610.48	597.2
610.892	598.8
611.303	602.4
611.715	600.4
612.127	582.8
612.539	593.6
612.95	593.4
613.362	579.4
613.774	587.2
614.186	588
614.599	591
615.011	603.8
615.423	591.8
615.835	588.8
616.248	591.8
616.66	601.4
617.073	592.2
617.485	597
617.898	597.8
618.311	592.4
618.723	597.2
619.136	629.6
619.549	614.4
619.962	628.4
620.375	592.6
620.788	593.8
621.201	591.6
621.614	608.6
622.028	593.6
622.441	590
622.854	610.4
623.268	587
623.681	601.6
624.095	595
624.509	600.6
624.922	611.4
625.336	585
625.728	606.4
626.142	603
626.556	613
626.97	599.8
627.384	597.8
627.799	597
628.213	604
628.627	597.6
629.041	589
629.456	587.4
629.87	599.2
630.285	602.4
630.699	603.4
631.093	594.6
631.507	597.8
631.922	601
632.337	607.8
632.752	580.4
633.167	598.4
633.582	593.6
633.997	593.4
634.412	598.6
634.806	593.6
635.221	591.6
635.637	604
636.052	585.8
636.468	596.2
636.883	602.4
637.299	592
637.715	576.4
638.109	591.8
638.525	590.6
638.941	604.2
639.357	593.2
639.773	610.2
640.189	590.2
640.584	594.8
641	591
641.416	582.6
641.832	588.4
642.249	591
642.665	593.6
643.06	598.8
643.477	601
643.894	587.4
644.31	592.8
644.727	599.2
645.123	601
645.54	586.2
645.957	598.6
646.374	613.8
646.77	590.4
647.187	629
647.604	598.6
648.021	579.6
648.439	593.8
648.835	601.8
649.252	597.6
649.67	584.2
650.088	587.8
650.484	598.4
650.902	600
651.32	605.8
651.738	592.8
652.134	593.8
652.552	608.4
652.971	598
653.389	591.8
653.786	599.4
654.204	608.8
654.622	588
655.019	585
655.438	590.4
655.857	591.2
656.275	590.8
656.673	588.2
657.091	599
657.51	577.4
657.908	604.6
658.327	604.8
658.746	584
659.144	598.8
659.563	610.2
659.982	595.4
660.38	592
660.8	591.8
661.219	599.2
661.617	602.8
662.037	593.4
662.457	609.4
662.855	581.2
663.275	631.6
663.695	599.4
664.094	593.6
664.514	587.2
664.934	586
665.333	598.4
665.753	581
666.152	585.2
666.572	588.4
666.993	614
667.392	592.2
667.812	587.6
668.212	584.8
668.632	593.4
669.053	587.6
669.453	588.8
669.874	598
670.273	596.6
670.694	585.4
671.116	602.2
671.515	599.4
671.937	593.6
672.337	586.8
672.758	585.8
673.158	603.8
673.58	580.8
673.98	593.6
674.402	598
674.824	594
675.224	589.2
675.646	577.8
676.047	589.2
676.469	593.8
676.869	600
677.292	590.8
677.693	585.4
678.115	590.4
678.516	604
678.939	598.8
679.34	592.4
679.762	605
680.164	589.6
680.586	580.8
680.988	596.6
681.411	614.2
681.812	598.2
682.236	582.8
682.637	584.4
683.061	580.4
683.462	593
683.864	599.8
684.288	592
684.69	585
685.114	599.2
685.516	596.4
685.94	582.2
686.342	601.8
686.766	579.4
687.168	576.6
687.571	606.6
687.995	585.4
688.398	583.2
688.822	582.8
689.225	598.4
689.628	602.4
690.052	578
690.456	594
690.88	582.8
691.284	575.6
691.687	594.2
692.112	576.2
692.515	578.4
692.919	593.6
693.344	594.6
693.747	583
694.173	585.8
694.577	594.4
694.98	584
695.406	577.6
695.81	587.8
696.214	591.6
696.64	593.8
697.044	590.6
697.448	596.4
697.874	584.8
698.279	585.6
698.684	573.6
699.11	572
699.514	585.4
699.919	578.2
700.324	578.8
700.75	582
701.156	589.2
701.561	595
701.987	592.6
702.393	598.6
702.798	599.2
703.203	591.4
703.63	581.8
704.036	581.2
704.442	587.6
704.847	576.6
705.274	581.8
705.68	588.6
706.086	590.6
706.492	572
706.92	580.8
707.326	586.8
707.732	576.6
708.139	575.8
708.545	574.2
708.973	578.4
709.38	580.8
709.786	577.8
710.193	599.2
710.6	581.6
711.028	578.6
711.435	583
711.842	583.2
712.249	580.4
712.656	586.2
713.064	593.2
713.492	580.2
713.9	583.6
714.307	588.6
714.715	581.8
715.123	593.4
715.53	588.6
715.938	595.6
716.367	588.8
716.775	582.2
717.184	577
717.592	590
718	602.8
718.408	625.6
718.816	630
719.225	593.6
719.633	590
720.042	575
720.472	582.6
720.881	607.6
721.29	596.4
721.699	580.6
722.108	587
722.517	588.8
722.926	587.4
723.335	591.8
723.744	578.8
724.154	584
724.563	587.4
724.973	591.4
725.382	594
725.792	586.6
726.202	578
726.612	608.6
727.022	592
727.432	579.2
779.813	585.4
780.223	630.8
780.634	592.2
781.044	582.4
781.454	584.8
781.865	602
782.276	579.4
782.686	592.4
783.097	586.6
783.508	583.2
783.919	590.4
784.33	598
784.741	593.8
785.152	582.4
785.563	569.2
785.974	573
786.386	594.4
786.776	582.4
787.188	587.8
787.599	586.6
788.011	597.4
788.423	579.6
788.835	594.4
789.247	570.2
789.659	575.8
790.071	582.6
790.483	626
790.874	587.4
791.286	596.8
791.699	587.2
792.111	588.4
792.524	586.2
792.937	580.4
793.349	576.2
793.741	582.8
794.154	579.6
794.567	604
794.98	580
795.393	576.4
795.785	595.2
796.198	576.4
796.612	585.6
797.026	574.6
797.439	578.2
797.831	578.8
798.245	575
798.659	587.8
799.073	582.8
799.487	579
799.88	592.2
800.294	586.6
800.708	589.6
801.123	585.6
801.516	591.8
801.93	572
802.345	569.6
802.76	582.2
803.153	600
803.568	591.8
803.983	595.6
804.377	588
804.792	571.4
805.207	570.6
805.601	585.6
806.016	613.6
806.432	582
806.826	619
807.242	598.6
807.658	587.2
808.052	581
808.468	580.6
808.884	571.8
809.279	581
809.695	599.4
810.111	607.2
810.506	584.4
810.922	606.8
811.339	583.4
811.734	591.4
812.151	584.2
812.546	576.8
812.963	577
813.38	580.8
813.776	582.2
814.193	604.8
814.589	574
815.006	588.8
815.402	583.2
815.82	570.4
816.237	578.2
816.633	584.2
817.051	572
817.448	587.8
817.866	577.2
818.262	605.6
818.68	575
819.077	572.2
819.495	581
819.892	626
820.311	581.8
820.708	583.8
821.127	576.2
821.524	586
821.943	588
822.34	606.8
822.759	593.8
823.157	579.4
823.576	599.6
823.974	594
824.393	625
824.791	570.6
825.189	573.2
825.609	584.2
826.007	584.6
826.427	570.2
826.826	583.8
827.246	585.2
827.644	575.8
828.043	592.6
828.463	585.2
828.862	589.4
829.261	590.2
829.682	573.6
830.081	592.2
830.502	584.4
830.901	583.4
831.301	606.8
831.722	575.6
832.121	579.8
832.521	580.6
832.943	582.4
833.342	576.6
833.742	577.8
834.164	581.8
834.564	579
834.965	589
835.386	575.6
835.787	575.4
836.188	584.6
836.588	579.2
837.01	577.4
837.411	570
837.812	586.8
838.213	590
838.636	579.6
839.037	656.8
839.438	580.8
839.84	587.6
840.263	583
840.664	581
841.066	584.6
841.468	588.6
841.891	574.2
842.293	598
842.695	576.8
843.098	582.8
843.5	583
843.902	584
844.326	584.6
844.729	583
845.131	589.6
845.534	591.4
845.937	601.2
846.34	595
846.764	571.2
847.167	578.4
847.571	571.4
847.974	580
848.377	577.4
848.781	622.8
849.184	591.2
849.588	574.8
849.992	576
850.396	591.8
850.821	596.8
851.225	587.4
851.63	574
852.034	589.2
852.438	578.2
852.843	604.4
853.247	573.2
853.652	562.4
854.057	591.8
854.462	584.6
854.867	596.4
855.272	605
855.677	587.8
856.082	570.2
856.487	565.6
856.893	587
857.298	576
857.704	579.6
