#lambda/nm	C1
208.295	514.2
208.67	462
209.045	432.2
209.419	430.6
209.794	611.6
210.169	598.6
210.544	716
210.919	619.6
211.295	602.8
211.67	624.2
212.045	614.6
212.421	610.8
212.796	651.6
213.172	613.8
213.547	606.4
213.923	605.6
214.299	609.4
214.675	619.6
215.051	617.2
215.427	624.4
215.803	632.8
216.179	616.2
216.555	613.4
216.932	620.6
217.308	622.8
217.684	612.8
218.061	623.2
218.438	618.8
218.814	604
219.191	626.8
219.568	610.8
219.945	617
220.322	622.4
220.699	622
221.076	619.2
221.453	626.4
221.83	611.2
222.208	612.4
222.585	612.6
222.962	617
223.34	623.2
223.717	613.2
224.095	614.8
224.473	619.2
224.851	606.4
225.229	606.2
225.607	625.2
225.985	600.4
226.363	617.6
226.741	621.4
227.119	615.4
227.497	631.4
227.876	601
228.254	621.2
228.633	622.4
229.011	618.2
229.39	625
229.769	625
230.148	624.8
230.527	639.6
230.905	621.6
231.284	628
231.664	616.8
232.043	627
232.422	613.4
232.801	617.2
233.181	629.6
233.56	612.8
233.94	619.2
234.319	600.6
234.699	617.4
235.079	658
235.458	650.4
235.838	628.6
236.218	608.4
236.598	599.4
236.978	608
237.358	603.6
237.738	611.4
238.119	615.2
238.499	596.8
238.88	612.2
239.26	634.4
239.641	607.8
240.021	608
240.402	604.8
240.783	610.8
241.163	615.8
241.544	612.2
241.925	616.6
242.306	625.2
242.687	630.6
243.069	612.6
243.45	625.4
243.831	614
244.212	610
244.594	653.6
244.975	615
245.357	619.2
245.739	603.2
246.12	617.2
246.502	625.2
246.884	610.4
247.266	612.6
247.648	612
248.03	628.6
248.412	610
248.794	613.6
249.176	606
249.559	622.4
249.941	602.8
250.323	603.8
250.706	602
251.089	608.8
251.471	623.8
251.854	613.6
252.237	614.4
252.62	625.6
253.002	616
253.385	620
253.769	630.2
254.152	617
254.535	623.8
254.918	603.8
255.301	618.8
255.685	616
256.068	603
256.452	639.4
256.835	622.8
257.219	625.2
257.603	626.2
257.986	609
258.37	618.4
258.754	602
259.138	625.8
259.522	627.6
259.906	613
260.29	617.4
260.675	610.8
261.059	621
261.443	603.6
261.828	633.6
262.212	621.8
262.597	601.8
262.981	613.6
263.366	624.8
263.751	616.8
264.136	604.8
264.521	617.6
264.906	611.6
265.291	630.4
265.676	606.2
266.061	626.8
266.446	633
266.831	617.8
267.217	635.8
267.602	619.4
267.987	616
268.373	604
268.759	623
269.144	617.4
269.53	615.6
269.916	616.4
270.302	625.2
270.688	618.6
271.074	620.2
271.46	623.2
271.846	650.2
272.232	612
272.618	607.6
273.004	610.2
273.391	631.4
273.777	626.2
274.164	619.4
274.55	624.6
274.937	619.2
275.324	611.6
275.71	628.6
276.097	627.2
276.484	611.4
276.871	622.6
277.258	626.8
277.645	605.8
278.032	614.4
278.419	617
278.807	619.2
279.194	607.6
279.581	611.4
279.969	616.6
280.356	625.2
280.744	623.2
281.131	640.6
281.519	633.6
281.907	612.4
282.295	614
282.682	627.8
283.07	617.4
283.458	630.2
283.846	627.4
284.235	618.2
284.623	618
285.011	603.6
285.399	622.2
285.788	617.4
286.176	608.2
286.565	624.8
286.953	617.6
287.342	616
287.731	609
288.119	608.6
288.508	606
288.897	617.4
289.286	607.6
289.675	618.2
290.064	628
290.453	618.8
290.821	616.2
291.21	633.8
291.599	614.6
291.989	624.8
292.378	615
292.768	638
293.157	619
293.547	633.2
293.936	620.2
294.326	607
294.716	624.2
295.106	619.2
295.496	620.6
295.886	628.6
296.276	621.2
296.666	611.2
297.056	608.8
297.446	602.8
297.836	632.4
298.227	611.2
298.617	617.4
299.008	634.2
299.398	616.4
299.789	620.4
300.179	623.2
300.57	637.6
300.961	609.6
301.352	617.2
301.742	630.8
302.133	623
302.524	619
302.915	627
303.307	612.2
303.698	627
304.089	624.4
304.48	621
304.872	634
305.263	615.8
305.655	616
306.046	629.8
306.438	621.8
306.829	608
307.221	625.2
307.613	623.6
308.005	630
308.397	626.6
308.789	638.2
309.181	639.6
309.573	632
309.965	639.6
310.357	614.8
310.749	630.8
311.142	614.2
311.534	610.6
311.926	628.2
312.319	615.4
312.711	604.4
313.104	627.4
313.497	606.8
313.889	655.2
314.282	635.6
314.675	639.8
315.068	626.8
315.461	620.6
315.854	647.4
316.247	624.6
316.64	626.8
317.033	624.4
317.405	630.2
317.798	620.4
318.192	614.4
318.585	607.2
318.979	628
319.372	612.8
319.766	620
320.16	621.8
320.553	636.2
320.947	628.4
321.341	623.8
321.735	621.2
322.129	612.4
322.523	646.2
322.917	619
323.311	628.6
323.705	622.8
324.099	632.6
324.494	629.2
324.888	619.2
325.282	614.8
325.677	625.6
326.071	632.8
326.466	633.4
326.861	621.4
327.255	624.2
327.65	635
328.045	632.2
328.44	631.8
328.835	614.2
329.23	609.8
329.625	639.8
330.02	622.4
330.415	641.6
330.81	618.8
331.206	615
331.601	620.2
331.996	635.8
332.37	637.4
332.766	616
333.161	639.4
333.557	618.4
333.953	617.8
334.348	986.2
334.744	618.6
335.14	616.6
335.536	610.4
335.932	628.4
336.328	622.2
336.724	625.2
337.12	613.8
337.516	620.8
337.913	616.4
338.309	635.4
338.705	620.4
339.102	635.2
339.498	618.2
339.895	631.6
340.291	609.6
340.688	629.6
341.085	612.2
341.481	610
341.878	613
342.275	632.2
342.672	608.2
343.069	604.4
343.466	601
343.842	621.4
344.239	602.4
344.636	621
345.033	598.6
345.431	606.4
345.828	623.6
346.225	609.2
346.623	646.8
347.02	620.6
347.418	631.2
347.816	630.4
348.213	604.6
348.611	621
349.009	611.4
349.407	623.8
349.805	607
350.203	597.4
350.601	623.2
350.999	610.6
351.397	667.6
351.795	615.4
352.193	638
352.57	625.8
352.969	624.8
353.367	605.4
353.766	610.6
354.164	613.4
354.563	623.8
354.961	613.8
355.36	606
355.759	614.8
356.158	603.4
356.557	606.8
356.956	606.4
357.355	604
357.754	621.8
358.153	625.8
358.552	643.6
358.951	610.8
359.35	629
359.75	600
360.149	605.8
360.527	590.4
360.926	598.4
361.326	612.6
361.726	613.2
362.125	611.8
362.525	618
362.925	613
363.325	609
363.724	616
364.124	599.2
364.524	604
364.924	609.2
365.324	626.2
365.725	596.2
366.125	625.2
366.525	614.2
366.904	603.4
367.304	596.8
367.705	624.2
368.105	614
368.506	597
368.906	610.8
369.307	608
369.708	615.8
370.108	605.4
370.509	618.6
370.91	603.4
371.311	613.6
371.712	619
372.113	603
372.514	594.4
372.894	609
373.295	598
373.696	623.8
374.097	608.6
374.499	639.2
374.9	614
375.301	611.8
375.703	608.2
376.105	595.4
376.506	613.8
376.908	612.4
377.309	614.4
377.711	615
378.113	602.2
378.493	609.6
378.895	598.6
379.297	616.4
379.699	606.2
380.102	610.4
380.504	608.2
380.906	602.2
381.308	623.2
381.71	598.6
382.113	616.4
382.515	608.2
382.918	608.6
383.299	610.8
383.701	618
384.104	613
384.507	592.2
384.909	603
385.312	594.2
385.715	598.2
386.118	605.8
386.521	598
386.924	620.2
387.327	603.2
387.709	596.6
388.112	599.4
388.515	610.8
388.918	606
389.322	616.4
389.725	612.6
390.129	628.8
390.532	617
390.936	605
391.339	594.8
391.743	615.2
392.125	602.2
392.529	618
392.933	620.8
393.337	612.6
393.74	611
394.144	610.2
394.548	612.4
394.953	601.8
395.357	612
395.761	612.6
396.144	613.4
396.548	607.6
396.952	610.4
397.357	606.6
397.761	607
398.166	601.4
398.57	608.8
398.975	605.8
399.379	614
399.763	661.4
400.168	623
400.572	620
400.977	596
401.382	634.4
401.787	620.2
402.192	624.4
402.597	620.6
403.002	596
403.386	623
403.791	619.8
404.197	605.8
404.602	606.6
405.007	601.4
405.413	603.6
405.818	609
406.224	601.2
406.608	602.8
407.014	601.8
407.42	617.8
407.825	599.4
408.231	622
408.637	613.8
409.043	621.8
409.449	607.4
409.834	606.2
410.24	611.4
410.646	617.6
411.052	617.2
411.458	608
411.865	623.2
412.271	617.6
412.677	605.8
413.062	618.4
413.469	601.8
413.875	631.2
414.282	611.2
414.689	614
415.095	610.4
415.502	602.4
415.888	609.2
416.294	596
416.701	652.6
417.108	605.2
417.515	621
417.923	600.2
418.33	629.6
418.715	610.4
419.123	615.8
419.53	611.2
419.937	617.2
420.345	616.8
420.752	612
421.16	622
421.546	611.4
421.953	625.4
422.361	602.4
422.769	608.6
423.177	603.6
423.585	642.6
423.992	636.8
424.379	621.4
424.787	620.2
425.195	635.8
425.603	608.6
426.011	622
426.419	630.8
426.806	611.8
427.214	618.8
427.623	623.8
428.031	638.4
428.44	623.6
428.848	625.8
429.235	631.4
429.644	615.6
430.053	608.6
430.461	630.4
430.87	641.6
431.279	621.6
431.666	615.8
432.075	609.2
432.484	620.4
432.893	614
433.302	633.6
433.711	654.2
434.099	622.8
434.508	616.2
434.918	612
435.327	632.4
435.737	609
436.125	629.2
436.534	620.6
436.944	627.2
437.353	628.2
437.763	650.4
438.173	621
438.561	639.4
438.971	626.6
439.381	636.2
439.791	642.2
440.201	629
440.589	649.4
440.999	653.2
441.409	650.6
441.819	642
442.23	664.4
442.619	675.8
443.029	659.2
443.439	666.8
443.85	681
444.26	698.4
444.649	681.2
445.06	684.6
445.471	683
445.881	679.8
446.292	706.2
446.682	706.6
447.092	683.8
447.503	741.8
447.914	706.8
448.325	693.6
448.715	704.8
449.126	701.8
449.537	704.8
449.948	708.6
450.338	710.6
450.75	717.8
451.161	721.2
451.572	727.8
451.984	714.4
452.374	707.8
452.786	713.2
453.197	714.4
453.609	727
453.999	712.8
454.411	710.8
454.823	728.8
455.235	731.4
455.647	723
456.037	728.4
456.449	718.4
456.862	732.2
457.274	737.8
457.665	728.2
458.077	738.6
458.489	772.6
458.902	728.6
459.293	735.4
459.705	742.6
460.118	733.4
460.53	743.2
460.921	734
461.334	744.2
461.747	748.8
462.16	751.2
462.551	752.4
462.964	754
463.377	735.6
463.79	739.4
464.182	754
464.595	742.6
465.008	754.8
465.421	761.8
465.813	752
466.226	766.4
466.64	741.4
467.053	806.2
467.445	772
467.859	768.4
468.272	762.2
468.686	777.2
469.078	757.6
469.492	753.4
469.906	771
470.298	777.4
470.712	759.2
471.126	821.8
471.54	740.8
471.933	748
472.347	776
472.761	759.4
473.175	757.4
473.568	759.2
473.982	753.8
474.397	763.2
474.79	768
475.204	771.8
475.619	757.8
476.033	774.8
476.426	763.8
476.841	758.2
477.256	787.2
477.649	754.8
478.064	749.4
478.479	750
478.872	761.8
479.287	745.2
479.702	750.6
480.118	756
480.511	763
480.927	747.8
481.342	759
481.736	766.4
482.151	749.2
482.566	767.4
482.96	770.4
483.376	774.2
483.792	755.8
484.186	757
484.602	750.2
485.017	749.4
485.412	756.8
485.827	765
486.243	753.4
486.638	770
487.054	761.8
487.47	776.8
487.865	766
488.281	743.4
488.697	751.8
489.092	744.2
489.508	742
489.925	765.6
490.32	737.6
490.736	755.8
491.153	755.4
491.548	738.6
491.964	758
492.381	733.2
492.776	752.6
493.193	747.4
493.61	745.4
494.006	741.4
494.422	759.2
494.84	735.8
495.235	742.8
495.652	742
496.069	736
496.465	721.4
496.883	738.2
497.3	763
497.696	737.2
498.113	737.4
498.509	728.6
498.927	730
499.344	728
499.741	727.2
500.158	743.4
500.576	739.6
500.973	738.6
501.39	713.6
501.787	711.6
502.205	726.4
502.623	712.2
503.02	716.4
503.438	724.4
503.856	719.2
504.253	728.6
504.671	718.6
505.068	710.6
505.486	712.2
505.905	736.2
506.302	719.2
506.72	718.6
507.118	703.2
507.536	717.2
507.955	704.2
508.352	707.8
508.771	720
509.169	714
509.587	703.6
510.006	702
510.404	689.6
510.823	705
511.221	698.6
511.64	697.6
512.038	715.8
512.457	691.2
512.877	698.4
513.275	693.4
513.694	700.4
514.092	695
514.512	698.8
514.91	697.6
515.33	693.4
515.749	689.6
516.148	700.6
516.568	694.4
516.966	682.4
517.386	681.4
517.785	686.2
518.205	679.4
518.603	682.2
519.024	682.8
519.444	683.4
519.843	689.6
520.263	695.8
520.662	682.6
521.082	681.8
521.481	694.8
521.902	682.6
522.301	682.4
522.722	684.4
523.121	670
523.542	670.4
523.963	674.2
524.362	669.2
524.783	682
525.183	673
525.604	674.6
526.003	664.4
526.425	663
526.824	672.8
527.246	680.4
527.646	680
528.067	672.2
528.467	667.8
528.888	675.2
529.289	666
529.71	660.6
530.11	654.8
530.532	654.6
530.932	658
531.354	660.6
531.755	693.4
532.176	664.8
532.577	667.6
532.999	662.8
533.4	652.4
533.822	661.8
534.223	662.4
534.645	652.2
535.046	644
535.468	655.8
535.869	663.4
536.292	645.6
536.693	683.4
537.115	656
537.516	650.4
537.939	654.2
538.34	668.4
538.742	664.2
539.165	645.8
539.566	659.6
539.989	643.4
540.391	652.8
540.814	649.2
541.216	648.8
541.639	653.4
542.041	657
542.464	643
542.866	652.4
543.268	636
543.691	653
544.093	656.2
544.517	668.8
544.919	633
545.343	675
545.745	644.2
546.147	648.6
546.571	637.6
546.974	634.6
547.398	643.6
547.8	657
548.224	634.2
548.627	633.8
549.03	644
549.454	634.4
549.857	636.6
550.281	639
550.684	631.6
551.087	647.2
551.512	647.2
551.915	641.4
552.34	634.6
552.743	638
553.146	635.2
553.571	631.8
553.975	653.2
554.399	628.6
554.803	673.4
555.207	636
555.632	634.2
556.036	634.8
556.461	627.8
556.865	638.6
557.268	626.6
557.694	630
558.098	633.4
558.502	631.2
558.927	622.8
559.332	629.6
559.736	629.4
560.162	636.6
560.566	634
560.992	635
561.396	630.4
561.801	623.6
562.227	624
562.631	627.2
563.036	625.4
563.462	634.6
563.867	627.8
564.272	603.4
564.698	631.8
565.103	613.2
565.508	641.6
565.935	624.6
566.34	617.4
566.745	643.8
567.172	622.8
567.577	640.4
567.982	633.2
568.409	628.8
568.815	610
569.22	627
569.626	631.2
570.053	612.8
570.459	622.2
570.865	622.2
571.292	628
571.698	622.8
572.104	608.8
572.531	615.6
572.937	619
573.343	627.8
573.75	615.4
574.177	621.6
574.583	628.8
574.99	615.8
575.396	623.8
575.824	621.8
576.231	629.2
576.637	615.2
577.065	638.4
577.472	613.2
577.879	615.6
578.286	626.8
578.714	605.8
579.121	612
579.528	616
579.935	625.4
580.364	607
580.771	600.8
581.178	603.8
581.585	618.4
582.014	621.8
582.421	604.8
582.829	607.2
583.236	622.4
583.644	612.6
584.073	606
584.481	609.2
584.889	601.4
585.296	607.6
585.726	620
586.134	609
586.542	608.8
586.95	638
587.358	595.6
587.787	612
588.196	619.6
588.604	612.4
589.012	616.4
589.421	602.6
589.851	596
590.259	608
590.668	614.8
591.076	643.2
591.485	600
591.894	607
592.324	626
592.733	622.8
593.142	596.6
593.551	608.2
593.96	612
594.369	594.6
594.8	593.2
595.209	609.6
595.618	598.2
596.028	599
596.437	596.4
596.847	606.2
597.256	612.2
597.687	609
598.097	608.4
598.507	588.2
598.917	606.6
599.327	602
599.736	604.6
600.146	612
600.556	603.8
600.988	624.8
601.398	600.4
601.808	610.4
602.219	587.6
602.629	608.8
603.039	602.4
603.45	636.2
603.86	601.2
604.271	615.6
604.703	598.6
605.114	598.2
605.525	605.4
605.935	603
606.346	619.2
606.757	599.8
607.168	600.6
607.579	594.4
607.99	614
608.402	591.8
608.813	601.2
609.224	597.6
609.636	586.2
610.047	595.8
610.48	596.4
610.892	599.6
611.303	612.8
611.715	602.2
612.127	588
612.539	598.8
612.95	594.4
613.362	588.8
613.774	588.8
614.186	596.2
614.599	592
615.011	605.2
615.423	599.4
615.835	589
616.248	596.4
616.66	599.2
617.073	596.8
617.485	594.8
617.898	596.4
618.311	596.6
618.723	598.4
619.136	635.8
619.549	618.6
619.962	616.8
620.375	598.2
620.788	603.4
621.201	592.4
621.614	605.6
622.028	604.8
622.441	602
622.854	611.2
623.268	593.4
623.681	602.8
624.095	604.6
624.509	594.6
624.922	606.6
625.336	590.2
625.728	593.8
626.142	599.2
626.556	607.6
626.97	601.2
627.384	599.2
627.799	591.6
628.213	595.4
628.627	598
629.041	592
629.456	595.8
629.87	602.4
630.285	598.8
630.699	604.4
631.093	591.6
631.507	603
631.922	601.4
632.337	604.8
632.752	585.6
633.167	592.6
633.582	588.2
633.997	591
634.412	590.4
634.806	597.6
635.221	589.6
635.637	601.2
636.052	579.6
636.468	598
636.883	615.4
637.299	595.4
637.715	585.6
638.109	598.6
638.525	583.6
638.941	609.4
639.357	607.2
639.773	605.6
640.189	586
640.584	596.8
641	593.8
641.416	580
641.832	599
642.249	587.8
642.665	589.6
643.06	600
643.477	606.4
643.894	579
644.31	597.6
644.727	597
645.123	588
645.54	586
645.957	586
646.374	606.4
646.77	593.2
647.187	629.6
647.604	592.4
648.021	584.6
648.439	584
648.835	603
649.252	590.4
649.67	590.6
650.088	590.2
650.484	596.8
650.902	596.8
651.32	606.8
651.738	585.6
652.134	598.8
652.552	608.4
652.971	601.2
653.389	597.2
653.786	603.4
654.204	613.2
654.622	586.4
655.019	593.2
655.438	593.8
655.857	589.6
656.275	594.4
656.673	585.4
657.091	599.2
657.51	584.8
657.908	597.4
658.327	605
658.746	581.6
659.144	587
659.563	604.8
659.982	596
660.38	582.2
660.8	590
661.219	596.6
661.617	601
662.037	586.2
662.457	607.2
662.855	580.2
663.275	626.6
663.695	588.2
664.094	595
664.514	592.8
664.934	591.8
665.333	598
665.753	594.2
666.152	581.8
666.572	587.8
666.993	605.6
667.392	590.8
667.812	597.4
668.212	588.6
668.632	601
669.053	588.8
669.453	599
669.874	594.2
670.273	592
670.694	579.6
671.116	603.2
671.515	595.6
671.937	588
672.337	586.4
672.758	588.2
673.158	596
673.58	582.4
673.98	597.6
674.402	600.6
674.824	588
675.224	586.6
675.646	579.6
676.047	590.8
676.469	592.8
676.869	593.2
677.292	593.6
677.693	589.6
678.115	586.6
678.516	599
678.939	600.2
679.34	585.6
679.762	602.4
680.164	592.6
680.586	585.6
680.988	595.4
681.411	606
681.812	587.8
682.236	589
682.637	584.4
683.061	579
683.462	598.2
683.864	588
684.288	595.8
684.69	576.2
685.114	597.2
685.516	596.2
685.94	583.4
686.342	597.6
686.766	584.4
687.168	588.4
687.571	603.6
687.995	589
688.398	580.8
688.822	598.4
689.225	604.6
689.628	612.8
690.052	589
690.456	592.2
690.88	592
691.284	573.2
691.687	596.4
692.112	586.8
692.515	583.4
692.919	588
693.344	590.4
693.747	592.6
694.173	585
694.577	598
694.98	589.2
695.406	587.4
695.81	591
696.214	590.8
696.64	587.8
697.044	597
697.448	603.2
697.874	582.8
698.279	595
698.684	588.6
699.11	582.4
699.514	585.8
699.919	587.6
700.324	581.8
700.75	594
701.156	589
701.561	606.4
701.987	590.2
702.393	607
702.798	598.2
703.203	587.4
703.63	581
704.036	579
704.442	591
704.847	582.6
705.274	589.4
705.68	595.4
706.086	605
706.492	573.8
706.92	589.2
707.326	593
707.732	584.6
708.139	583.4
708.545	583.2
708.973	587.6
709.38	583
709.786	573.6
710.193	610.8
710.6	584.4
711.028	562.4
711.435	588.8
711.842	593
712.249	573.8
712.656	588.2
713.064	594.6
713.492	581
713.9	582
714.307	591.4
714.715	587.8
715.123	593
715.53	586.2
715.938	596.8
716.367	586.2
716.775	589
717.184	585.2
717.592	592.8
718	597.2
718.408	621
718.816	638.6
719.225	587
719.633	585.6
720.042	577.8
720.472	582.8
720.881	606.2
721.29	595.4
721.699	573
722.108	589.8
722.517	593
722.926	584.4
723.335	598
723.744	588.2
724.154	588.4
724.563	584.6
724.973	595.6
725.382	585.6
725.792	585.2
726.202	573.4
726.612	603.6
727.022	584.2
727.432	574.8
779.813	580.2
780.223	626.6
780.634	584.8
781.044	577.8
781.454	581.6
781.865	597
782.276	575.4
782.686	594.2
783.097	581.6
783.508	576.2
783.919	591.4
784.33	590.4
784.741	595.4
785.152	578
785.563	572
785.974	588.2
786.386	592.6
786.776	588.4
787.188	587
787.599	569.6
788.011	595.6
788.423	590
788.835	571.6
789.247	578.6
789.659	581.8
790.071	581
790.483	627.4
790.874	585.2
791.286	601.2
791.699	580.4
792.111	589
792.524	589.6
792.937	578.6
793.349	578.8
793.741	586.4
794.154	589.2
794.567	595.6
794.98	588.8
795.393	574
795.785	608.2
796.198	582.2
796.612	593.2
797.026	580.4
797.439	571.6
797.831	584.8
798.245	575.6
798.659	584.2
799.073	579
799.487	575.8
799.88	588.4
800.294	587
800.708	588.2
801.123	593
801.516	596.8
801.93	568.2
802.345	560.8
802.76	583.2
803.153	601.8
803.568	603.6
803.983	594.4
804.377	592.4
804.792	575.8
805.207	570.2
805.601	574.8
806.016	618
806.432	578
806.826	617.2
807.242	593.8
807.658	590.4
808.052	580.6
808.468	575.4
808.884	577.4
809.279	581.4
809.695	594.6
810.111	603.6
810.506	586.2
810.922	600.8
811.339	589.4
811.734	581
812.151	579.6
812.546	585.2
812.963	579.6
813.38	579.2
813.776	589.2
814.193	608.4
814.589	584.4
815.006	580.8
815.402	577.8
815.82	576.6
816.237	582.2
816.633	593.4
817.051	579.4
817.448	582.8
817.866	570.4
818.262	595.2
818.68	578.2
819.077	582
819.495	583.4
819.892	619.2
820.311	582.6
820.708	583.2
821.127	575
821.524	593.2
821.943	586.6
822.34	602.6
822.759	581.4
823.157	584.8
823.576	595.8
823.974	601.6
824.393	607.2
824.791	581
825.189	575.2
825.609	581.4
826.007	585.8
826.427	580.2
826.826	590.8
827.246	590.6
827.644	574
828.043	602
828.463	573.6
828.862	593
829.261	593.6
829.682	566.2
830.081	583.8
830.502	574.6
830.901	592.6
831.301	607.2
831.722	576.8
832.121	577.2
832.521	582.4
832.943	583.6
833.342	585.8
833.742	580.8
834.164	582.6
834.564	577.6
834.965	584.6
835.386	576.6
835.787	583
836.188	587
836.588	578.4
837.01	584.6
837.411	580.8
837.812	586.4
838.213	586.8
838.636	577.6
839.037	649.2
839.438	594.6
839.84	591.2
840.263	586.2
840.664	590.2
841.066	574
841.468	589.6
841.891	576.2
842.293	597.6
842.695	593.4
843.098	590.2
843.5	580.2
843.902	588.6
844.326	582
844.729	594.2
845.131	597.6
845.534	588.8
845.937	597.8
846.34	609.4
846.764	574.4
847.167	584
847.571	566
847.974	585.2
848.377	579
848.781	629.8
849.184	596.4
849.588	569
849.992	572.6
850.396	589.6
850.821	597.8
851.225	577.4
851.63	570.8
852.034	592.8
852.438	581
852.843	661.6
853.247	574.8
853.652	578
854.057	605.4
854.462	581.6
854.867	589
855.272	612.2
855.677	590.4
856.082	578.2
856.487	565
856.893	592
