#lambda/nm	C1
208.295	512.4
208.67	467
209.045	425.8
209.419	440
209.794	611.8
210.169	602.4
210.544	728.8
210.919	619.6
211.295	600
211.67	619.2
212.045	608
212.421	611.2
212.796	653.4
213.172	608.4
213.547	614
213.923	603.8
214.299	605.2
214.675	621.4
215.051	616.6
215.427	619.4
215.803	629.4
216.179	620.2
216.555	608.2
216.932	624
217.308	612
217.684	614
218.061	623.6
218.438	625.8
218.814	610.6
219.191	621.8
219.568	617.4
219.945	622.6
220.322	622.4
220.699	618.2
221.076	622
221.453	621.6
221.83	615.2
222.208	615.6
222.585	612.2
222.962	616.8
223.34	626.2
223.717	610.8
224.095	618.4
224.473	613
224.851	615.8
225.229	602.2
225.607	635.4
225.985	611.2
226.363	617
226.741	613.8
227.119	617.4
227.497	623.8
227.876	599.2
228.254	624.8
228.633	620
229.011	615.4
229.39	607.2
229.769	621.4
230.148	617
230.527	641
230.905	609.4
231.284	620
231.664	612
232.043	620.8
232.422	618.2
232.801	619.6
233.181	624
233.56	618
233.94	612.4
234.319	602.6
234.699	614.8
235.079	651.6
235.458	652.6
235.838	625
236.218	601.6
236.598	599.8
236.978	598.2
237.358	603.2
237.738	619.6
238.119	625.6
238.499	607.4
238.88	616.4
239.26	631.2
239.641	605
240.021	620.8
240.402	613.2
240.783	604.6
241.163	611.6
241.544	617.2
241.925	614.6
242.306	633.8
242.687	627.4
243.069	622.8
243.45	622.6
243.831	609.8
244.212	614.2
244.594	644.6
244.975	629.4
245.357	617
245.739	610.4
246.12	615.6
246.502	616.6
246.884	617.8
247.266	617.4
247.648	620.2
248.03	640.8
248.412	621.4
248.794	624.6
249.176	612.8
249.559	620.4
249.941	604.6
250.323	600.4
250.706	611
251.089	617.6
251.471	614.8
251.854	611.4
252.237	612.2
252.62	619
253.002	619.6
253.385	611.2
253.769	634.2
254.152	614.2
254.535	632
254.918	616.8
255.301	613.2
255.685	617.2
256.068	612
256.452	644.6
256.835	625.4
257.219	624
257.603	632.8
257.986	610.8
258.37	622.8
258.754	604.6
259.138	620.4
259.522	631.4
259.906	614.4
260.29	619.6
260.675	616.4
261.059	615.6
261.443	608
261.828	618.8
262.212	620.6
262.597	610.4
262.981	613.2
263.366	621
263.751	617.8
264.136	616
264.521	613.4
264.906	610.4
265.291	629.4
265.676	614.6
266.061	620.4
266.446	629.8
266.831	621
267.217	642.8
267.602	616.8
267.987	614.2
268.373	618.2
268.759	636.2
269.144	624.2
269.53	616.4
269.916	607.2
270.302	615
270.688	619.4
271.074	618.4
271.46	630.2
271.846	646.2
272.232	618.6
272.618	608
273.004	610.6
273.391	632.2
273.777	619.8
274.164	618.4
274.55	633.4
274.937	620.8
275.324	621
275.71	622.4
276.097	619
276.484	613.2
276.871	625.6
277.258	620.8
277.645	607.2
278.032	614.8
278.419	610
278.807	620
279.194	611
279.581	611
279.969	625.2
280.356	613.2
280.744	613
281.131	648.4
281.519	623.8
281.907	620.2
282.295	619.6
282.682	624.4
283.07	623.4
283.458	617.4
283.846	628.6
284.235	623.4
284.623	638
285.011	608.6
285.399	630.2
285.788	610
286.176	604.6
286.565	627.6
286.953	613.4
287.342	611
287.731	610.8
288.119	610.2
288.508	608.2
288.897	621
289.286	597.8
289.675	620
290.064	623
290.453	615
290.821	622.4
291.21	625.2
291.599	614
291.989	621
292.378	618.4
292.768	635.8
293.157	623.8
293.547	618.8
293.936	614.6
294.326	614
294.716	627.4
295.106	616.8
295.496	617
295.886	624.4
296.276	615.4
296.666	606.4
297.056	608.6
297.446	603.8
297.836	634
298.227	607.2
298.617	614.2
299.008	626.6
299.398	620.8
299.789	606.6
300.179	616.4
300.57	635.2
300.961	619.2
301.352	606.2
301.742	625
302.133	612.2
302.524	623
302.915	616.6
303.307	600
303.698	627.4
304.089	624.6
304.48	612.4
304.872	619.6
305.263	619.8
305.655	611.6
306.046	618.2
306.438	620
306.829	609.6
307.221	635.8
307.613	622.6
308.005	632.4
308.397	627.6
308.789	640.6
309.181	642
309.573	641.2
309.965	633.4
310.357	616.2
310.749	630.6
311.142	610.6
311.534	614
311.926	624.6
312.319	610.6
312.711	612
313.104	629.8
313.497	612
313.889	650
314.282	632.2
314.675	642.2
315.068	618.6
315.461	622
315.854	649
316.247	621.6
316.64	613
317.033	618.2
317.405	626.6
317.798	608.8
318.192	615.2
318.585	610.8
318.979	630
319.372	609.4
319.766	609.4
320.16	626.2
320.553	628.8
320.947	635.6
321.341	617.4
321.735	624.2
322.129	606.2
322.523	634.6
322.917	606
323.311	619.6
323.705	618.6
324.099	625.8
324.494	629.8
324.888	626.6
325.282	612.8
325.677	628.4
326.071	622.4
326.466	624
326.861	618
327.255	631.6
327.65	630.4
328.045	634.6
328.44	627.6
328.835	622.2
329.23	613
329.625	645
330.02	618.6
330.415	633.6
330.81	619.8
331.206	610.4
331.601	610
331.996	624.6
332.37	631
332.766	615.6
333.161	639.2
333.557	615.4
333.953	619.6
334.348	984.4
334.744	620.8
335.14	613.4
335.536	613.2
335.932	628.2
336.328	619
336.724	619.2
337.12	612.8
337.516	623.6
337.913	615
338.309	629.8
338.705	613.8
339.102	618.8
339.498	616.2
339.895	633.6
340.291	610.6
340.688	625.8
341.085	611.6
341.481	610.6
341.878	608.8
342.275	635.8
342.672	610.4
343.069	608.2
343.466	606.4
343.842	620.8
344.239	604.4
344.636	613.4
345.033	610.6
345.431	610.4
345.828	615.2
346.225	614
346.623	656.4
347.02	611
347.418	629.8
347.816	631.6
348.213	601.6
348.611	623.6
349.009	615.4
349.407	629.4
349.805	608.2
350.203	607.2
350.601	632.8
350.999	609.2
351.397	664
351.795	614.4
352.193	624.2
352.57	622.6
352.969	628.6
353.367	609.8
353.766	610.4
354.164	609
354.563	618.4
354.961	610.4
355.36	613
355.759	613.6
356.158	606.2
356.557	607.8
356.956	608.4
357.355	604
357.754	616.6
358.153	618.8
358.552	648
358.951	616.4
359.35	628.6
359.75	619.6
360.149	606.4
360.527	601.6
360.926	605.8
361.326	617.6
361.726	609.6
362.125	603.8
362.525	625.2
362.925	614.8
363.325	612.4
363.724	613.8
364.124	609.4
364.524	601
364.924	612.4
365.324	622
365.725	604.8
366.125	620
366.525	608
366.904	606.8
367.304	593.8
367.705	624.8
368.105	627.4
368.506	614
368.906	611.4
369.307	612.2
369.708	624.2
370.108	596
370.509	619.6
370.91	606
371.311	612
371.712	610.2
372.113	603.8
372.514	600.8
372.894	606.2
373.295	609.8
373.696	628.6
374.097	615.6
374.499	642.4
374.9	618.6
375.301	601.4
375.703	611.2
376.105	604.6
376.506	614
376.908	611.6
377.309	608.2
377.711	616
378.113	608
378.493	607
378.895	610.4
379.297	624.2
379.699	601.2
380.102	605.4
380.504	610.8
380.906	609.4
381.308	627
381.71	615.6
382.113	613
382.515	604.6
382.918	615.8
383.299	613.2
383.701	620
384.104	611.6
384.507	589.6
384.909	602.2
385.312	598
385.715	599
386.118	609.4
386.521	599.4
386.924	614.2
387.327	607
387.709	598.2
388.112	594.6
388.515	607
388.918	622.2
389.322	611.6
389.725	603.4
390.129	636.6
390.532	613.4
390.936	602
391.339	601.6
391.743	618
392.125	607.2
392.529	617.2
392.933	618.4
393.337	607.4
393.74	611.2
394.144	615
394.548	603.6
394.953	596.6
395.357	610.4
395.761	597.8
396.144	609.2
396.548	613
396.952	604.8
397.357	615.4
397.761	597.6
398.166	602
398.57	606
398.975	598.8
399.379	612
399.763	646.4
400.168	609
400.572	606.4
400.977	600.6
401.382	623
401.787	619
402.192	629.6
402.597	621
403.002	598.6
403.386	624
403.791	619.2
404.197	605.6
404.602	603.8
405.007	609.2
405.413	607.8
405.818	615.6
406.224	612.4
406.608	604.2
407.014	601.4
407.42	621.2
407.825	597
408.231	615.6
408.637	608.6
409.043	624.4
409.449	608
409.834	604.4
410.24	613.6
410.646	621.4
411.052	613.2
411.458	604.8
411.865	613
412.271	614.6
412.677	607
413.062	613.8
413.469	603.8
413.875	640.4
414.282	628.6
414.689	613.8
415.095	615
415.502	603.2
415.888	607.8
416.294	594.6
416.701	651.4
417.108	611
417.515	618.2
417.923	613.8
418.33	628.6
418.715	620.2
419.123	608
419.53	607.6
419.937	605.2
420.345	621.8
420.752	606.8
421.16	632
421.546	607.8
421.953	620.4
422.361	599.4
422.769	602
423.177	607
423.585	629.4
423.992	625
424.379	616.6
424.787	618
425.195	639.8
425.603	602.4
426.011	615.2
426.419	631
426.806	615.6
427.214	611.6
427.623	617.8
428.031	628
428.44	615.2
428.848	622.6
429.235	625.6
429.644	621
430.053	612
430.461	632.4
430.87	648.8
431.279	635.6
431.666	622.4
432.075	620
432.484	623.4
432.893	621.4
433.302	651
433.711	683.4
434.099	642.8
434.508	643.8
434.918	643
435.327	656.8
435.737	663.6
436.125	670.8
436.534	676
436.944	681.6
437.353	699.2
437.763	713.8
438.173	692.2
438.561	726.6
438.971	701.8
439.381	720.4
439.791	733.2
440.201	719
440.589	740.4
440.999	754.4
441.409	757.2
441.819	749.6
442.23	777.2
442.619	781.8
443.029	788
443.439	793.8
443.85	809
444.26	807
444.649	812.4
445.06	802.4
445.471	812.4
445.881	819.6
446.292	835.4
446.682	855.4
447.092	814.6
447.503	895.2
447.914	842.4
448.325	848.8
448.715	844.2
449.126	837
449.537	846.6
449.948	839.4
450.338	842.8
450.75	862.6
451.161	863.8
451.572	864.8
451.984	863
452.374	837.8
452.786	858.2
453.197	865.4
453.609	867.8
453.999	863.2
454.411	849.4
454.823	885
455.235	875.2
455.647	866.2
456.037	868.8
456.449	861.2
456.862	871.8
457.274	880.8
457.665	874.4
458.077	887.6
458.489	905.4
458.902	896.6
459.293	887.4
459.705	884.4
460.118	881
460.53	888.6
460.921	886.4
461.334	889.8
461.747	890.6
462.16	905
462.551	896.6
462.964	906.8
463.377	882.4
463.79	900.4
464.182	900.8
464.595	891.2
465.008	903
465.421	894
465.813	894.8
466.226	901.2
466.64	906.8
467.053	942
467.445	905
467.859	915
468.272	905.2
468.686	918.6
469.078	904.8
469.492	898.4
469.906	898
470.298	906.8
470.712	895.6
471.126	951
471.54	886.2
471.933	890.2
472.347	890
472.761	901
473.175	903
473.568	894.8
473.982	894.2
474.397	908
474.79	894
475.204	892.4
475.619	898.4
476.033	892.4
476.426	889.6
476.841	889.4
477.256	913.4
477.649	881.6
478.064	884.4
478.479	880.8
478.872	877.8
479.287	858.4
479.702	876.8
480.118	887
480.511	880.2
480.927	876.2
481.342	892.2
481.736	880.8
482.151	873.8
482.566	892.6
482.96	869.6
483.376	877.6
483.792	858.2
484.186	879.2
484.602	868
485.017	875
485.412	869
485.827	866.2
486.243	864.2
486.638	891.6
487.054	872
487.47	877.8
487.865	858.4
488.281	852.4
488.697	856.4
489.092	859.4
489.508	849.8
489.925	860
490.32	842
490.736	858.2
491.153	849.8
491.548	839.4
491.964	847
492.381	825.4
492.776	843.4
493.193	849.4
493.61	831
494.006	838.2
494.422	840.6
494.84	825.4
495.235	836.6
495.652	820.4
496.069	824.2
496.465	810.8
496.883	833
497.3	850.4
497.696	814.4
498.113	826.6
498.509	809
498.927	805.6
499.344	801.8
499.741	816.2
500.158	818.4
500.576	807
500.973	805.6
501.39	795.8
501.787	792.2
502.205	809.4
502.623	800.6
503.02	786.8
503.438	780.4
503.856	798.6
504.253	789
504.671	796.8
505.068	791.2
505.486	781.4
505.905	796
506.302	790
506.72	802.4
507.118	770.6
507.536	776
507.955	776.6
508.352	765.4
508.771	779
509.169	776
509.587	761.8
510.006	764.8
510.404	757
510.823	767
511.221	751.2
511.64	750.4
512.038	771.8
512.457	755.6
512.877	748.6
513.275	754.8
513.694	747.4
514.092	750.4
514.512	754
514.91	760.2
515.33	755.6
515.749	748.2
516.148	753.6
516.568	752.4
516.966	743.8
517.386	732
517.785	740.2
518.205	734.4
518.603	731.2
519.024	723.6
519.444	732.6
519.843	735
520.263	743
520.662	729.2
521.082	724
521.481	724.2
521.902	727.8
522.301	729.2
522.722	716
523.121	723.8
523.542	718.6
523.963	722.2
524.362	721
524.783	716.2
525.183	707
525.604	723.2
526.003	704.2
526.425	699.4
526.824	715.6
527.246	712
527.646	714.6
528.067	710.6
528.467	707.8
528.888	704.8
529.289	700.4
529.71	699.2
530.11	696
530.532	700.2
530.932	686.8
531.354	685.2
531.755	723
532.176	703.6
532.577	687.2
532.999	695.4
533.4	679.2
533.822	701.4
534.223	703.6
534.645	682.8
535.046	683.2
535.468	684
535.869	702.4
536.292	678.2
536.693	712.8
537.115	686
537.516	683.6
537.939	675.4
538.34	698.6
538.742	693
539.165	673.4
539.566	687
539.989	681.4
540.391	673.4
540.814	672.2
541.216	677
541.639	675.2
542.041	679.4
542.464	666.2
542.866	668.4
543.268	663.4
543.691	681.4
544.093	678.6
544.517	685.4
544.919	663.4
545.343	694.2
545.745	669.6
546.147	674
546.571	672.8
546.974	661
547.398	671
547.8	685.2
548.224	654.4
548.627	655
549.03	668.2
549.454	646
549.857	656.2
550.281	645.4
550.684	657.2
551.087	662
551.512	657.6
551.915	659.6
552.34	648.6
552.743	648
553.146	657.2
553.571	654.8
553.975	667
554.399	646.8
554.803	701.8
555.207	640.4
555.632	645.2
556.036	647.4
556.461	643.8
556.865	652.8
557.268	649.4
557.694	645.4
558.098	651.8
558.502	646.6
558.927	639.6
559.332	644
559.736	646.4
560.162	654.6
560.566	641
560.992	651.8
561.396	643.8
561.801	632.8
562.227	651
562.631	641.6
563.036	640.4
563.462	649.6
563.867	638.4
564.272	625.4
564.698	641.2
565.103	628.2
565.508	658.8
565.935	639.2
566.34	629.4
566.745	644.8
567.172	627.6
567.577	650.4
567.982	651.6
568.409	623.2
568.815	622
569.22	626.8
569.626	642
570.053	624
570.459	635.8
570.865	640.8
571.292	634.8
571.698	633
572.104	618.8
572.531	620.2
572.937	635
573.343	627
573.75	626.6
574.177	622.8
574.583	626.2
574.99	627.2
575.396	637.4
575.824	627
576.231	637.8
576.637	621.8
577.065	657.6
577.472	625.6
577.879	619.8
578.286	644.8
578.714	612
579.121	624.8
579.528	626
579.935	630.8
580.364	621.6
580.771	596.2
581.178	613.8
581.585	620
582.014	639.6
582.421	614.4
582.829	612.8
583.236	629.2
583.644	619.8
584.073	617.8
584.481	607.4
584.889	607.4
585.296	615.6
585.726	608
586.134	612.4
586.542	609.8
586.95	632.6
587.358	597.6
587.787	618.2
588.196	621.6
588.604	617.4
589.012	612
589.421	610.8
589.851	613.2
590.259	615.4
590.668	606.2
591.076	648.4
591.485	591.4
591.894	611
592.324	622
592.733	627
593.142	603
593.551	608
593.96	647.6
594.369	595.6
594.8	609.2
595.209	606
595.618	596
596.028	602
596.437	599.8
596.847	615.4
597.256	619.2
597.687	615.2
598.097	605.2
598.507	588.2
598.917	605.8
599.327	612.6
599.736	617.2
600.146	614.6
600.556	611.8
600.988	623
601.398	602
601.808	619
602.219	589.6
602.629	608.2
603.039	606.8
603.45	631.8
603.86	601.6
604.271	611.2
604.703	601
605.114	596.6
605.525	597.2
605.935	602.4
606.346	617.4
606.757	609.4
607.168	602.6
607.579	605
607.99	615.4
608.402	606.2
608.813	608.2
609.224	605.2
609.636	595.8
610.047	599.2
610.48	603.8
610.892	609.4
611.303	613
611.715	602.4
612.127	588.8
612.539	603.8
612.95	602.2
613.362	593
613.774	594.2
614.186	600
614.599	599.8
615.011	613
615.423	611.6
615.835	595.4
616.248	588.4
616.66	609.2
617.073	597.2
617.485	600.8
617.898	612
618.311	605
618.723	597.4
619.136	622.4
619.549	607.8
619.962	628.2
620.375	597
620.788	600
621.201	594.8
621.614	595.8
622.028	604
622.441	606.2
622.854	619.2
623.268	595.4
623.681	605.4
624.095	603.8
624.509	601.2
624.922	603
625.336	596.6
625.728	601.6
626.142	607
626.556	617.6
626.97	608
627.384	594.6
627.799	589.8
628.213	610
628.627	605
629.041	607.8
629.456	590.6
629.87	596.6
630.285	611
630.699	608.4
631.093	599.4
631.507	600.4
631.922	603.4
632.337	613.4
632.752	595.8
633.167	596
633.582	599.4
633.997	590
634.412	592
634.806	594.8
635.221	595
635.637	604.2
636.052	589.8
636.468	600.4
636.883	616
637.299	599.2
637.715	593.4
638.109	601.6
638.525	578.4
638.941	612.8
639.357	604.4
639.773	602.4
640.189	600.6
640.584	601
641	598.6
641.416	589.6
641.832	604.4
642.249	595.4
642.665	599.2
643.06	601.6
643.477	613
643.894	584.4
644.31	605.6
644.727	603
645.123	594.2
645.54	589.2
645.957	604.8
646.374	600.8
646.77	602.6
647.187	628.6
647.604	596.4
648.021	587.6
648.439	598.6
648.835	607.8
649.252	596.2
649.67	601.4
650.088	604
650.484	594.4
650.902	604.8
651.32	599.4
651.738	589.6
652.134	596.8
652.552	620
652.971	605.2
653.389	600.6
653.786	614.2
654.204	613.4
654.622	584.8
655.019	590
655.438	598.6
655.857	585.6
656.275	601.8
656.673	587.6
657.091	603.2
657.51	591.4
657.908	599.2
658.327	614.8
658.746	582.6
659.144	594
659.563	616
659.982	591.8
660.38	584.6
660.8	594.4
661.219	601.2
661.617	599.2
662.037	594
662.457	597.6
662.855	575
663.275	628.8
663.695	587.8
664.094	588.4
664.514	596.8
664.934	587.6
665.333	601.6
665.753	585.6
666.152	582.8
666.572	587.8
666.993	605.6
667.392	586.6
667.812	587.2
668.212	589.4
668.632	596
669.053	586.2
669.453	588.8
669.874	592.2
670.273	597.4
670.694	589.8
671.116	605.2
671.515	595
671.937	584.2
672.337	589.8
672.758	584.2
673.158	605.4
673.58	584.4
673.98	597.4
674.402	601.2
674.824	584.8
675.224	577
675.646	583.8
676.047	600.8
676.469	591.2
676.869	596.6
677.292	593.6
677.693	591.2
678.115	589.8
678.516	595.6
678.939	590.8
679.34	591.6
679.762	604.2
680.164	585.6
680.586	584.2
680.988	592.8
681.411	614.2
681.812	584
682.236	588.6
682.637	588
683.061	577
683.462	596.2
683.864	586.2
684.288	593
684.69	578.6
685.114	599.6
685.516	591.6
685.94	576.8
686.342	595.6
686.766	584.4
687.168	587.6
687.571	599.2
687.995	591.8
688.398	586.4
688.822	576.6
689.225	607.8
689.628	608
690.052	591.8
690.456	594.4
690.88	585.6
691.284	578
691.687	590.4
692.112	574.8
692.515	582.6
692.919	591.8
693.344	598.8
693.747	584
694.173	584.6
694.577	593.2
694.98	582.8
695.406	593.4
695.81	593
696.214	589.2
696.64	594.6
697.044	591.2
697.448	604.6
697.874	589
698.279	591
698.684	568.6
699.11	581.2
699.514	591.2
699.919	580.2
700.324	577.8
700.75	591.8
701.156	581.4
701.561	602.2
701.987	590.8
702.393	594.2
702.798	601.4
703.203	588
703.63	583.4
704.036	591.6
704.442	583.6
704.847	574.8
705.274	587.4
705.68	593
706.086	593.4
706.492	587
706.92	590.8
707.326	601.4
707.732	578
708.139	574.4
708.545	576.4
708.973	584.8
709.38	590.8
709.786	570.4
710.193	593.8
710.6	593.8
711.028	580
711.435	589.2
711.842	586.6
712.249	581.8
712.656	589.2
713.064	595
713.492	576
713.9	587.2
714.307	591.2
714.715	583.6
715.123	588.2
715.53	593.2
715.938	602.8
716.367	588.4
716.775	588.8
717.184	569.6
717.592	591.8
718	598.8
718.408	615.8
718.816	627.2
719.225	585.6
719.633	597.4
720.042	576.8
720.472	584
720.881	608.4
721.29	583.6
721.699	575
722.108	584.2
722.517	590.2
722.926	581.4
723.335	593.2
723.744	589
724.154	596
724.563	589.2
724.973	589.6
725.382	583.4
725.792	589
726.202	571.6
726.612	603.2
727.022	592.4
727.432	578.6
779.813	585.8
780.223	625
780.634	584
781.044	574.6
781.454	585.2
781.865	600
782.276	574
782.686	599.6
783.097	588.2
783.508	580.2
783.919	580.4
784.33	601.4
784.741	599.4
785.152	576.8
785.563	569.2
785.974	583.4
786.386	594.4
786.776	584.6
787.188	583.4
787.599	583
788.011	585.4
788.423	591.6
788.835	583.4
789.247	583.8
789.659	583
790.071	581.4
790.483	634.6
790.874	578.2
791.286	592
791.699	583
792.111	585.8
792.524	589.6
792.937	579.2
793.349	580.8
793.741	586.8
794.154	579.6
794.567	603
794.98	584.2
795.393	585.2
795.785	600.4
796.198	575.6
796.612	587.8
797.026	576.6
797.439	561.6
797.831	586.2
798.245	586.8
798.659	587.8
799.073	582
799.487	578.8
799.88	585.4
800.294	582.6
800.708	593
801.123	582
801.516	612
801.93	565.8
802.345	570
802.76	582.6
803.153	602
803.568	596.6
803.983	588
804.377	593.2
804.792	575.8
805.207	571
805.601	585
806.016	617.8
806.432	575.2
806.826	611.6
807.242	600.4
807.658	600.2
808.052	580.6
808.468	574.8
808.884	574.4
809.279	584.6
809.695	589.2
810.111	613.4
810.506	586.4
810.922	599.8
811.339	581.2
811.734	598.4
812.151	576.4
812.546	581
812.963	586.8
813.38	587.4
813.776	589.4
814.193	608.8
814.589	578.8
815.006	578.6
815.402	572
815.82	582.4
816.237	588
816.633	584.4
817.051	575.6
817.448	590.2
817.866	575.4
818.262	602.8
818.68	580.6
819.077	577.8
819.495	582
819.892	627.2
820.311	573.2
820.708	583.2
821.127	581.6
821.524	594.8
821.943	583.2
822.34	590.2
822.759	589.8
823.157	584.6
823.576	603.8
823.974	589
824.393	633
824.791	579.2
825.189	569.4
825.609	585.6
826.007	582.4
826.427	577.6
826.826	575.2
827.246	585
827.644	569.2
828.043	593.4
828.463	574.2
828.862	595.4
829.261	587.2
829.682	575.2
830.081	595
830.502	579
830.901	583
831.301	604.2
831.722	568.4
832.121	578
832.521	572.6
832.943	576
833.342	580.6
833.742	582.4
834.164	583.4
834.564	579.2
834.965	578.4
835.386	579.4
835.787	580.8
836.188	580.4
836.588	584
837.01	586.6
837.411	577.8
837.812	590
838.213	593.6
838.636	575
839.037	647.2
839.438	589.2
839.84	579.2
840.263	584.6
840.664	587.4
841.066	580
841.468	587.2
841.891	577.6
842.293	590.8
842.695	590
843.098	591.8
843.5	578
843.902	595.4
844.326	583.8
844.729	589.8
845.131	596.2
845.534	589.6
845.937	588.2
846.34	596
846.764	578
847.167	577.8
847.571	577.8
847.974	578.6
848.377	570.4
848.781	631.8
849.184	587.4
849.588	570.2
849.992	579.4
850.396	584.2
850.821	598.2
851.225	573.4
851.63	582.4
852.034	588.6
852.438	589.4
852.843	607
853.247	584.6
853.652	578.2
854.057	595
854.462	580
854.867	587.8
855.272	612
855.677	586
856.082	574.6
856.487	576.8
856.893	584.8
857.298	580
857.704	572.4
858.11	584.6
