#lambda/nm	C1
208.295	508.8
208.67	465.2
209.045	424
209.419	431.8
209.794	615.2
210.169	596.4
210.544	722
210.919	616.8
211.295	599
211.67	616.4
212.045	614.2
212.421	603.4
212.796	656.8
213.172	606.6
213.547	606
213.923	618.2
214.299	606
214.675	617.8
215.051	622.4
215.427	622.6
215.803	633.4
216.179	620.6
216.555	601
216.932	623.4
217.308	613.8
217.684	616.4
218.061	617
218.438	620.8
218.814	602.8
219.191	622.8
219.568	611.6
219.945	607
220.322	621.2
220.699	615
221.076	629
221.453	622.4
221.83	604.4
222.208	607.8
222.585	617.4
222.962	613.2
223.34	620
223.717	612.2
224.095	618.6
224.473	621.2
224.851	614
225.229	604.4
225.607	633.2
225.985	609.6
226.363	610.4
226.741	614.8
227.119	610.8
227.497	629.2
227.876	601.2
228.254	620.6
228.633	626.2
229.011	616.2
229.39	621.8
229.769	623.6
230.148	620.6
230.527	631.6
230.905	604.2
231.284	611.2
231.664	609
232.043	619
232.422	625
232.801	614.4
233.181	610.4
233.56	613
233.94	603.4
234.319	597.2
234.699	608
235.079	655
235.458	647.8
235.838	629.6
236.218	605.4
236.598	601.4
236.978	611.2
237.358	608.6
237.738	603.2
238.119	613.2
238.499	610.8
238.88	610.4
239.26	629.4
239.641	601
240.021	611.4
240.402	608.8
240.783	601.4
241.163	616.6
241.544	618.6
241.925	619.6
242.306	628
242.687	617.8
243.069	620.4
243.45	622.4
243.831	604.4
244.212	609.4
244.594	641
244.975	619.2
245.357	608
245.739	609.4
246.12	615.8
246.502	640.2
246.884	613.4
247.266	618.4
247.648	616.2
248.03	633.6
248.412	615
248.794	619.4
249.176	610.4
249.559	626.4
249.941	604.6
250.323	601.4
250.706	604.2
251.089	611.2
251.471	620.4
251.854	617.2
252.237	609
252.62	629.6
253.002	619.4
253.385	612.4
253.769	632.2
254.152	619.6
254.535	624.2
254.918	607
255.301	610.2
255.685	617.4
256.068	608.2
256.452	636.8
256.835	617.8
257.219	620.2
257.603	618
257.986	608.2
258.37	613.2
258.754	599
259.138	613.4
259.522	616.8
259.906	604
260.29	609.2
260.675	606.8
261.059	619.2
261.443	604.2
261.828	629
262.212	621.4
262.597	598.2
262.981	610.4
263.366	622.8
263.751	620.2
264.136	608.8
264.521	607.6
264.906	608.6
265.291	616.8
265.676	609.8
266.061	619.6
266.446	633.6
266.831	620
267.217	630
267.602	621.8
267.987	621
268.373	605.8
268.759	627
269.144	619
269.53	604
269.916	610.2
270.302	611.4
270.688	610.8
271.074	619.6
271.46	621
271.846	639.2
272.232	614.4
272.618	610.4
273.004	611.6
273.391	623
273.777	629.2
274.164	621.2
274.55	626.2
274.937	625.2
275.324	613.6
275.71	622
276.097	619.2
276.484	613.4
276.871	615.2
277.258	618.2
277.645	605.8
278.032	610.8
278.419	611.8
278.807	619.2
279.194	604.2
279.581	616.6
279.969	620.2
280.356	621.6
280.744	611.2
281.131	648.8
281.519	623.4
281.907	610
282.295	607
282.682	622.4
283.07	612.2
283.458	628.4
283.846	625.2
284.235	630.8
284.623	620.4
285.011	615.2
285.399	619.4
285.788	616.6
286.176	610
286.565	629.8
286.953	612.8
287.342	614.8
287.731	607.2
288.119	611.8
288.508	618.8
288.897	622
289.286	600
289.675	611.2
290.064	625.6
290.453	605.8
290.821	614.6
291.21	626.2
291.599	615.6
291.989	617
292.378	623
292.768	630.8
293.157	626.2
293.547	627.2
293.936	614
294.326	606
294.716	619.2
295.106	610.8
295.496	628
295.886	629.6
296.276	617.6
296.666	605
297.056	602.4
297.446	604.8
297.836	632
298.227	613.8
298.617	622.8
299.008	623.8
299.398	614.6
299.789	605
300.179	616.2
300.57	620.8
300.961	618.4
301.352	612
301.742	619
302.133	617
302.524	608.6
302.915	612.4
303.307	614
303.698	633.2
304.089	624.4
304.48	615.6
304.872	619.8
305.263	619
305.655	618.4
306.046	624.2
306.438	614.2
306.829	616.4
307.221	620.2
307.613	623.2
308.005	615.4
308.397	633
308.789	640.6
309.181	635.6
309.573	633.4
309.965	629.6
310.357	621.4
310.749	630.4
311.142	612
311.534	614
311.926	628
312.319	623.6
312.711	607.8
313.104	635.8
313.497	622.2
313.889	651.8
314.282	633.8
314.675	640.6
315.068	621.2
315.461	621.8
315.854	641.4
316.247	619.8
316.64	624.8
317.033	621
317.405	622.4
317.798	618
318.192	616.4
318.585	611
318.979	617.6
319.372	614.4
319.766	607.8
320.16	635
320.553	625.2
320.947	631.6
321.341	613.6
321.735	612.6
322.129	603.8
322.523	641.4
322.917	614.8
323.311	620.8
323.705	614.2
324.099	625
324.494	627.8
324.888	630.4
325.282	619.8
325.677	636.4
326.071	626.2
326.466	639
326.861	617.8
327.255	620.6
327.65	632.8
328.045	630.6
328.44	614.6
328.835	612.6
329.23	608.2
329.625	644.6
330.02	607.8
330.415	640.8
330.81	610.4
331.206	617.8
331.601	618
331.996	627.6
332.37	640.4
332.766	608.6
333.161	633
333.557	610
333.953	623.2
334.348	891.2
334.744	615.8
335.14	615.2
335.536	613
335.932	627.2
336.328	615.8
336.724	617.8
337.12	618
337.516	622
337.913	610.2
338.309	622.2
338.705	613.6
339.102	626.4
339.498	615.2
339.895	628.4
340.291	610.4
340.688	627.4
341.085	606.8
341.481	615
341.878	617.8
342.275	639
342.672	602
343.069	611.8
343.466	596
343.842	625.8
344.239	615
344.636	613.6
345.033	609.2
345.431	613.4
345.828	613.4
346.225	607.6
346.623	653.4
347.02	616.4
347.418	619.4
347.816	629.2
348.213	602.2
348.611	623.4
349.009	608.6
349.407	623.6
349.805	598
350.203	607.6
350.601	626
350.999	612.8
351.397	674.8
351.795	610.6
352.193	619.4
352.57	625.4
352.969	621.6
353.367	600.2
353.766	608.4
354.164	618.4
354.563	621.8
354.961	607.8
355.36	604.2
355.759	606.6
356.158	600
356.557	608
356.956	597.2
357.355	590.6
357.754	613.4
358.153	616
358.552	633.6
358.951	615
359.35	628.4
359.75	602.2
360.149	607.8
360.527	594.6
360.926	601
361.326	620.8
361.726	606.4
362.125	602.8
362.525	612.4
362.925	610.4
363.325	608.8
363.724	613.4
364.124	605
364.524	607.2
364.924	606.2
365.324	621.8
365.725	579.2
366.125	611.2
366.525	603.6
366.904	605
367.304	593.4
367.705	627
368.105	622.6
368.506	612.6
368.906	603.8
369.307	606.4
369.708	623
370.108	598.6
370.509	613.2
370.91	605.8
371.311	612.2
371.712	618.8
372.113	607
372.514	593
372.894	601
373.295	608.2
373.696	613.8
374.097	617.6
374.499	636.4
374.9	613
375.301	598.6
375.703	613.4
376.105	596.8
376.506	616.2
376.908	608.6
377.309	605
377.711	604.2
378.113	604.8
378.493	610.4
378.895	599.6
379.297	615.4
379.699	593.8
380.102	619.4
380.504	609.8
380.906	607.4
381.308	641.2
381.71	607
382.113	615.6
382.515	605.8
382.918	610.4
383.299	609.4
383.701	621.4
384.104	616.8
384.507	594.2
384.909	599.8
385.312	591.8
385.715	600
386.118	606.6
386.521	591.4
386.924	615.8
387.327	599.6
387.709	598.4
388.112	585.8
388.515	603.4
388.918	604.2
389.322	608
389.725	599.2
390.129	627.6
390.532	617.4
390.936	600.8
391.339	592
391.743	609.6
392.125	595.6
392.529	623.8
392.933	617.8
393.337	609.6
393.74	604.6
394.144	610.2
394.548	594.4
394.953	598.6
395.357	607.6
395.761	607.4
396.144	605.8
396.548	607
396.952	615
397.357	610.8
397.761	603.2
398.166	608.2
398.57	601.6
398.975	600.2
399.379	608.4
399.763	653.4
400.168	609.2
400.572	601.8
400.977	604.8
401.382	622
401.787	614.2
402.192	628.4
402.597	626.8
403.002	598.2
403.386	623.2
403.791	619.4
404.197	596
404.602	609.4
405.007	605.6
405.413	592.8
405.818	607.6
406.224	599.4
406.608	601.2
407.014	604
407.42	632
407.825	600
408.231	617.6
408.637	618
409.043	629.4
409.449	600.6
409.834	605.6
410.24	610.6
410.646	621.2
411.052	619
411.458	615.8
411.865	609.2
412.271	622.2
412.677	610.2
413.062	616.8
413.469	602
413.875	640.4
414.282	622
414.689	608.8
415.095	610.2
415.502	608
415.888	616.2
416.294	598.2
416.701	651.8
417.108	605
417.515	616.4
417.923	609.2
418.33	626.2
418.715	618.8
419.123	604.6
419.53	607.2
419.937	608.6
420.345	622.2
420.752	607.2
421.16	622.6
421.546	607.2
421.953	620.8
422.361	589.8
422.769	612
423.177	607
423.585	629.8
423.992	624
424.379	621.8
424.787	618.4
425.195	627
425.603	602.6
426.011	625
426.419	616.6
426.806	617.2
427.214	608.4
427.623	620
428.031	627.2
428.44	615.6
428.848	630
429.235	629.2
429.644	614.6
430.053	609.8
430.461	628
430.87	633.6
431.279	617.2
431.666	610.8
432.075	610
432.484	624.6
432.893	612.8
433.302	637.6
433.711	649.2
434.099	624.4
434.508	614.2
434.918	606.4
435.327	637.2
435.737	625.4
436.125	633.2
436.534	628.2
436.944	635.4
437.353	637.2
437.763	659.6
438.173	633.2
438.561	651.6
438.971	636.8
439.381	637.2
439.791	654.6
440.201	630.2
440.589	657
440.999	666.4
441.409	664.2
441.819	661
442.23	683.4
442.619	679.4
443.029	675.6
443.439	681
443.85	694.2
444.26	700
444.649	691.6
445.06	689
445.471	694.6
445.881	704.4
446.292	715
446.682	727.4
447.092	692.4
447.503	757.6
447.914	712
448.325	717.6
448.715	711.2
449.126	717.6
449.537	711
449.948	721
450.338	721.6
450.75	729.2
451.161	719.2
451.572	731.4
451.984	724.4
452.374	709.2
452.786	730.4
453.197	727.2
453.609	729.6
453.999	708.6
454.411	724.2
454.823	741.2
455.235	733.2
455.647	725.6
456.037	743
456.449	724
456.862	733.2
457.274	729.8
457.665	728.4
458.077	746.6
458.489	757.6
458.902	739.2
459.293	743.8
459.705	726.2
460.118	729.8
460.53	736.8
460.921	734.2
461.334	740.2
461.747	740.8
462.16	748.4
462.551	747.8
462.964	734.6
463.377	726.4
463.79	735.4
464.182	746.4
464.595	736.6
465.008	742.8
465.421	749
465.813	736.2
466.226	754.2
466.64	738
467.053	786.8
467.445	763.6
467.859	773.6
468.272	747.2
468.686	745.2
469.078	747.2
469.492	737
469.906	740.4
470.298	746.4
470.712	737.2
471.126	796.6
471.54	737
471.933	732.4
472.347	745
472.761	736.8
473.175	740.8
473.568	742.2
473.982	730.4
474.397	746
474.79	743
475.204	748.8
475.619	750.2
476.033	753.8
476.426	739
476.841	742.2
477.256	760
477.649	733.4
478.064	736.6
478.479	732.4
478.872	738.4
479.287	729.2
479.702	729.6
480.118	738.4
480.511	732.2
480.927	735.6
481.342	734.4
481.736	742.6
482.151	732
482.566	752
482.96	736
483.376	750.8
483.792	727.6
484.186	733.6
484.602	723.6
485.017	732.6
485.412	738.6
485.827	736.6
486.243	729.4
486.638	753.8
487.054	739.2
487.47	751.4
487.865	721
488.281	732
488.697	728.2
489.092	715.4
489.508	712
489.925	734.6
490.32	717
490.736	724.6
491.153	731.4
491.548	724.4
491.964	726
492.381	702.2
492.776	715
493.193	724.2
493.61	719.2
494.006	725.8
494.422	721.4
494.84	699.4
495.235	729
495.652	710.2
496.069	719
496.465	708.4
496.883	715.6
497.3	748
497.696	707
498.113	721.4
498.509	707.4
498.927	702.2
499.344	696.6
499.741	701
500.158	714
500.576	714
500.973	703.4
501.39	700.4
501.787	690
502.205	706.6
502.623	697.8
503.02	695.4
503.438	703
503.856	698
504.253	696.6
504.671	693.8
505.068	704.8
505.486	693.2
505.905	714.6
506.302	692.8
506.72	701.6
507.118	683.4
507.536	684.4
507.955	690.2
508.352	705
508.771	694.2
509.169	692.6
509.587	685.6
510.006	691.8
510.404	675.8
510.823	682.8
511.221	684.4
511.64	689
512.038	684.2
512.457	683
512.877	681
513.275	673.6
513.694	674
514.092	672.4
514.512	689.8
514.91	689
515.33	673.8
515.749	684
516.148	685.4
516.568	676.4
516.966	672.4
517.386	666.8
517.785	682
518.205	669.2
518.603	664.6
519.024	665.2
519.444	677.2
519.843	685.8
520.263	675.8
520.662	670.8
521.082	671.4
521.481	665.6
521.902	673.4
522.301	662.6
522.722	670.2
523.121	668.6
523.542	657.8
523.963	662
524.362	663.8
524.783	663.4
525.183	662
525.604	652.6
526.003	652.4
526.425	660.8
526.824	662.4
527.246	662.4
527.646	667.8
528.067	654
528.467	658
528.888	659.8
529.289	647.2
529.71	651.8
530.11	658.2
530.532	651.4
530.932	649.6
531.354	640
531.755	675.2
532.176	657.2
532.577	646.2
532.999	652
533.4	645.2
533.822	657.2
534.223	660
534.645	644.2
535.046	648.8
535.468	647.6
535.869	662.2
536.292	636.8
536.693	680.6
537.115	649.2
537.516	641.2
537.939	648.2
538.34	659.8
538.742	651.4
539.165	641.4
539.566	649.2
539.989	638.2
540.391	638
540.814	642.6
541.216	634.4
541.639	645.4
542.041	640.4
542.464	637
542.866	635.4
543.268	625.8
543.691	638.4
544.093	647.2
544.517	664.4
544.919	635.4
545.343	664.4
545.745	639.6
546.147	644.8
546.571	629.2
546.974	622
547.398	635
547.8	646.8
548.224	632
548.627	629.4
549.03	640.8
549.454	634.2
549.857	621.2
550.281	621.8
550.684	622.6
551.087	644.8
551.512	635
551.915	643
552.34	628.8
552.743	625.4
553.146	630.8
553.571	624.6
553.975	649
554.399	628.4
554.803	685
555.207	623
555.632	623.6
556.036	635.6
556.461	623
556.865	631.4
557.268	620.8
557.694	615.8
558.098	628
558.502	634.8
558.927	616.6
559.332	627.4
559.736	631.8
560.162	627.2
560.566	624.6
560.992	633
561.396	618.4
561.801	620.6
562.227	620.8
562.631	613.4
563.036	616.8
563.462	632
563.867	620.2
564.272	608.4
564.698	625.6
565.103	604.2
565.508	646.2
565.935	617.8
566.34	619.2
566.745	636.8
567.172	614
567.577	643.2
567.982	630.4
568.409	625.4
568.815	608.2
569.22	622.8
569.626	620.8
570.053	606.8
570.459	621
570.865	619
571.292	620
571.698	614
572.104	608.8
572.531	615.8
572.937	627.4
573.343	620.4
573.75	623.8
574.177	622.8
574.583	619.2
574.99	610.6
575.396	620.8
575.824	612.2
576.231	637.2
576.637	611.8
577.065	646.2
577.472	612.2
577.879	612.8
578.286	634.6
578.714	606.6
579.121	611.4
579.528	616.2
579.935	614.6
580.364	616.8
580.771	591.4
581.178	597.4
581.585	614.2
582.014	607.8
582.421	604.6
582.829	609.4
583.236	613.2
583.644	604.6
584.073	618.2
584.481	615
584.889	603.2
585.296	610
585.726	608
586.134	606
586.542	599.6
586.95	630.4
587.358	599.8
587.787	611.8
588.196	613.6
588.604	603.8
589.012	609.8
589.421	601.8
589.851	602.8
590.259	616.8
590.668	605.2
591.076	640
591.485	601.4
591.894	609
592.324	614.8
592.733	620.6
593.142	591.8
593.551	592.8
593.96	598.6
594.369	584.6
594.8	586.2
595.209	595.4
595.618	588.6
596.028	599.4
596.437	598.4
596.847	603.6
597.256	606.4
597.687	615.6
598.097	595
598.507	586.8
598.917	602
599.327	608.4
599.736	606.2
600.146	609
600.556	598.4
600.988	608.8
601.398	601.2
601.808	617.2
602.219	585.8
602.629	597
603.039	601.8
603.45	629.4
603.86	600.4
604.271	615.2
604.703	600.6
605.114	599.8
605.525	604.2
605.935	609.2
606.346	623
606.757	604.4
607.168	602.4
607.579	590.6
607.99	603
608.402	601.8
608.813	602.8
609.224	594.8
609.636	598
610.047	591.2
610.48	596.2
610.892	611.2
611.303	610.2
611.715	597.8
612.127	582.4
612.539	601
612.95	594.2
613.362	585.6
613.774	593
614.186	590.8
614.599	591.6
615.011	604.4
615.423	598.8
615.835	589.6
616.248	585
616.66	605
617.073	583.6
617.485	592.8
617.898	611
618.311	603
618.723	599
619.136	615.8
619.549	609.8
619.962	613.6
620.375	593.8
620.788	604.6
621.201	592
621.614	605
622.028	598.4
622.441	588
622.854	604.4
623.268	587.2
623.681	604.6
624.095	602
624.509	593
624.922	598
625.336	584.4
625.728	598.4
626.142	598.6
626.556	609.8
626.97	598.4
627.384	594.4
627.799	596.4
628.213	612.8
628.627	601
629.041	596.6
629.456	595.2
629.87	596.8
630.285	607.4
630.699	607.2
631.093	587.4
631.507	599.2
631.922	601.6
632.337	614.2
632.752	587
633.167	592.8
633.582	599
633.997	591.2
634.412	578.4
634.806	596
635.221	589.6
635.637	611.8
636.052	582
636.468	593.6
636.883	612.2
637.299	594.6
637.715	577.8
638.109	589.2
638.525	579.4
638.941	617.8
639.357	596
639.773	605.6
640.189	591.8
640.584	593.6
641	597.2
641.416	584.2
641.832	581.4
642.249	589.2
642.665	589.2
643.06	600.6
643.477	606.2
643.894	576.6
644.31	587.4
644.727	586.8
645.123	587.2
645.54	575.4
645.957	586.8
646.374	597
646.77	593.6
647.187	617.2
647.604	581.4
648.021	577
648.439	590.8
648.835	591.8
649.252	588.6
649.67	583.6
650.088	594.6
650.484	598.6
650.902	588.4
651.32	599
651.738	583
652.134	591
652.552	603.4
652.971	600.4
653.389	588.2
653.786	611.2
654.204	612.8
654.622	580.2
655.019	597
655.438	598.4
655.857	594
656.275	591
656.673	578
657.091	600.4
657.51	582.6
657.908	595.2
658.327	606.4
658.746	578
659.144	595.8
659.563	602.2
659.982	589.6
660.38	584.4
660.8	591
661.219	606
661.617	600.4
662.037	589.4
662.457	609.8
662.855	572.6
663.275	617.2
663.695	592.6
664.094	594.2
664.514	594
664.934	582.4
665.333	592.8
665.753	586
666.152	592.6
666.572	585.6
666.993	610.4
667.392	590.4
667.812	581.8
668.212	581.6
668.632	597
669.053	590
669.453	592.4
669.874	588.8
670.273	593.4
670.694	577.4
671.116	599.6
671.515	595.2
671.937	592.2
672.337	588.8
672.758	592.4
673.158	594.8
673.58	576.4
673.98	598
674.402	599.8
674.824	590.2
675.224	583
675.646	579.6
676.047	584.4
676.469	580.4
676.869	592
677.292	592.8
677.693	587.6
678.115	587.2
678.516	594.2
678.939	593.8
679.34	588
679.762	598
680.164	590.4
680.586	572.8
680.988	599
681.411	614
681.812	587.6
682.236	575
682.637	576
683.061	581
683.462	585.6
683.864	582.2
684.288	588.6
684.69	581
685.114	592.8
685.516	597
685.94	580
686.342	601.6
686.766	581.6
687.168	584.6
687.571	608.6
687.995	586
688.398	582
688.822	585.6
689.225	604.2
689.628	598
690.052	588
690.456	585.6
690.88	588
691.284	576
691.687	593.6
692.112	574
692.515	583.2
692.919	584.8
693.344	592.4
693.747	582.4
694.173	578.8
694.577	607.2
694.98	592
695.406	590.4
695.81	588.4
696.214	588.2
696.64	587.2
697.044	591
697.448	594.2
697.874	583.8
698.279	588.4
698.684	572.4
699.11	581.6
699.514	589.2
699.919	575.8
700.324	577.2
700.75	592.8
701.156	592.8
701.561	604.4
701.987	595.2
702.393	595.4
702.798	601.6
703.203	594.2
703.63	584.8
704.036	580.4
704.442	597.2
704.847	586.2
705.274	590.2
705.68	595.6
706.086	591.6
706.492	568.2
706.92	587
707.326	592.8
707.732	584.2
708.139	582
708.545	579
708.973	578.6
709.38	581.6
709.786	569.6
710.193	592.6
710.6	588.4
711.028	581.2
711.435	578.2
711.842	580.4
712.249	578.4
712.656	582
713.064	598.2
713.492	590
713.9	579.2
714.307	588.4
714.715	590.6
715.123	593.8
715.53	578.6
715.938	596.2
716.367	591.6
716.775	592
717.184	576.6
717.592	579
718	597.2
718.408	620.8
718.816	630.2
719.225	578.8
719.633	595.2
720.042	576.2
720.472	585.2
720.881	607.2
721.29	587.2
721.699	570.4
722.108	592.6
722.517	583.8
722.926	580.6
723.335	601.2
723.744	582.4
724.154	586.2
724.563	584.8
724.973	585.2
725.382	586.4
725.792	578.2
726.202	577.6
726.612	611
727.022	584.6
727.432	579.4
779.813	580.4
780.223	627.6
780.634	582
781.044	581.6
781.454	577.8
781.865	600
782.276	587
782.686	600.8
783.097	586.8
783.508	586.2
783.919	586.2
784.33	595.2
784.741	595.2
785.152	581
785.563	570.2
785.974	582.8
786.386	591.6
786.776	588.8
787.188	588
787.599	578.4
788.011	593.4
788.423	590.4
788.835	576.6
789.247	577.8
789.659	582.2
790.071	580.8
790.483	627.2
790.874	576.8
791.286	586.8
791.699	576.4
792.111	578.6
792.524	578.6
792.937	579.8
793.349	572.8
793.741	573.6
794.154	579.2
794.567	593.4
794.98	583
795.393	565.6
795.785	592.4
796.198	576.6
796.612	581.6
797.026	574
797.439	566.8
797.831	585.8
798.245	572.4
798.659	575.8
799.073	575.6
799.487	575.2
799.88	573.2
800.294	587.8
800.708	584.8
801.123	578.6
801.516	599.8
801.93	571.4
802.345	568.2
802.76	578.8
803.153	601.8
803.568	594.4
803.983	590.4
804.377	587.4
804.792	569.6
805.207	570
805.601	581
806.016	616.4
806.432	573.2
806.826	612.6
807.242	595.4
807.658	585.8
808.052	576.4
808.468	587.8
808.884	570.8
809.279	588.4
809.695	603.6
810.111	608.6
810.506	586.8
810.922	601.2
811.339	579
811.734	596.4
812.151	578.6
812.546	580
812.963	581
813.38	585.8
813.776	583.4
814.193	598.8
814.589	578
815.006	573.6
815.402	580.2
815.82	578
816.237	587.8
816.633	582.4
817.051	576
817.448	584.8
817.866	573
818.262	603.8
818.68	581
819.077	586.4
819.495	578.2
819.892	614.8
820.311	576.2
820.708	570.8
821.127	576
821.524	595.6
821.943	585.4
822.34	597.8
822.759	585.4
823.157	574.4
823.576	589.8
823.974	589.6
824.393	624.4
824.791	574.8
825.189	579.2
825.609	580.8
826.007	580
826.427	571.2
826.826	582.8
827.246	584.8
827.644	563
828.043	584.2
828.463	576.4
828.862	587.2
829.261	591.2
829.682	563.8
830.081	595.4
830.502	576
830.901	589.4
831.301	602.4
831.722	572.2
832.121	585
832.521	574
832.943	580.4
833.342	589
833.742	571
834.164	579.4
834.564	571.4
834.965	575
835.386	569.4
835.787	574.6
836.188	577.2
836.588	571.2
837.01	580
837.411	570.4
837.812	586
838.213	588.4
838.636	579.8
839.037	646.8
839.438	580.6
839.84	587.4
840.263	586.4
840.664	587.2
841.066	585.8
841.468	584.2
841.891	578.4
842.293	590.4
842.695	581.4
843.098	597.6
843.5	573.6
843.902	580.8
844.326	586.4
844.729	595.2
845.131	592.4
845.534	580.8
845.937	596.2
846.34	595
846.764	573.8
847.167	584.2
847.571	570.4
847.974	585.6
848.377	571.2
848.781	630.6
849.184	596.4
849.588	569.8
849.992	577.8
850.396	580.6
850.821	602
851.225	583.2
851.63	571.2
852.034	598
852.438	575.8
852.843	655
853.247	571.8
853.652	571.2
854.057	590.6
854.462	579.4
854.867	591.8
855.272	607.6
855.677	584
856.082	575
856.487	575.2
856.893	592.2
857.298	578.2
