#lambda/nm	C1
208.295	521.8
208.67	471.8
209.045	432.8
209.419	430.6
209.794	614.2
210.169	599.6
210.544	719
210.919	626
211.295	614.6
211.67	617.2
212.045	614
212.421	609
212.796	648.6
213.172	606.2
213.547	612
213.923	609.2
214.299	606.2
214.675	619
215.051	615
215.427	621.6
215.803	641.2
216.179	628.8
216.555	608.2
216.932	621.6
217.308	616.8
217.684	603.6
218.061	622
218.438	619.6
218.814	608.8
219.191	625.2
219.568	608.6
219.945	611.8
220.322	619
220.699	613
221.076	614.8
221.453	615.6
221.83	615.8
222.208	613.6
222.585	602.2
222.962	613.8
223.34	613.4
223.717	602.8
224.095	606.4
224.473	612.2
224.851	608.8
225.229	603.4
225.607	623.2
225.985	604.8
226.363	614
226.741	610.8
227.119	601.4
227.497	631
227.876	600.6
228.254	618.2
228.633	619
229.011	617.8
229.39	613.6
229.769	616
230.148	617.4
230.527	624.8
230.905	615.2
231.284	614.6
231.664	601.2
232.043	631.6
232.422	617.6
232.801	614.6
233.181	620.2
233.56	610.8
233.94	619.8
234.319	598.4
234.699	618.6
235.079	646.4
235.458	645.4
235.838	630.4
236.218	602
236.598	607.6
236.978	608
237.358	603.8
237.738	606.4
238.119	625.6
238.499	601.8
238.88	610.2
239.26	633.6
239.641	600
240.021	613.8
240.402	611
240.783	612.4
241.163	618.8
241.544	624.6
241.925	619.4
242.306	631.6
242.687	623
243.069	616.6
243.45	623.4
243.831	607.2
244.212	611.2
244.594	652.4
244.975	628
245.357	616.8
245.739	609.2
246.12	619
246.502	622.4
246.884	614.8
247.266	608.2
247.648	619
248.03	636.6
248.412	623.8
248.794	612.8
249.176	615.4
249.559	623.6
249.941	606.8
250.323	606.6
250.706	612.6
251.089	610.4
251.471	617.4
251.854	616.6
252.237	616
252.62	628.4
253.002	619.4
253.385	608
253.769	631
254.152	614.8
254.535	617.8
254.918	603.2
255.301	618.6
255.685	607
256.068	602.8
256.452	631.2
256.835	619.2
257.219	616.4
257.603	629.6
257.986	605.4
258.37	624.4
258.754	605
259.138	618.6
259.522	625
259.906	615
260.29	617.8
260.675	619.4
261.059	618.8
261.443	604.6
261.828	614.4
262.212	614.4
262.597	605.6
262.981	605.6
263.366	623
263.751	609.2
264.136	609.4
264.521	608.2
264.906	601
265.291	621
265.676	606.6
266.061	622.2
266.446	635.4
266.831	613.4
267.217	640
267.602	622.4
267.987	622
268.373	611.6
268.759	624
269.144	621.2
269.53	609.4
269.916	612.8
270.302	605.2
270.688	631.4
271.074	618.8
271.46	630.8
271.846	642.4
272.232	625.2
272.618	615
273.004	613.2
273.391	631.8
273.777	629.2
274.164	619.4
274.55	629.2
274.937	615
275.324	616.8
275.71	619.4
276.097	624.2
276.484	601.4
276.871	616.8
277.258	618.8
277.645	606.6
278.032	617.2
278.419	613.2
278.807	616.4
279.194	608.4
279.581	599.6
279.969	615.8
280.356	619
280.744	610.4
281.131	642.4
281.519	618.6
281.907	614.6
282.295	603
282.682	629.2
283.07	612.6
283.458	621.4
283.846	624.2
284.235	623.4
284.623	614.4
285.011	616
285.399	613.8
285.788	615.2
286.176	596.2
286.565	623.6
286.953	603
287.342	615.6
287.731	607.8
288.119	610
288.508	609.6
288.897	613
289.286	600.8
289.675	618.6
290.064	630.2
290.453	610.2
290.821	610.2
291.21	631.2
291.599	607.4
291.989	609
292.378	620.6
292.768	631.6
293.157	627.6
293.547	622
293.936	612.6
294.326	622.6
294.716	611
295.106	611.2
295.496	622.4
295.886	629.6
296.276	607.2
296.666	608.6
297.056	609.4
297.446	604.6
297.836	625.8
298.227	612.6
298.617	617.4
299.008	630.2
299.398	613.4
299.789	611.8
300.179	612.2
300.57	631
300.961	615.4
301.352	614.4
301.742	628.8
302.133	617.6
302.524	613.2
302.915	622.8
303.307	613.6
303.698	632.4
304.089	617
304.48	613.8
304.872	623.4
305.263	615.2
305.655	612.6
306.046	629.6
306.438	620.4
306.829	610
307.221	636.4
307.613	625.2
308.005	617
308.397	623.6
308.789	643.8
309.181	636
309.573	634.6
309.965	628.6
310.357	616.6
310.749	632
311.142	607.4
311.534	622
311.926	625
312.319	617
312.711	616.4
313.104	631.4
313.497	610.4
313.889	653.6
314.282	630.6
314.675	636.8
315.068	623.6
315.461	618.6
315.854	645
316.247	625
316.64	621.4
317.033	618.8
317.405	624.4
317.798	617
318.192	616.2
318.585	614
318.979	618
319.372	612.8
319.766	614.8
320.16	627.4
320.553	628.4
320.947	636
321.341	607.2
321.735	610
322.129	599.8
322.523	633
322.917	609.4
323.311	626.8
323.705	614.4
324.099	608.6
324.494	630.8
324.888	622
325.282	608.4
325.677	630
326.071	619.2
326.466	619.8
326.861	615.8
327.255	630.6
327.65	629
328.045	633.2
328.44	624.6
328.835	619
329.23	612.8
329.625	638
330.02	615.2
330.415	644.8
330.81	627.2
331.206	623.8
331.601	618.4
331.996	615.8
332.37	637.4
332.766	601.2
333.161	645.4
333.557	615.8
333.953	616.4
334.348	985
334.744	619.4
335.14	614.6
335.536	613.6
335.932	629
336.328	621.6
336.724	619.2
337.12	620.6
337.516	621.4
337.913	619
338.309	635.2
338.705	620
339.102	636.8
339.498	611.2
339.895	633.8
340.291	612.2
340.688	630
341.085	607.2
341.481	615.8
341.878	615.8
342.275	642.8
342.672	615.4
343.069	607.8
343.466	605.8
343.842	626.4
344.239	600.4
344.636	622.6
345.033	606.2
345.431	619.8
345.828	614.6
346.225	610.4
346.623	650
347.02	615
347.418	616.6
347.816	627
348.213	603.4
348.611	619.6
349.009	614.8
349.407	626.8
349.805	604
350.203	605.6
350.601	625.4
350.999	612.8
351.397	683.2
351.795	616.6
352.193	623.2
352.57	625.2
352.969	624
353.367	602.8
353.766	608.8
354.164	614.2
354.563	623.2
354.961	620.4
355.36	621.6
355.759	615.8
356.158	607.6
356.557	612
356.956	616
357.355	607.8
357.754	617.8
358.153	618.4
358.552	643.6
358.951	610
359.35	625.4
359.75	604.6
360.149	606.2
360.527	604.2
360.926	604.2
361.326	607.6
361.726	604.6
362.125	603.8
362.525	617.2
362.925	611
363.325	617
363.724	615.8
364.124	609
364.524	605.6
364.924	606.6
365.324	622.4
365.725	602
366.125	611.8
366.525	610.4
366.904	608.4
367.304	600.8
367.705	630.8
368.105	623.6
368.506	612.6
368.906	610.8
369.307	614.2
369.708	617.2
370.108	600.6
370.509	616.6
370.91	604.8
371.311	612
371.712	614.8
372.113	603.8
372.514	600.6
372.894	605.8
373.295	611
373.696	625.6
374.097	616.2
374.499	643
374.9	612.2
375.301	603
375.703	617.6
376.105	601
376.506	611.8
376.908	620.4
377.309	606.4
377.711	604.8
378.113	603.2
378.493	611.2
378.895	605.6
379.297	615.6
379.699	598
380.102	613.6
380.504	606.8
380.906	602.8
381.308	633.2
381.71	619.4
382.113	612.2
382.515	603.8
382.918	615.8
383.299	608
383.701	619.6
384.104	609
384.507	587
384.909	608.2
385.312	591.6
385.715	599
386.118	607.4
386.521	597.2
386.924	619.2
387.327	608.2
387.709	598.6
388.112	590.6
388.515	609.8
388.918	598.4
389.322	613.4
389.725	606
390.129	626.6
390.532	605.2
390.936	599.4
391.339	604.2
391.743	597.6
392.125	604.2
392.529	614.4
392.933	624
393.337	614.8
393.74	609.2
394.144	602.8
394.548	609.6
394.953	604.2
395.357	613.2
395.761	605.4
396.144	614.8
396.548	603.2
396.952	601.6
397.357	604.6
397.761	605.6
398.166	600.2
398.57	605.8
398.975	604.6
399.379	605.6
399.763	656
400.168	606.4
400.572	601.4
400.977	596.6
401.382	628.6
401.787	614.4
402.192	629.2
402.597	622.8
403.002	593.2
403.386	624.4
403.791	624.8
404.197	603.4
404.602	608.2
405.007	607.4
405.413	597.8
405.818	603.2
406.224	609.8
406.608	603
407.014	601
407.42	627.2
407.825	604.6
408.231	618
408.637	612.4
409.043	627.8
409.449	615.8
409.834	602.8
410.24	603
410.646	616.4
411.052	615.4
411.458	621
411.865	611.6
412.271	612.8
412.677	613.8
413.062	608.6
413.469	602.6
413.875	636.6
414.282	627.4
414.689	617.6
415.095	612
415.502	599.6
415.888	603.8
416.294	587.6
416.701	642.8
417.108	601.8
417.515	614.6
417.923	601.6
418.33	621.2
418.715	612.8
419.123	600.8
419.53	590
419.937	597
420.345	617.8
420.752	600.4
421.16	613.2
421.546	607
421.953	615.2
422.361	610.2
422.769	614.4
423.177	601.6
423.585	639
423.992	635.2
424.379	625.2
424.787	615
425.195	633
425.603	615.4
426.011	625.2
426.419	626
426.806	608.6
427.214	614.6
427.623	626.2
428.031	633.2
428.44	615.2
428.848	626.4
429.235	631.2
429.644	615.4
430.053	615.4
430.461	624
430.87	635
431.279	625.8
431.666	614.8
432.075	626
432.484	625.8
432.893	624.8
433.302	646.2
433.711	680
434.099	637.4
434.508	633.8
434.918	636.8
435.327	660.4
435.737	662.8
436.125	670
436.534	663.6
436.944	674.8
437.353	684.2
437.763	700.2
438.173	681.4
438.561	707
438.971	695.8
439.381	712.4
439.791	708.6
440.201	699.8
440.589	718.4
440.999	736.4
441.409	730.2
441.819	716.4
442.23	752.4
442.619	762.6
443.029	754.2
443.439	763
443.85	774.2
444.26	793.8
444.649	774
445.06	781.2
445.471	779.4
445.881	773.4
446.292	806
446.682	810
447.092	784.8
447.503	840.4
447.914	806.4
448.325	799.4
448.715	807.2
449.126	806.2
449.537	818
449.948	822.2
450.338	806.2
450.75	826.2
451.161	821
451.572	831.6
451.984	817.6
452.374	810.6
452.786	818.2
453.197	830
453.609	827.2
453.999	813.8
454.411	813.4
454.823	830
455.235	835
455.647	835.6
456.037	838.8
456.449	815.2
456.862	836.8
457.274	839
457.665	827.6
458.077	847.2
458.489	876
458.902	842.4
459.293	842.2
459.705	845.8
460.118	832.4
460.53	840.4
460.921	843.2
461.334	843.6
461.747	846
462.16	860.8
462.551	864
462.964	854.6
463.377	840.2
463.79	844.8
464.182	843.2
464.595	836
465.008	868.6
465.421	854.2
465.813	855.4
466.226	851.2
466.64	850.4
467.053	903.2
467.445	869.2
467.859	869
468.272	855.6
468.686	872.8
469.078	856
469.492	850
469.906	858.2
470.298	865.8
470.712	845.8
471.126	907
471.54	835.6
471.933	858.4
472.347	858.8
472.761	842.6
473.175	843.6
473.568	851.4
473.982	836.8
474.397	856
474.79	850.4
475.204	863.4
475.619	853.2
476.033	845.4
476.426	849.8
476.841	844
477.256	866.8
477.649	845.2
478.064	839
478.479	837
478.872	839.4
479.287	821.2
479.702	835.8
480.118	825.4
480.511	832.2
480.927	826.8
481.342	831.8
481.736	840.8
482.151	833.2
482.566	841.8
482.96	841.6
483.376	836.8
483.792	827.8
484.186	841.4
484.602	817.2
485.017	825.4
485.412	824.8
485.827	826.2
486.243	818
486.638	844
487.054	839.2
487.47	840
487.865	817.8
488.281	821
488.697	812
489.092	812.8
489.508	819
489.925	818.8
490.32	804.8
490.736	828.4
491.153	815.8
491.548	811.6
491.964	811.6
492.381	796.6
492.776	813.6
493.193	806.8
493.61	812.2
494.006	795.6
494.422	809
494.84	795.2
495.235	800.4
495.652	800
496.069	801.6
496.465	774
496.883	794.4
497.3	812.2
497.696	786.8
498.113	803.4
498.509	778.4
498.927	781
499.344	783.2
499.741	783.2
500.158	793.6
500.576	789.4
500.973	779.6
501.39	773
501.787	764
502.205	778.8
502.623	764.6
503.02	751.6
503.438	766.8
503.856	762.2
504.253	768.8
504.671	767.6
505.068	758.2
505.486	755.2
505.905	781.6
506.302	754.2
506.72	764.2
507.118	741.6
507.536	749.6
507.955	743
508.352	753.6
508.771	755.8
509.169	752.8
509.587	738
510.006	749.6
510.404	734.4
510.823	736.2
511.221	739.4
511.64	746.8
512.038	749.6
512.457	728.4
512.877	731.8
513.275	733.6
513.694	733.6
514.092	722.4
514.512	729.4
514.91	737.8
515.33	723.8
515.749	724.4
516.148	719.6
516.568	721.8
516.966	722.2
517.386	715.8
517.785	720.6
518.205	708.4
518.603	713.8
519.024	709.4
519.444	719.4
519.843	723.2
520.263	719
520.662	728.8
521.082	706.4
521.481	711.6
521.902	704.8
522.301	705.2
522.722	712
523.121	704
523.542	706
523.963	698.2
524.362	704.2
524.783	705.6
525.183	700.8
525.604	706
526.003	684.2
526.425	691.4
526.824	700.2
527.246	712.4
527.646	710.8
528.067	694
528.467	696.2
528.888	690.4
529.289	695
529.71	684.6
530.11	682.6
530.532	676.8
530.932	678.2
531.354	678.6
531.755	715.4
532.176	686.4
532.577	677.6
532.999	684.2
533.4	676.6
533.822	685.8
534.223	692
534.645	678
535.046	670.8
535.468	670.4
535.869	688
536.292	670.8
536.693	700.6
537.115	675
537.516	672
537.939	674.8
538.34	692.2
538.742	692.8
539.165	680.4
539.566	677
539.989	665.4
540.391	667.2
540.814	673.2
541.216	675
541.639	672.4
542.041	674.8
542.464	666.6
542.866	655
543.268	659.2
543.691	666.6
544.093	674.8
544.517	680.2
544.919	650.8
545.343	680.8
545.745	659.8
546.147	664.2
546.571	659.8
546.974	652.4
547.398	656
547.8	671.8
548.224	652.6
548.627	663
549.03	666
549.454	635.8
549.857	644.6
550.281	642.4
550.684	647.4
551.087	669
551.512	659
551.915	654.2
552.34	650.8
552.743	649.6
553.146	652.4
553.571	649.2
553.975	669.8
554.399	641
554.803	696.6
555.207	638.6
555.632	634.6
556.036	649.2
556.461	636.8
556.865	645.8
557.268	631
557.694	637.4
558.098	649.8
558.502	649.8
558.927	638.8
559.332	640
559.736	637.2
560.162	640
560.566	638
560.992	646.4
561.396	639
561.801	637.8
562.227	633.6
562.631	642.2
563.036	632.8
563.462	641.8
563.867	631.8
564.272	614.2
564.698	635
565.103	628.4
565.508	648
565.935	633
566.34	627.6
566.745	645.6
567.172	630.8
567.577	650.6
567.982	643.6
568.409	628
568.815	614.6
569.22	629.4
569.626	637.8
570.053	618.2
570.459	628
570.865	632.6
571.292	626.2
571.698	618.2
572.104	601
572.531	612.2
572.937	634
573.343	621.4
573.75	616.6
574.177	620.2
574.583	623
574.99	612
575.396	621.2
575.824	620.8
576.231	634.2
576.637	605.6
577.065	649.2
577.472	610.4
577.879	623.4
578.286	633.8
578.714	610
579.121	618.6
579.528	620.4
579.935	621.2
580.364	615.2
580.771	599.4
581.178	617.4
581.585	621.6
582.014	620.6
582.421	609
582.829	617.8
583.236	624.8
583.644	621.4
584.073	618
584.481	610
584.889	617.2
585.296	621.2
585.726	609.4
586.134	617
586.542	611.4
586.95	630.8
587.358	604
587.787	621
588.196	622.4
588.604	615.4
589.012	624.4
589.421	610.8
589.851	603.4
590.259	619.2
590.668	612
591.076	649.6
591.485	609
591.894	616
592.324	632
592.733	628.6
593.142	602
593.551	617.4
593.96	613
594.369	607.6
594.8	612.6
595.209	610.6
595.618	592.8
596.028	605.6
596.437	607.6
596.847	621.2
597.256	617.8
597.687	615.4
598.097	615
598.507	612.4
598.917	610
599.327	622.6
599.736	613.6
600.146	628.6
600.556	619.4
600.988	632.4
601.398	608
601.808	629.2
602.219	606.6
602.629	613.8
603.039	616.8
603.45	642.4
603.86	610.6
604.271	624.8
604.703	620.4
605.114	613.2
605.525	616.4
605.935	620.2
606.346	633
606.757	619.8
607.168	620.2
607.579	606.2
607.99	626
608.402	618.2
608.813	618.6
609.224	610.8
609.636	602.2
610.047	608.8
610.48	611.6
610.892	623.4
611.303	629.2
611.715	609.8
612.127	606.8
612.539	612.4
612.95	609.4
613.362	608.6
613.774	613.6
614.186	605.2
614.599	612.2
615.011	623.6
615.423	608.8
615.835	609
616.248	613
616.66	624.8
617.073	611.6
617.485	615.6
617.898	619.2
618.311	623
618.723	612.2
619.136	642.8
619.549	627.2
619.962	640.2
620.375	610
620.788	620.4
621.201	614.2
621.614	632
622.028	618.2
622.441	623.4
622.854	631.4
623.268	608
623.681	618
624.095	614.6
624.509	621.8
624.922	631.6
625.336	601
625.728	620.6
626.142	627.6
626.556	641.8
626.97	617.6
627.384	619.2
627.799	620.4
628.213	635.8
628.627	622.2
629.041	612.8
629.456	616.6
629.87	618.8
630.285	628.8
630.699	618
631.093	616
631.507	623.6
631.922	620.6
632.337	637
632.752	605.6
633.167	612.2
633.582	612
633.997	605.8
634.412	611.4
634.806	616.2
635.221	608
635.637	623.6
636.052	610.2
636.468	619.8
636.883	627.8
637.299	608
637.715	604.2
638.109	618.4
638.525	598.6
638.941	626.6
639.357	616.8
639.773	616.4
640.189	604.8
640.584	613.4
641	615.2
641.416	606.2
641.832	602
642.249	608.4
642.665	612.2
643.06	618.4
643.477	615
643.894	594.6
644.31	603.6
644.727	611.2
645.123	606.8
645.54	604.6
645.957	604.4
646.374	623
646.77	610.8
647.187	635.2
647.604	603.8
648.021	598
648.439	603.8
648.835	611.8
649.252	597.8
649.67	605.2
650.088	611.4
650.484	614.2
650.902	605.8
651.32	610
651.738	600
652.134	603
652.552	622.4
652.971	617
653.389	601.8
653.786	618.4
654.204	625.2
654.622	597.2
655.019	602.2
655.438	608.2
655.857	602.6
656.275	612.4
656.673	594.2
657.091	608.8
657.51	596.4
657.908	612.2
658.327	620.4
658.746	591.6
659.144	598.6
659.563	611.4
659.982	609
660.38	591.2
660.8	606
661.219	607.6
661.617	615.2
662.037	603.6
662.457	617.4
662.855	588.8
663.275	638
663.695	596.8
664.094	593.4
664.514	601
664.934	591.4
665.333	604.8
665.753	597.8
666.152	589
666.572	593.6
666.993	608.2
667.392	589.8
667.812	602.4
668.212	600.2
668.632	603.8
669.053	599.6
669.453	606.8
669.874	604
670.273	592.4
670.694	592.8
671.116	605.4
671.515	602.8
671.937	585.2
672.337	599.8
672.758	589.6
673.158	606.6
673.58	598
673.98	603.8
674.402	609.2
674.824	590.6
675.224	591.4
675.646	586.6
676.047	600.8
676.469	587.8
676.869	602.8
677.292	601.8
677.693	582.8
678.115	587
678.516	592.2
678.939	593.2
679.34	586.6
679.762	604.6
680.164	603
680.586	593.8
680.988	595.8
681.411	623.6
681.812	591.6
682.236	588.4
682.637	583.4
683.061	584.2
683.462	595.8
683.864	585.4
684.288	599.4
684.69	587.6
685.114	603.2
685.516	597.6
685.94	590.2
686.342	601
686.766	593.6
687.168	581.8
687.571	614
687.995	594.6
688.398	578.2
688.822	584.8
689.225	608
689.628	613.2
690.052	596.6
690.456	599.8
690.88	599.2
691.284	582.8
691.687	599.4
692.112	585
692.515	578.2
692.919	591.8
693.344	599.8
693.747	582.2
694.173	580.4
694.577	605.2
694.98	586.6
695.406	592.6
695.81	592.8
696.214	594.8
696.64	594
697.044	597.8
697.448	596.6
697.874	595.4
698.279	594.4
698.684	584.4
699.11	585.2
699.514	595.6
699.919	585.4
700.324	584.2
700.75	583.4
701.156	587.6
701.561	591.4
701.987	589.4
702.393	599.8
702.798	606.6
703.203	590.6
703.63	581.2
704.036	588
704.442	589.2
704.847	581.2
705.274	591.4
705.68	588.6
706.086	595
706.492	577.6
706.92	589.4
707.326	597.8
707.732	588.4
708.139	585
708.545	580.8
708.973	588.4
709.38	584.8
709.786	577.8
710.193	608.6
710.6	587.8
711.028	573
711.435	587
711.842	596.8
712.249	587.2
712.656	581.2
713.064	591.4
713.492	572.8
713.9	590
714.307	595
714.715	584.6
715.123	590.2
715.53	589.8
715.938	596
716.367	591.6
716.775	591.2
717.184	580.2
717.592	591
718	595.2
718.408	616.8
718.816	638
719.225	590.2
719.633	585.6
720.042	586
720.472	587.6
720.881	606.8
721.29	600.8
721.699	583.2
722.108	587.8
722.517	594.8
722.926	585.2
723.335	595.4
723.744	587.8
724.154	588.6
724.563	581.4
724.973	597.4
725.382	588.6
725.792	593.8
726.202	580
726.612	606
727.022	592
727.432	580.4
779.813	586.8
780.223	635.8
780.634	585.4
781.044	586.8
781.454	589.4
781.865	600.4
782.276	581.4
782.686	591.2
783.097	590.6
783.508	583.2
783.919	592.4
784.33	597.8
784.741	603.6
785.152	585.4
785.563	578.2
785.974	583.4
786.386	593.6
786.776	591
787.188	601.8
787.599	571.2
788.011	597.6
788.423	593.6
788.835	592.6
789.247	578.4
789.659	587.6
790.071	583.2
790.483	620.2
790.874	580.6
791.286	591.2
791.699	590.4
792.111	589.8
792.524	585
792.937	582
793.349	574.6
793.741	576.8
794.154	574
794.567	596.2
794.98	583.6
795.393	576.4
795.785	595.4
796.198	586.8
796.612	582.4
797.026	579.4
797.439	573.2
797.831	582.2
798.245	584.2
798.659	582.8
799.073	582.6
799.487	576.6
799.88	578.6
800.294	587
800.708	583
801.123	587.8
801.516	601.8
801.93	571
802.345	577
802.76	585.6
803.153	600.6
803.568	596.4
803.983	589.8
804.377	590.6
804.792	573.6
805.207	570.8
805.601	587
806.016	616.4
806.432	575.4
806.826	613.8
807.242	600.6
807.658	594.4
808.052	587.2
808.468	569.8
808.884	581
809.279	587.2
809.695	603.8
810.111	611.2
810.506	586.4
810.922	598.2
811.339	570
811.734	596.6
812.151	575.2
812.546	570.6
812.963	576.8
813.38	584
813.776	578.8
814.193	604.6
814.589	571.8
815.006	581.4
815.402	580
815.82	577.8
816.237	578.2
816.633	584.8
817.051	571.4
817.448	586.6
817.866	568.4
818.262	597.2
818.68	584
819.077	577.8
819.495	581.6
819.892	630.4
820.311	575
820.708	577
821.127	578.4
821.524	594.8
821.943	587.2
822.34	596.6
822.759	584.2
823.157	586.8
823.576	601.4
823.974	585.2
824.393	618.6
824.791	571.4
825.189	575.2
825.609	577.6
826.007	581.2
826.427	567.2
826.826	584.6
827.246	587.4
827.644	568.2
828.043	589.4
828.463	581.4
828.862	586
829.261	585.8
829.682	577.8
830.081	588.8
830.502	578.4
830.901	595.6
831.301	599
831.722	572.6
832.121	588.6
832.521	583.2
832.943	582
833.342	580.4
833.742	572.4
834.164	580.6
834.564	574.4
834.965	583.8
835.386	584.8
835.787	578.4
836.188	579.6
836.588	585.6
837.01	583.2
837.411	577.8
837.812	582
838.213	585.6
838.636	581.8
839.037	646.8
839.438	584
839.84	587.2
840.263	583.8
840.664	585.8
841.066	582.8
841.468	591.2
841.891	582.6
842.293	592.8
842.695	584.6
843.098	589
843.5	578.2
843.902	589.4
844.326	583.6
844.729	587
845.131	602.2
845.534	582.6
845.937	593.4
846.34	594
846.764	572.2
847.167	586.4
847.571	578.8
847.974	581.6
848.377	575.8
848.781	622.6
849.184	594.2
849.588	583.2
849.992	568
850.396	586.8
850.821	597.2
851.225	585.2
851.63	583.2
852.034	587.6
852.438	583.8
852.843	602.4
853.247	579.6
853.652	574.2
854.057	594
854.462	589.2
854.867	578.2
855.272	606
855.677	597.4
856.082	578
