#lambda/nm	C1
208.295	512.4
208.67	463.4
209.045	418.8
209.419	430.2
209.794	612.8
210.169	593.6
210.544	723
210.919	622
211.295	602.8
211.67	619.4
212.045	609
212.421	611.6
212.796	637
213.172	608.4
213.547	614.4
213.923	614.2
214.299	604.6
214.675	622.4
215.051	612.8
215.427	613.6
215.803	634
216.179	613.2
216.555	607.8
216.932	614.8
217.308	613.4
217.684	609.8
218.061	625.2
218.438	624.2
218.814	609
219.191	620.4
219.568	605.4
219.945	613.2
220.322	622.4
220.699	615.8
221.076	623.4
221.453	620.8
221.83	613.4
222.208	610.4
222.585	613
222.962	620.2
223.34	612.4
223.717	617.4
224.095	611.6
224.473	620.4
224.851	606.8
225.229	600.8
225.607	637.4
225.985	603.8
226.363	619.2
226.741	614.2
227.119	611.8
227.497	628
227.876	609.8
228.254	628.4
228.633	619.6
229.011	623.2
229.39	616.6
229.769	621
230.148	622
230.527	640.4
230.905	610
231.284	619.4
231.664	608.6
232.043	629.8
232.422	623.6
232.801	609
233.181	633.4
233.56	611.2
233.94	609
234.319	595.8
234.699	608.4
235.079	659.2
235.458	645
235.838	630.6
236.218	607.8
236.598	603.8
236.978	608.6
237.358	613.2
237.738	611.2
238.119	626.2
238.499	609.2
238.88	607.6
239.26	630.2
239.641	602.4
240.021	614.2
240.402	622.2
240.783	608
241.163	613.4
241.544	611.8
241.925	615
242.306	632.2
242.687	612.6
243.069	616.8
243.45	619.2
243.831	603.6
244.212	616.6
244.594	654.2
244.975	627.8
245.357	623.6
245.739	613
246.12	623.2
246.502	628.4
246.884	609.2
247.266	616
247.648	628
248.03	644.2
248.412	622.6
248.794	620.4
249.176	609.4
249.559	628
249.941	611.2
250.323	605.2
250.706	608
251.089	610.8
251.471	611.4
251.854	624.8
252.237	620.8
252.62	628.4
253.002	612.8
253.385	607.4
253.769	625
254.152	620
254.535	614.6
254.918	604
255.301	614.4
255.685	615.6
256.068	605.2
256.452	641.6
256.835	619
257.219	624.4
257.603	620.4
257.986	611.4
258.37	616.4
258.754	598.2
259.138	624.6
259.522	622.2
259.906	613.6
260.29	618.6
260.675	608
261.059	620.4
261.443	609.6
261.828	628.2
262.212	623.6
262.597	610.8
262.981	606
263.366	618.4
263.751	606.6
264.136	607.2
264.521	613.6
264.906	611.6
265.291	627.8
265.676	608
266.061	615.6
266.446	633.6
266.831	616.4
267.217	631.6
267.602	620.2
267.987	625.4
268.373	614.6
268.759	625
269.144	626.4
269.53	611.2
269.916	611.6
270.302	613.2
270.688	621
271.074	607.4
271.46	636.4
271.846	646.8
272.232	610.4
272.618	605.4
273.004	611.2
273.391	628.6
273.777	632.4
274.164	619
274.55	629
274.937	617.8
275.324	612.8
275.71	621.2
276.097	622.8
276.484	605.6
276.871	618.6
277.258	615.8
277.645	607
278.032	614
278.419	614
278.807	619
279.194	603.8
279.581	608.4
279.969	612.2
280.356	617.4
280.744	616.8
281.131	638.4
281.519	622.4
281.907	608.6
282.295	599
282.682	620.2
283.07	611
283.458	627
283.846	621.2
284.235	624.4
284.623	633
285.011	606.2
285.399	618.2
285.788	618.6
286.176	600.2
286.565	627.6
286.953	611.4
287.342	609.4
287.731	608.6
288.119	608.4
288.508	614
288.897	616.8
289.286	596.6
289.675	612.2
290.064	627
290.453	615.8
290.821	622.6
291.21	625.6
291.599	615.2
291.989	617.6
292.378	627.4
292.768	632.8
293.157	618.4
293.547	620.2
293.936	610.8
294.326	607.2
294.716	619.6
295.106	607.4
295.496	618.2
295.886	622.4
296.276	610.8
296.666	612
297.056	610.4
297.446	609.4
297.836	632.6
298.227	614.4
298.617	610.6
299.008	630
299.398	605.2
299.789	611.2
300.179	634.6
300.57	633
300.961	610.4
301.352	613.8
301.742	626.2
302.133	621.4
302.524	619.2
302.915	622
303.307	611.4
303.698	629.4
304.089	623
304.48	613.2
304.872	613.8
305.263	612.8
305.655	612
306.046	621.2
306.438	617
306.829	611.4
307.221	637
307.613	619
308.005	628.2
308.397	633.6
308.789	633.2
309.181	647
309.573	629
309.965	630
310.357	609.2
310.749	634.6
311.142	607.6
311.534	614.8
311.926	623.6
312.319	618
312.711	609.6
313.104	635.4
313.497	609.8
313.889	657.2
314.282	633
314.675	646.4
315.068	619.2
315.461	627.6
315.854	655.8
316.247	623.2
316.64	613.4
317.033	622
317.405	624.6
317.798	612.4
318.192	613.2
318.585	607.2
318.979	629.6
319.372	607.8
319.766	615.2
320.16	626
320.553	632.4
320.947	637.8
321.341	613
321.735	611.4
322.129	601.4
322.523	641.4
322.917	604.8
323.311	620.6
323.705	620.8
324.099	622.4
324.494	625
324.888	619.2
325.282	616.4
325.677	627
326.071	626.4
326.466	624.2
326.861	615.6
327.255	627.2
327.65	626.4
328.045	629
328.44	623.4
328.835	616.2
329.23	618.8
329.625	639.8
330.02	614
330.415	637.2
330.81	623.4
331.206	623.2
331.601	613.2
331.996	619.2
332.37	634.2
332.766	614.6
333.161	640.8
333.557	608.4
333.953	617
334.348	995.2
334.744	617.8
335.14	619.2
335.536	612.6
335.932	624
336.328	611.6
336.724	627.8
337.12	626.2
337.516	620.8
337.913	622
338.309	624.6
338.705	613.6
339.102	632.6
339.498	615.6
339.895	628.4
340.291	614.2
340.688	620
341.085	605
341.481	613.8
341.878	617
342.275	638
342.672	605.2
343.069	615.2
343.466	598.6
343.842	626.4
344.239	604.2
344.636	618.4
345.033	609
345.431	603.6
345.828	616
346.225	614.2
346.623	647.6
347.02	619.2
347.418	620.2
347.816	629.2
348.213	616.4
348.611	619.6
349.009	612.6
349.407	624.6
349.805	596.6
350.203	599
350.601	623.6
350.999	606.4
351.397	677.4
351.795	618.2
352.193	624
352.57	623.8
352.969	630.2
353.367	604
353.766	614
354.164	615.6
354.563	625
354.961	611.4
355.36	612.8
355.759	608.4
356.158	609.2
356.557	599.4
356.956	599.2
357.355	605
357.754	608.2
358.153	610.8
358.552	638.8
358.951	606.4
359.35	628.2
359.75	603.8
360.149	602
360.527	598.8
360.926	605.6
361.326	618.4
361.726	608
362.125	607.4
362.525	613.4
362.925	611.2
363.325	618
363.724	615.6
364.124	612.2
364.524	599.2
364.924	601.6
365.324	614
365.725	591.8
366.125	613.2
366.525	608.2
366.904	599.8
367.304	596.4
367.705	624.4
368.105	619.4
368.506	606
368.906	608.8
369.307	610.6
369.708	607.2
370.108	596.4
370.509	616.2
370.91	604.2
371.311	610.6
371.712	610.2
372.113	615.4
372.514	595.2
372.894	601.8
373.295	598.8
373.696	621.4
374.097	617.6
374.499	634
374.9	618
375.301	600.6
375.703	616.6
376.105	609
376.506	615.8
376.908	612.8
377.309	606.6
377.711	609.2
378.113	607
378.493	609
378.895	603.8
379.297	611.4
379.699	595.2
380.102	606.8
380.504	601
380.906	602.8
381.308	631.2
381.71	612.2
382.113	621.8
382.515	610.6
382.918	616.6
383.299	607.6
383.701	619
384.104	611.4
384.507	594.2
384.909	606
385.312	591.2
385.715	600.4
386.118	603.6
386.521	596.4
386.924	620.2
387.327	597
387.709	592
388.112	596.8
388.515	603.8
388.918	604.4
389.322	619.6
389.725	605.8
390.129	620
390.532	606
390.936	609.8
391.339	597
391.743	609.4
392.125	593.8
392.529	606
392.933	614.8
393.337	613.6
393.74	598.2
394.144	607.6
394.548	602.2
394.953	594.6
395.357	615.8
395.761	603.4
396.144	607.2
396.548	608.4
396.952	613.8
397.357	603
397.761	594.8
398.166	607.6
398.57	609
398.975	597.4
399.379	613.8
399.763	654
400.168	611.6
400.572	607
400.977	614.6
401.382	622
401.787	608.6
402.192	626.8
402.597	620.4
403.002	593
403.386	616
403.791	628.6
404.197	604.4
404.602	611
405.007	606.2
405.413	601
405.818	608.2
406.224	604.2
406.608	595.6
407.014	591.8
407.42	623
407.825	602.6
408.231	611.6
408.637	608.8
409.043	620.2
409.449	596.8
409.834	595.2
410.24	604
410.646	609
411.052	616.8
411.458	609
411.865	621.8
412.271	614
412.677	608.8
413.062	611
413.469	596
413.875	628.4
414.282	622
414.689	611.8
415.095	604.8
415.502	603
415.888	605.2
416.294	598.8
416.701	652.6
417.108	600
417.515	619
417.923	599.2
418.33	633
418.715	614.2
419.123	612.2
419.53	605.2
419.937	614.4
420.345	620
420.752	607.4
421.16	616.4
421.546	611
421.953	612
422.361	603.8
422.769	615.2
423.177	606.8
423.585	631.8
423.992	627.6
424.379	614.2
424.787	621.6
425.195	633.6
425.603	612.2
426.011	624.8
426.419	621.6
426.806	604.4
427.214	615.4
427.623	619.6
428.031	628.2
428.44	620.2
428.848	630.8
429.235	633.6
429.644	617.4
430.053	615.4
430.461	633.2
430.87	646.2
431.279	628.8
431.666	614.8
432.075	625.4
432.484	639
432.893	624.4
433.302	647.2
433.711	669.4
434.099	643
434.508	653
434.918	636.2
435.327	659.8
435.737	657.6
436.125	660.2
436.534	671.6
436.944	671
437.353	685
437.763	710.4
438.173	683.6
438.561	699.6
438.971	678
439.381	706.4
439.791	721.4
440.201	704.6
440.589	713.8
440.999	734
441.409	736.2
441.819	726
442.23	751
442.619	756.4
443.029	755.6
443.439	745.8
443.85	768.8
444.26	778
444.649	779.8
445.06	773.4
445.471	777.6
445.881	772.4
446.292	794.6
446.682	801.6
447.092	777
447.503	829.2
447.914	796.2
448.325	791.2
448.715	787.8
449.126	798
449.537	794.6
449.948	800.2
450.338	809.2
450.75	811.2
451.161	810.8
451.572	817.8
451.984	808.4
452.374	807.8
452.786	818.2
453.197	809.8
453.609	825.2
453.999	801
454.411	806.4
454.823	822.4
455.235	817.4
455.647	816.8
456.037	820.8
456.449	810.8
456.862	817.8
457.274	824.4
457.665	803
458.077	827.8
458.489	841.6
458.902	822.8
459.293	813.2
459.705	823.4
460.118	808.8
460.53	831.6
460.921	820.6
461.334	826
461.747	827.8
462.16	833
462.551	835.2
462.964	826.6
463.377	806.2
463.79	817.8
464.182	830.4
464.595	814
465.008	828.8
465.421	833
465.813	828.8
466.226	824.2
466.64	821.4
467.053	873
467.445	838.8
467.859	837.6
468.272	823.8
468.686	834.8
469.078	817.6
469.492	808.2
469.906	828.2
470.298	834
470.712	826.2
471.126	869.4
471.54	801.8
471.933	802.8
472.347	810.6
472.761	816.2
473.175	810.6
473.568	811.6
473.982	808.4
474.397	822.6
474.79	820.6
475.204	826.8
475.619	817.2
476.033	811.8
476.426	819.8
476.841	800.2
477.256	834.2
477.649	799.4
478.064	797.4
478.479	804.4
478.872	796.8
479.287	791.8
479.702	794.8
480.118	791.8
480.511	797.8
480.927	802.4
481.342	794.8
481.736	798.4
482.151	806.4
482.566	814.4
482.96	803.2
483.376	801
483.792	797
484.186	801.6
484.602	792.6
485.017	787.4
485.412	779
485.827	796.2
486.243	789.2
486.638	810
487.054	800.8
487.47	793.8
487.865	780
488.281	780.8
488.697	775.2
489.092	782.4
489.508	774.2
489.925	790.8
490.32	770.6
490.736	792
491.153	779
491.548	783
491.964	782
492.381	755.2
492.776	773
493.193	768.6
493.61	772.6
494.006	770.4
494.422	771.8
494.84	758.8
495.235	785.4
495.652	763.2
496.069	763.6
496.465	752.2
496.883	757.4
497.3	786.4
497.696	747.8
498.113	760.4
498.509	746.6
498.927	743.2
499.344	756.2
499.741	744.8
500.158	764.4
500.576	763.6
500.973	750.4
501.39	739.4
501.787	719
502.205	737
502.623	745.8
503.02	727.4
503.438	737.2
503.856	736.6
504.253	747
504.671	737.2
505.068	723.8
505.486	740.4
505.905	746.4
506.302	726.4
506.72	735.8
507.118	711.4
507.536	714.4
507.955	726
508.352	725.4
508.771	722
509.169	721.4
509.587	707.8
510.006	724
510.404	698.8
510.823	709.8
511.221	708.6
511.64	708.4
512.038	730.4
512.457	701.6
512.877	706.2
513.275	704.6
513.694	708.8
514.092	719.4
514.512	710.6
514.91	712.4
515.33	704.6
515.749	706.8
516.148	701.8
516.568	698.8
516.966	694.4
517.386	686.4
517.785	693.4
518.205	698.4
518.603	689.2
519.024	692.2
519.444	704
519.843	704.4
520.263	705.2
520.662	700.6
521.082	695.4
521.481	699
521.902	684.8
522.301	693.8
522.722	680.2
523.121	689.2
523.542	682.2
523.963	690.8
524.362	691.8
524.783	688.4
525.183	681.2
525.604	682.6
526.003	679
526.425	669.2
526.824	680.4
527.246	687
527.646	690.2
528.067	679
528.467	682.2
528.888	678.2
529.289	676.6
529.71	677
530.11	667.6
530.532	671.2
530.932	660.2
531.354	667.6
531.755	703.8
532.176	674.2
532.577	671.4
532.999	665
533.4	666
533.822	668.4
534.223	672.6
534.645	664.2
535.046	666.2
535.468	657.2
535.869	678.4
536.292	661.2
536.693	696.4
537.115	662.4
537.516	659
537.939	659
538.34	677.6
538.742	672
539.165	661.4
539.566	656.6
539.989	657
540.391	664.6
540.814	659.4
541.216	660.2
541.639	657.6
542.041	671.8
542.464	648.4
542.866	645
543.268	644.8
543.691	664.2
544.093	660.4
544.517	675
544.919	640.8
545.343	670.4
545.745	635.2
546.147	649.4
546.571	654.8
546.974	639
547.398	640.6
547.8	656
548.224	641
548.627	632
549.03	650.6
549.454	626.8
549.857	630.4
550.281	640
550.684	640.6
551.087	652
551.512	647.2
551.915	643.4
552.34	645.2
552.743	639.6
553.146	638.8
553.571	632.8
553.975	659.4
554.399	636
554.803	682.2
555.207	640.4
555.632	634
556.036	640
556.461	634.2
556.865	644.4
557.268	634
557.694	632.2
558.098	650.2
558.502	643.2
558.927	627.8
559.332	631.6
559.736	637.2
560.162	644
560.566	631.6
560.992	633.6
561.396	618.6
561.801	635.6
562.227	625.8
562.631	624.4
563.036	628.2
563.462	638.2
563.867	640.8
564.272	606.6
564.698	640
565.103	617.2
565.508	640.2
565.935	623.8
566.34	629
566.745	653.2
567.172	626
567.577	644.2
567.982	633.6
568.409	630
568.815	617.4
569.22	633.4
569.626	633.4
570.053	613.6
570.459	636.2
570.865	622
571.292	619.2
571.698	626.4
572.104	603.8
572.531	616.8
572.937	628.6
573.343	612.8
573.75	611
574.177	619.2
574.583	625.4
574.99	613.4
575.396	620.6
575.824	613.8
576.231	631.2
576.637	614.2
577.065	641.2
577.472	613
577.879	612.8
578.286	638.6
578.714	605.8
579.121	615.2
579.528	617.4
579.935	623.8
580.364	615
580.771	599.6
581.178	609.2
581.585	616.2
582.014	616
582.421	608.6
582.829	615.8
583.236	623
583.644	605.4
584.073	607
584.481	608
584.889	606
585.296	615.2
585.726	609.4
586.134	612
586.542	604.4
586.95	629.4
587.358	603.8
587.787	618.6
588.196	627.8
588.604	603.6
589.012	616.6
589.421	604
589.851	600.8
590.259	603.8
590.668	611
591.076	648.6
591.485	610.2
591.894	608.4
592.324	623.8
592.733	619.6
593.142	601
593.551	611.6
593.96	644.8
594.369	591.8
594.8	599.2
595.209	604.6
595.618	592.6
596.028	596.6
596.437	598.6
596.847	606.4
597.256	608.2
597.687	602.8
598.097	601.6
598.507	594.4
598.917	605.4
599.327	602.4
599.736	607.6
600.146	609
600.556	604
600.988	605.4
601.398	607.4
601.808	610.4
602.219	592
602.629	608
603.039	603
603.45	625.4
603.86	606.4
604.271	612.4
604.703	601.4
605.114	600.2
605.525	597.2
605.935	601.6
606.346	618
606.757	602.8
607.168	599.6
607.579	592.2
607.99	611
608.402	605.2
608.813	609
609.224	597.6
609.636	588.6
610.047	594.6
610.48	597.6
610.892	596.8
611.303	602.2
611.715	598.8
612.127	583.2
612.539	590.8
612.95	603.6
613.362	594
613.774	585.4
614.186	592
614.599	595.8
615.011	600.4
615.423	595.4
615.835	588.4
616.248	590
616.66	606.4
617.073	593
617.485	593
617.898	610
618.311	594.6
618.723	603.6
619.136	628
619.549	610.2
619.962	626.6
620.375	601.8
620.788	602.4
621.201	592.8
621.614	609.6
622.028	599.8
622.441	596
622.854	613.8
623.268	596.6
623.681	605.4
624.095	607
624.509	610.6
624.922	606.2
625.336	583.2
625.728	599.6
626.142	598
626.556	614.8
626.97	602
627.384	596
627.799	596
628.213	607.6
628.627	590.4
629.041	604
629.456	594
629.87	598.2
630.285	604
630.699	603.2
631.093	598.4
631.507	601
631.922	590
632.337	597.2
632.752	591
633.167	591.6
633.582	594.8
633.997	590.6
634.412	585.2
634.806	595.4
635.221	587.8
635.637	606.6
636.052	582.8
636.468	598
636.883	607.2
637.299	591.2
637.715	579.8
638.109	597
638.525	584.8
638.941	607.2
639.357	592
639.773	606.4
640.189	595
640.584	591
641	588.4
641.416	584.2
641.832	590.4
642.249	590.6
642.665	598
643.06	601
643.477	600.4
643.894	577
644.31	591.6
644.727	592
645.123	592.2
645.54	584.2
645.957	590.2
646.374	601.6
646.77	593
647.187	618.2
647.604	596.2
648.021	583
648.439	583.2
648.835	598.4
649.252	589.8
649.67	589.4
650.088	594
650.484	605.8
650.902	597.2
651.32	593.8
651.738	594.6
652.134	596.4
652.552	612.2
652.971	593.6
653.389	585.4
653.786	603.4
654.204	615.6
654.622	584.6
655.019	595.8
655.438	588.4
655.857	592
656.275	597.4
656.673	585.8
657.091	599
657.51	584
657.908	599
658.327	609.4
658.746	583.4
659.144	579.8
659.563	606.4
659.982	592
660.38	571.2
660.8	589.2
661.219	605.2
661.617	599
662.037	594.6
662.457	599
662.855	583.4
663.275	626.8
663.695	587
664.094	593.8
664.514	587.6
664.934	576.2
665.333	601.6
665.753	591.4
666.152	583.4
666.572	586.4
666.993	606.4
667.392	585.2
667.812	589.2
668.212	585.8
668.632	593.8
669.053	594.4
669.453	591.2
669.874	599
670.273	589
670.694	584.2
671.116	595.8
671.515	589.2
671.937	586.6
672.337	576.2
672.758	594
673.158	596.8
673.58	577.6
673.98	586.8
674.402	597.4
674.824	586
675.224	576.6
675.646	580.4
676.047	580.8
676.469	591
676.869	602.2
677.292	591.4
677.693	586.6
678.115	582
678.516	593.8
678.939	598.2
679.34	583.6
679.762	594
680.164	595
680.586	584.8
680.988	588.8
681.411	613
681.812	582.6
682.236	580.4
682.637	581.4
683.061	580.4
683.462	581.2
683.864	583.4
684.288	594.4
684.69	576.2
685.114	600.8
685.516	599.2
685.94	591
686.342	592.8
686.766	579
687.168	585.2
687.571	605.6
687.995	594.6
688.398	570
688.822	585
689.225	605.8
689.628	606.6
690.052	582.2
690.456	593.4
690.88	587.6
691.284	580.8
691.687	597.6
692.112	585
692.515	581.4
692.919	588.2
693.344	591.6
693.747	588.6
694.173	586.8
694.577	604
694.98	586.6
695.406	578.6
695.81	594.4
696.214	585.4
696.64	596.6
697.044	595.2
697.448	592
697.874	588.6
698.279	586.6
698.684	568
699.11	587.4
699.514	584.2
699.919	590.8
700.324	572.4
700.75	583.4
701.156	577
701.561	593.6
701.987	585.6
702.393	592.6
702.798	589.4
703.203	592.6
703.63	579.4
704.036	582.8
704.442	591.8
704.847	580.8
705.274	589.6
705.68	584.4
706.086	591
706.492	575.2
706.92	583.8
707.326	594.2
707.732	595.2
708.139	576.8
708.545	579.6
708.973	585.6
709.38	587
709.786	574.8
710.193	601.8
710.6	586.6
711.028	580
711.435	580
711.842	587.2
712.249	585
712.656	582
713.064	593.6
713.492	584.6
713.9	581.8
714.307	593
714.715	584.8
715.123	589.4
715.53	588
715.938	590.4
716.367	577.8
716.775	580.6
717.184	576.4
717.592	587.2
718	594.2
718.408	615.4
718.816	623.6
719.225	593.6
719.633	595
720.042	568.2
720.472	581.6
720.881	608.4
721.29	586.2
721.699	573.8
722.108	589.2
722.517	594.4
722.926	587.4
723.335	593
723.744	585
724.154	587
724.563	583.4
724.973	583.6
725.382	577.6
725.792	585.8
726.202	578.2
726.612	609.2
727.022	588.2
727.432	576.4
779.813	590.2
780.223	633
780.634	586
781.044	574.4
781.454	587.8
781.865	593
782.276	574.4
782.686	581.6
783.097	578.8
783.508	581.6
783.919	593.8
784.33	593
784.741	600.2
785.152	577.8
785.563	571
785.974	575.8
786.386	593.8
786.776	585.4
787.188	584.6
787.599	581.4
788.011	585.8
788.423	586
788.835	578.8
789.247	574.2
789.659	585.8
790.071	574
790.483	618.2
790.874	582.6
791.286	593.4
791.699	580.4
792.111	580.2
792.524	589.4
792.937	572.2
793.349	575
793.741	574.8
794.154	576.4
794.567	602.6
794.98	583.4
795.393	569.8
795.785	598.2
796.198	574.8
796.612	581.2
797.026	574
797.439	570
797.831	584.8
798.245	569.2
798.659	572.2
799.073	584.2
799.487	571.8
799.88	581.8
800.294	576.8
800.708	582.8
801.123	594
801.516	610.4
801.93	571.8
802.345	565
802.76	580
803.153	601.8
803.568	591.4
803.983	589.4
804.377	588.2
804.792	565.2
805.207	567.2
805.601	573.2
806.016	617.2
806.432	570.4
806.826	610.4
807.242	596.4
807.658	579
808.052	582.6
808.468	580.6
808.884	585
809.279	581.4
809.695	595.8
810.111	601.6
810.506	581.6
810.922	601.8
811.339	576.4
811.734	596.8
812.151	571.6
812.546	579.8
812.963	577.6
813.38	576.4
813.776	579.8
814.193	605.6
814.589	577
815.006	581.4
815.402	575
815.82	570.8
816.237	575
816.633	586.2
817.051	570.6
817.448	576.2
817.866	576
818.262	597
818.68	585.2
819.077	580.2
819.495	582
819.892	614.2
820.311	579.4
820.708	584.4
821.127	580
821.524	594.2
821.943	583.6
822.34	599.6
822.759	582.8
823.157	590.4
823.576	591
823.974	584.8
824.393	634.6
824.791	574.2
825.189	574.2
825.609	582.2
826.007	577.4
826.427	574.8
826.826	578.4
827.246	580.8
827.644	574.2
828.043	586.6
828.463	572.8
828.862	583.2
829.261	590
829.682	570.4
830.081	585.2
830.502	580.8
830.901	591.6
831.301	599.2
831.722	580.4
832.121	584.8
832.521	574.2
832.943	574
833.342	588.2
833.742	573.8
834.164	586.8
834.564	572.4
834.965	578.2
835.386	580.6
835.787	573.8
836.188	577.8
836.588	582.6
837.01	582.4
837.411	573.2
837.812	586.6
838.213	582.8
838.636	576
839.037	645.4
839.438	589.4
839.84	592.6
840.263	584.8
840.664	579.6
841.066	575.8
841.468	581.2
841.891	593
842.293	587.2
842.695	590
843.098	588.6
843.5	580.8
843.902	583.4
844.326	590.2
844.729	591
845.131	600.6
845.534	577.4
845.937	590.6
846.34	594.6
846.764	575.4
847.167	584.2
847.571	577.6
847.974	584.6
848.377	579.2
848.781	631.2
849.184	590.4
849.588	576.6
849.992	576.6
850.396	582.6
850.821	597
851.225	590.2
851.63	580.2
852.034	595.6
852.438	576.6
852.843	664.8
853.247	573.2
853.652	567
854.057	593.6
854.462	587
854.867	571
855.272	613.8
855.677	579.2
856.082	578.6
856.487	567.4
856.893	591.4
857.298	578.6
