#lambda/nm	C1
208.295	513
208.67	468
209.045	429
209.419	435.8
209.794	613.2
210.169	596
210.544	719.8
210.919	619.6
211.295	611.6
211.67	614.8
212.045	615.6
212.421	617.6
212.796	648.6
213.172	603.6
213.547	619.4
213.923	606
214.299	607.6
214.675	625.2
215.051	620.8
215.427	619.2
215.803	638.8
216.179	623.2
216.555	609
216.932	622.2
217.308	618.4
217.684	615.6
218.061	624.4
218.438	614.2
218.814	605.6
219.191	620.4
219.568	613.4
219.945	608
220.322	615
220.699	617.6
221.076	620.4
221.453	617.4
221.83	600.2
222.208	606.4
222.585	610.2
222.962	616.2
223.34	631.6
223.717	616
224.095	612
224.473	615.8
224.851	602.8
225.229	602.8
225.607	629.6
225.985	607.8
226.363	613.6
226.741	611.6
227.119	608.6
227.497	625.6
227.876	603
228.254	624.6
228.633	615.6
229.011	613.6
229.39	619.4
229.769	617
230.148	614
230.527	629.6
230.905	617.8
231.284	617
231.664	608.6
232.043	629.2
232.422	622.6
232.801	615.8
233.181	618.2
233.56	608.8
233.94	614.4
234.319	599.8
234.699	603.2
235.079	655.6
235.458	650
235.838	624.6
236.218	600.6
236.598	606
236.978	607.6
237.358	606.2
237.738	607.8
238.119	623.2
238.499	608.2
238.88	611.2
239.26	630.8
239.641	609.4
240.021	608.8
240.402	611
240.783	610.4
241.163	615.8
241.544	626.4
241.925	613.8
242.306	632
242.687	626.2
243.069	617.4
243.45	624.6
243.831	608.4
244.212	614.2
244.594	650.8
244.975	621.6
245.357	624.6
245.739	606
246.12	622.6
246.502	634.6
246.884	610.2
247.266	615
247.648	621.6
248.03	638.8
248.412	621
248.794	624.4
249.176	604.8
249.559	624.2
249.941	614.2
250.323	603.2
250.706	612
251.089	618.6
251.471	620.8
251.854	619.4
252.237	612.8
252.62	621.8
253.002	616.8
253.385	612
253.769	627.8
254.152	621
254.535	622.8
254.918	604.2
255.301	616
255.685	612.6
256.068	612.2
256.452	643.8
256.835	624.8
257.219	620.6
257.603	631.6
257.986	610.4
258.37	616.4
258.754	603.4
259.138	616.8
259.522	618.6
259.906	612.8
260.29	618.4
260.675	611.4
261.059	613.6
261.443	604.4
261.828	617.6
262.212	611.8
262.597	601
262.981	606.4
263.366	608.8
263.751	621.6
264.136	596.6
264.521	616
264.906	601
265.291	629.2
265.676	606.6
266.061	625
266.446	633
266.831	613.2
267.217	637.4
267.602	624.8
267.987	631.2
268.373	607.8
268.759	627
269.144	610.8
269.53	615.2
269.916	612
270.302	611
270.688	618.8
271.074	622.4
271.46	625.6
271.846	642.4
272.232	613.2
272.618	620.4
273.004	612
273.391	625.2
273.777	628.4
274.164	615.8
274.55	633.6
274.937	621.2
275.324	610.2
275.71	622.4
276.097	615.2
276.484	616
276.871	620.2
277.258	626
277.645	605.4
278.032	619.4
278.419	618.6
278.807	615.2
279.194	611
279.581	609
279.969	620.2
280.356	612.4
280.744	612.2
281.131	640
281.519	635.2
281.907	615.8
282.295	619.2
282.682	626.8
283.07	617
283.458	628.6
283.846	634.6
284.235	628.8
284.623	627.2
285.011	609.2
285.399	621
285.788	616.8
286.176	615.4
286.565	628
286.953	613.4
287.342	612.4
287.731	606.8
288.119	610.8
288.508	613.4
288.897	618.2
289.286	603.8
289.675	616.8
290.064	628.8
290.453	616.8
290.821	617.2
291.21	631.8
291.599	611.2
291.989	625.8
292.378	616.6
292.768	639.6
293.157	617.4
293.547	624.8
293.936	617
294.326	606.8
294.716	625.4
295.106	610.8
295.496	620.2
295.886	627.4
296.276	617.4
296.666	610.6
297.056	614
297.446	601.8
297.836	638.2
298.227	607
298.617	626.4
299.008	630.4
299.398	621
299.789	617.4
300.179	609
300.57	629.4
300.961	615.2
301.352	606.8
301.742	616.6
302.133	613.4
302.524	610.8
302.915	600.2
303.307	608
303.698	624.8
304.089	622
304.48	607.2
304.872	618.2
305.263	607.8
305.655	605.4
306.046	624.6
306.438	619.4
306.829	608.6
307.221	622.4
307.613	621.8
308.005	628.4
308.397	633.2
308.789	637
309.181	641.8
309.573	636.4
309.965	632.4
310.357	613.6
310.749	629.4
311.142	614.4
311.534	619.6
311.926	621.8
312.319	618.6
312.711	611.4
313.104	628.8
313.497	613.4
313.889	665.2
314.282	632
314.675	643.2
315.068	619.6
315.461	624
315.854	645.4
316.247	626.6
316.64	621.6
317.033	606
317.405	627.4
317.798	615.6
318.192	617.4
318.585	608.6
318.979	619
319.372	616
319.766	607.8
320.16	622.8
320.553	624.8
320.947	636.6
321.341	616.4
321.735	613.6
322.129	613
322.523	644.4
322.917	614.6
323.311	628
323.705	620
324.099	624.4
324.494	626.2
324.888	631
325.282	609.6
325.677	625.2
326.071	626.2
326.466	632.8
326.861	611.6
327.255	633.2
327.65	627
328.045	629
328.44	625.4
328.835	618.6
329.23	615.8
329.625	640.4
330.02	600.6
330.415	635.4
330.81	616.8
331.206	614.4
331.601	619.4
331.996	624.4
332.37	633.2
332.766	603.8
333.161	634.8
333.557	623.2
333.953	618.2
334.348	981.6
334.744	610.6
335.14	612.2
335.536	603
335.932	620.4
336.328	614.8
336.724	628.2
337.12	624
337.516	616
337.913	622.6
338.309	629.2
338.705	621.6
339.102	628
339.498	617.8
339.895	630.6
340.291	607.4
340.688	621.4
341.085	613
341.481	626.4
341.878	615.6
342.275	640.4
342.672	611.8
343.069	617.4
343.466	606.8
343.842	632.8
344.239	614.8
344.636	615.2
345.033	616.2
345.431	612.6
345.828	624
346.225	613
346.623	648.6
347.02	618.8
347.418	617.2
347.816	635.6
348.213	600.8
348.611	619.2
349.009	610.8
349.407	623.8
349.805	601.4
350.203	597.8
350.601	627
350.999	615
351.397	670.8
351.795	615.8
352.193	622.2
352.57	620.2
352.969	627.8
353.367	609.2
353.766	610.8
354.164	618
354.563	632.6
354.961	614
355.36	615.8
355.759	608.8
356.158	598.4
356.557	605
356.956	608.6
357.355	598.8
357.754	609
358.153	619
358.552	633
358.951	619.4
359.35	623.8
359.75	603.8
360.149	599.4
360.527	599
360.926	594.4
361.326	607.8
361.726	614
362.125	601.8
362.525	611.2
362.925	610.4
363.325	607.4
363.724	618
364.124	607.4
364.524	606.6
364.924	602
365.324	615.8
365.725	593.6
366.125	622
366.525	610
366.904	601.8
367.304	589
367.705	629.6
368.105	623.8
368.506	609
368.906	609.6
369.307	611.8
369.708	617.8
370.108	598.6
370.509	621.8
370.91	613.2
371.311	614.4
371.712	606.8
372.113	612.2
372.514	604
372.894	606.4
373.295	607
373.696	615.4
374.097	612
374.499	636.6
374.9	616.2
375.301	599.6
375.703	617.8
376.105	600.6
376.506	610.6
376.908	613.8
377.309	610.2
377.711	602.8
378.113	610.2
378.493	611.8
378.895	606
379.297	622.6
379.699	598.6
380.102	619.2
380.504	612
380.906	608.2
381.308	634.6
381.71	609
382.113	622.4
382.515	600.4
382.918	611.6
383.299	607.2
383.701	613.2
384.104	612.4
384.507	586.4
384.909	609
385.312	592.8
385.715	600.4
386.118	600.2
386.521	604.4
386.924	615.6
387.327	593.6
387.709	590
388.112	597.2
388.515	599.4
388.918	600.4
389.322	612
389.725	596.2
390.129	625.8
390.532	608
390.936	598.8
391.339	597.2
391.743	607.2
392.125	604.8
392.529	615.2
392.933	620.4
393.337	604.6
393.74	605.8
394.144	614.4
394.548	601.8
394.953	597
395.357	616.6
395.761	611.2
396.144	602.2
396.548	612
396.952	606.2
397.357	603.6
397.761	601.2
398.166	599.6
398.57	608.2
398.975	590.8
399.379	606
399.763	644
400.168	607
400.572	597.8
400.977	608.2
401.382	623
401.787	616.4
402.192	624.2
402.597	627.8
403.002	594.4
403.386	621.2
403.791	617.8
404.197	599.6
404.602	605.6
405.007	602.8
405.413	599.4
405.818	612.2
406.224	604.2
406.608	597.4
407.014	597.6
407.42	626.8
407.825	600
408.231	616.2
408.637	604.6
409.043	622
409.449	604.6
409.834	602.8
410.24	616.6
410.646	624
411.052	613.8
411.458	614.6
411.865	614.8
412.271	618
412.677	599.6
413.062	613.4
413.469	604.6
413.875	630
414.282	610.2
414.689	613.6
415.095	612.6
415.502	597.2
415.888	609.6
416.294	585.2
416.701	643.8
417.108	601.6
417.515	622.4
417.923	600.2
418.33	629.2
418.715	615.2
419.123	606.2
419.53	610
419.937	605
420.345	621.6
420.752	605.2
421.16	623.8
421.546	607.4
421.953	614.4
422.361	608.8
422.769	614.6
423.177	607.4
423.585	630.8
423.992	632.8
424.379	620.8
424.787	625.2
425.195	631.8
425.603	607.4
426.011	626.2
426.419	620.2
426.806	613.6
427.214	610.4
427.623	620
428.031	621
428.44	617.8
428.848	624.6
429.235	628.6
429.644	611.4
430.053	615.6
430.461	630.2
430.87	637
431.279	618.2
431.666	614.6
432.075	609
432.484	627.8
432.893	622.8
433.302	634.4
433.711	655
434.099	630.2
434.508	617.4
434.918	612
435.327	639.6
435.737	633
436.125	644
436.534	654
436.944	637.2
437.353	644.6
437.763	675.6
438.173	646.2
438.561	665.8
438.971	638.8
439.381	662
439.791	675.8
440.201	655.8
440.589	681.6
440.999	685.2
441.409	690.8
441.819	673
442.23	709.2
442.619	711.8
443.029	701.8
443.439	704.2
443.85	709
444.26	723.6
444.649	721.4
445.06	722.4
445.471	712.8
445.881	722.2
446.292	735.4
446.682	744.6
447.092	724
447.503	785.4
447.914	746.4
448.325	737.6
448.715	742.6
449.126	742
449.537	743.6
449.948	749.8
450.338	749.2
450.75	760.4
451.161	749.8
451.572	759
451.984	743.8
452.374	739.2
452.786	764.2
453.197	762.6
453.609	779.6
453.999	749
454.411	754.8
454.823	768.2
455.235	758.2
455.647	760.4
456.037	760.4
456.449	742.2
456.862	765.8
457.274	763.4
457.665	764
458.077	769.2
458.489	810.6
458.902	764.2
459.293	765.8
459.705	767.2
460.118	765
460.53	768.2
460.921	769.2
461.334	776
461.747	770.6
462.16	780.2
462.551	779.4
462.964	775
463.377	770.2
463.79	778.2
464.182	787.8
464.595	773
465.008	787.2
465.421	785.6
465.813	768.6
466.226	782
466.64	778.2
467.053	829.8
467.445	793.2
467.859	802.2
468.272	784.2
468.686	798.6
469.078	787.6
469.492	780.2
469.906	784
470.298	795.8
470.712	779.8
471.126	830.8
471.54	773.6
471.933	780
472.347	777.4
472.761	774.8
473.175	783.4
473.568	782.4
473.982	771.2
474.397	783.8
474.79	789.8
475.204	789.4
475.619	779.8
476.033	787
476.426	784.4
476.841	774.6
477.256	813
477.649	777.6
478.064	780.4
478.479	775.2
478.872	771
479.287	770
479.702	774.6
480.118	773.4
480.511	776.4
480.927	776.8
481.342	777.4
481.736	775.8
482.151	767.4
482.566	774.8
482.96	772.4
483.376	790.6
483.792	766.2
484.186	782.8
484.602	762.4
485.017	772.8
485.412	772.4
485.827	772.6
486.243	768.6
486.638	805.6
487.054	775.6
487.47	786.2
487.865	769
488.281	769.4
488.697	755.6
489.092	762
489.508	749.8
489.925	780.6
490.32	753.4
490.736	767.6
491.153	766.4
491.548	761.6
491.964	757.2
492.381	746.8
492.776	760.2
493.193	755.4
493.61	750
494.006	748
494.422	756.2
494.84	743
495.235	750.8
495.652	741.6
496.069	744.8
496.465	738
496.883	746.4
497.3	772.2
497.696	740
498.113	747.8
498.509	732.8
498.927	732
499.344	724.4
499.741	718.8
500.158	736.8
500.576	748.2
500.973	735
501.39	726.4
501.787	725
502.205	729.2
502.623	723
503.02	710.8
503.438	723.4
503.856	726.8
504.253	732
504.671	722.6
505.068	718.8
505.486	720.8
505.905	734.6
506.302	718.2
506.72	719.8
507.118	712.6
507.536	721
507.955	729.6
508.352	716.2
508.771	721.8
509.169	721.2
509.587	707.4
510.006	713
510.404	702.6
510.823	706
511.221	704
511.64	700.4
512.038	721.8
512.457	702.6
512.877	709.8
513.275	693.8
513.694	700.2
514.092	705.6
514.512	705.2
514.91	710.2
515.33	697.8
515.749	701
516.148	696.2
516.568	707.6
516.966	697.8
517.386	685.2
517.785	689.8
518.205	688.8
518.603	684
519.024	687.2
519.444	696.8
519.843	687.8
520.263	700.2
520.662	701.8
521.082	676.2
521.481	685.6
521.902	684.6
522.301	689.2
522.722	684.6
523.121	679.2
523.542	677.2
523.963	676.2
524.362	675.4
524.783	679.8
525.183	674.4
525.604	683.8
526.003	669.8
526.425	672.2
526.824	672.2
527.246	676
527.646	674.6
528.067	670.8
528.467	677.2
528.888	676
529.289	671.2
529.71	665
530.11	665.2
530.532	664.8
530.932	662.8
531.354	653.2
531.755	707
532.176	679.4
532.577	662.8
532.999	656.6
533.4	657.8
533.822	673.4
534.223	671.8
534.645	658.8
535.046	662.6
535.468	663.4
535.869	674.8
536.292	651.6
536.693	680.2
537.115	658.8
537.516	655.6
537.939	655.6
538.34	669
538.742	668.2
539.165	667.6
539.566	659.8
539.989	646
540.391	650.6
540.814	656.6
541.216	652.4
541.639	658.2
542.041	660.2
542.464	650.8
542.866	648.4
543.268	644
543.691	655.8
544.093	661.6
544.517	673.8
544.919	643
545.343	665.8
545.745	636.2
546.147	656.4
546.571	643
546.974	633.8
547.398	649.4
547.8	665
548.224	645.6
548.627	638.6
549.03	659.4
549.454	638.8
549.857	635.4
550.281	631.6
550.684	640.6
551.087	646.8
551.512	639.8
551.915	641
552.34	641.6
552.743	636.2
553.146	641
553.571	641.6
553.975	656.8
554.399	627.6
554.803	690.6
555.207	630.2
555.632	621.6
556.036	637.2
556.461	631.8
556.865	629.2
557.268	630.4
557.694	622.2
558.098	632.6
558.502	642.4
558.927	621.2
559.332	638.4
559.736	637.8
560.162	641.8
560.566	627.8
560.992	642.8
561.396	629
561.801	628.8
562.227	628.4
562.631	629
563.036	634.4
563.462	638.2
563.867	632.8
564.272	615.2
564.698	636
565.103	610.8
565.508	645.4
565.935	624
566.34	622.4
566.745	648.8
567.172	619.8
567.577	640.6
567.982	644.6
568.409	628.6
568.815	610
569.22	627.6
569.626	631
570.053	605
570.459	634.6
570.865	634.4
571.292	622.2
571.698	625.4
572.104	608.4
572.531	617.8
572.937	627.8
573.343	617.4
573.75	615.8
574.177	623.4
574.583	618.6
574.99	615.6
575.396	621.2
575.824	618
576.231	628.4
576.637	620.2
577.065	634.4
577.472	620.6
577.879	617.2
578.286	625.8
578.714	606.4
579.121	614.4
579.528	616.6
579.935	627
580.364	620.8
580.771	605.8
581.178	603.2
581.585	615.4
582.014	616.8
582.421	617.4
582.829	611.4
583.236	619
583.644	613.4
584.073	614
584.481	617.8
584.889	606.4
585.296	619.2
585.726	607.2
586.134	605.6
586.542	611.4
586.95	632.6
587.358	601.4
587.787	609
588.196	629.6
588.604	610
589.012	612.6
589.421	604.4
589.851	601
590.259	608.8
590.668	608.6
591.076	650.4
591.485	607
591.894	600.6
592.324	624.6
592.733	618.2
593.142	595.2
593.551	598.2
593.96	641
594.369	596.2
594.8	602.8
595.209	612.2
595.618	592
596.028	597.8
596.437	598.2
596.847	609.4
597.256	611.8
597.687	609.4
598.097	605.8
598.507	592.4
598.917	615.6
599.327	621.4
599.736	607.4
600.146	627.2
600.556	606
600.988	618.4
601.398	611
601.808	622
602.219	597.6
602.629	621.4
603.039	612
603.45	640.2
603.86	615.6
604.271	627.6
604.703	623
605.114	612.6
605.525	607.6
605.935	622.8
606.346	630.2
606.757	612.4
607.168	608.6
607.579	615.6
607.99	614.6
608.402	610.8
608.813	610.8
609.224	599.4
609.636	606.4
610.047	612.4
610.48	610.4
610.892	613.6
611.303	618.8
611.715	610.2
612.127	609.6
612.539	616.4
612.95	611
613.362	601
613.774	600.6
614.186	604.2
614.599	602.6
615.011	624
615.423	609.8
615.835	607.8
616.248	600
616.66	620.8
617.073	606
617.485	612.8
617.898	625.4
618.311	614
618.723	612.8
619.136	639.6
619.549	621.8
619.962	640.2
620.375	611.6
620.788	620
621.201	611.4
621.614	616
622.028	602.8
622.441	613.6
622.854	630.2
623.268	604.2
623.681	619.4
624.095	610.2
624.509	624.4
624.922	622.2
625.336	610.2
625.728	618.4
626.142	628.2
626.556	630.4
626.97	628.2
627.384	610.2
627.799	615.4
628.213	622
628.627	616
629.041	611.6
629.456	609.6
629.87	612.2
630.285	619.4
630.699	631
631.093	609
631.507	615.8
631.922	617.4
632.337	628.4
632.752	612.2
633.167	624.2
633.582	611
633.997	617
634.412	609
634.806	612.4
635.221	604.8
635.637	632.2
636.052	594.4
636.468	623.4
636.883	638
637.299	611.2
637.715	602
638.109	612.8
638.525	599.6
638.941	628.4
639.357	609.2
639.773	619.8
640.189	611.2
640.584	612.2
641	617
641.416	602
641.832	604.8
642.249	606.6
642.665	605
643.06	612.6
643.477	623.8
643.894	601.6
644.31	616.4
644.727	614
645.123	612.2
645.54	603.4
645.957	611.4
646.374	622
646.77	618
647.187	635.4
647.604	617.2
648.021	602.8
648.439	605.8
648.835	609.6
649.252	598.6
649.67	602.8
650.088	604.4
650.484	614
650.902	613.2
651.32	614
651.738	606.2
652.134	601
652.552	625.2
652.971	620
653.389	605.8
653.786	614.6
654.204	622.8
654.622	598.2
655.019	598.8
655.438	601.6
655.857	605.6
656.275	608
656.673	595.8
657.091	608
657.51	600.4
657.908	614.2
658.327	614
658.746	595.2
659.144	607.4
659.563	610.6
659.982	597.2
660.38	595.6
660.8	601.2
661.219	606.2
661.617	602.8
662.037	598.2
662.457	613.8
662.855	583
663.275	633.4
663.695	596
664.094	597.8
664.514	599.8
664.934	587
665.333	603
665.753	597.2
666.152	597
666.572	581.2
666.993	610
667.392	594.2
667.812	599
668.212	596
668.632	600.4
669.053	597.4
669.453	601.6
669.874	607.8
670.273	596.4
670.694	596.6
671.116	611.2
671.515	610.8
671.937	593.4
672.337	594
672.758	592.6
673.158	610
673.58	587
673.98	606.4
674.402	608
674.824	593.2
675.224	590.4
675.646	589.6
676.047	593.6
676.469	597.2
676.869	591.4
677.292	600.6
677.693	590.6
678.115	590.2
678.516	597.4
678.939	592.8
679.34	594.8
679.762	602.8
680.164	601.6
680.586	591.8
680.988	598.6
681.411	624.4
681.812	588.8
682.236	593.4
682.637	586.2
683.061	584.2
683.462	600.8
683.864	589.6
684.288	602.2
684.69	582.8
685.114	603.4
685.516	607
685.94	584
686.342	605.4
686.766	581.2
687.168	582.8
687.571	615.2
687.995	594.8
688.398	578.6
688.822	596.8
689.225	605.6
689.628	615.2
690.052	582.8
690.456	595.4
690.88	590.8
691.284	581.2
691.687	598.8
692.112	582.4
692.515	580.6
692.919	594.4
693.344	589.8
693.747	592
694.173	588.4
694.577	608
694.98	587.6
695.406	584.6
695.81	598.2
696.214	586.6
696.64	599.6
697.044	594.8
697.448	597.4
697.874	599.8
698.279	588.6
698.684	583.8
699.11	585.2
699.514	595.4
699.919	596.8
700.324	585.2
700.75	596.2
701.156	590.8
701.561	601.2
701.987	589
702.393	592.8
702.798	607.4
703.203	586
703.63	589.8
704.036	583
704.442	594.4
704.847	587.8
705.274	587.4
705.68	591.4
706.086	594
706.492	583.8
706.92	590.2
707.326	595.4
707.732	586.2
708.139	586.4
708.545	590.4
708.973	589.8
709.38	604
709.786	575.6
710.193	605.8
710.6	592.4
711.028	579.6
711.435	583.6
711.842	590.4
712.249	577.8
712.656	584.2
713.064	596.2
713.492	580.2
713.9	584.2
714.307	591.8
714.715	589.8
715.123	594.8
715.53	587
715.938	597
716.367	582.6
716.775	584.6
717.184	581.4
717.592	587.4
718	596.4
718.408	614.4
718.816	632.8
719.225	598.8
719.633	589.2
720.042	582.2
720.472	580.6
720.881	610.2
721.29	590.6
721.699	577.2
722.108	595.6
722.517	592
722.926	586.6
723.335	597.2
723.744	592.4
724.154	585
724.563	595
724.973	587
725.382	582.8
725.792	587.6
726.202	576.4
726.612	612.6
727.022	579.4
727.432	584.4
779.813	588.2
780.223	628
780.634	585.6
781.044	577.6
781.454	589
781.865	610
782.276	575.6
782.686	600.6
783.097	597
783.508	579
783.919	591.6
784.33	596.2
784.741	595
785.152	586
785.563	575
785.974	580.4
786.386	600
786.776	576.6
787.188	583.8
787.599	576.4
788.011	597.6
788.423	591
788.835	587.2
789.247	571.2
789.659	583.4
790.071	585
790.483	626
790.874	588.2
791.286	591
791.699	586.4
792.111	585.2
792.524	591.6
792.937	584.8
793.349	576.6
793.741	577.4
794.154	577.4
794.567	605.4
794.98	593.6
795.393	577.6
795.785	605.6
796.198	582.2
796.612	586.8
797.026	583
797.439	566.8
797.831	580.4
798.245	576.8
798.659	581.6
799.073	573.4
799.487	581
799.88	581.8
800.294	573.8
800.708	586.2
801.123	581
801.516	601.6
801.93	567
802.345	574.4
802.76	589.6
803.153	605
803.568	598.4
803.983	592.8
804.377	590.2
804.792	574.4
805.207	572.2
805.601	593.4
806.016	626
806.432	571
806.826	627.8
807.242	590.4
807.658	587.6
808.052	576.2
808.468	578
808.884	573.8
809.279	577
809.695	591.6
810.111	599.2
810.506	590.4
810.922	597.2
811.339	581.6
811.734	588.6
812.151	590.2
812.546	571.2
812.963	578.6
813.38	594.4
813.776	585.2
814.193	602
814.589	579.6
815.006	584.4
815.402	578.2
815.82	576.6
816.237	583.2
816.633	586.6
817.051	576.4
817.448	578
817.866	579
818.262	587.6
818.68	575.2
819.077	578.8
819.495	579.8
819.892	622.6
820.311	575.2
820.708	579.2
821.127	576.4
821.524	592.8
821.943	589
822.34	590.4
822.759	593.2
823.157	588
823.576	587.4
823.974	595.2
824.393	603
824.791	576.6
825.189	574.6
825.609	583
826.007	589
826.427	572.6
826.826	581
827.246	577.4
827.644	569
828.043	597.6
828.463	588.6
828.862	595
829.261	583
829.682	569
830.081	593.4
830.502	579.4
830.901	586.8
831.301	600.4
831.722	574.6
832.121	581.4
832.521	582
832.943	582.6
833.342	580.6
833.742	575
834.164	577.8
834.564	571.6
834.965	583
835.386	568.6
835.787	579.4
836.188	573
836.588	579.2
837.01	570.2
837.411	572
837.812	585
838.213	581.6
838.636	573.4
839.037	643.6
839.438	585.8
839.84	580.4
840.263	582.6
840.664	584.8
841.066	586.8
841.468	584.6
841.891	575.4
842.293	592.6
842.695	588.2
843.098	590.4
843.5	579.4
843.902	587.6
844.326	581
844.729	584.4
845.131	593.6
845.534	589.2
845.937	599.6
846.34	603.6
846.764	576.4
847.167	582.6
847.571	571.2
847.974	581.4
848.377	585.6
848.781	631.8
849.184	593.4
849.588	582.6
849.992	583.2
850.396	587.8
850.821	591.6
851.225	592.8
851.63	574
852.034	601.4
852.438	579
852.843	619.4
853.247	572.2
853.652	576.6
854.057	595
854.462	587.6
854.867	602
855.272	610.6
855.677	591.2
856.082	577.8
856.487	574
