#lambda/nm	C1
208.295	512
208.67	463.6
209.045	427.6
209.419	427
209.794	615.6
210.169	597.6
210.544	723
210.919	621
211.295	611
211.67	616
212.045	615.2
212.421	611.8
212.796	650.2
213.172	615
213.547	614.4
213.923	614
214.299	605.6
214.675	618.4
215.051	619.6
215.427	621.8
215.803	635.4
216.179	620
216.555	612.4
216.932	632.8
217.308	617.6
217.684	625.6
218.061	618.6
218.438	622
218.814	609.2
219.191	617
219.568	611.6
219.945	614.4
220.322	618.6
220.699	622.2
221.076	619.6
221.453	621.4
221.83	601
222.208	611
222.585	611.6
222.962	623
223.34	609.6
223.717	614.8
224.095	619.8
224.473	619.8
224.851	606.2
225.229	602.6
225.607	623.8
225.985	610.8
226.363	618
226.741	610
227.119	608.2
227.497	624.6
227.876	603.6
228.254	626.4
228.633	614.4
229.011	616
229.39	626.2
229.769	623.6
230.148	628.4
230.527	639
230.905	617.4
231.284	619.8
231.664	617.8
232.043	633
232.422	621
232.801	608.4
233.181	623.2
233.56	613.2
233.94	620
234.319	598.2
234.699	619.2
235.079	654
235.458	649.6
235.838	633.8
236.218	615
236.598	611.8
236.978	608.6
237.358	607.6
237.738	620
238.119	630.4
238.499	604.2
238.88	619.8
239.26	627.6
239.641	600.6
240.021	605.4
240.402	618.8
240.783	612.2
241.163	610
241.544	622
241.925	615.4
242.306	634.2
242.687	615.8
243.069	624
243.45	621.8
243.831	613.4
244.212	611
244.594	646.2
244.975	624
245.357	617.6
245.739	609.4
246.12	616.6
246.502	624.4
246.884	621
247.266	605.8
247.648	615.2
248.03	633.8
248.412	621.4
248.794	625.6
249.176	611.4
249.559	623.2
249.941	610.8
250.323	604
250.706	617.2
251.089	610.8
251.471	617.4
251.854	612.2
252.237	608
252.62	624.6
253.002	612.2
253.385	608.2
253.769	629.6
254.152	619.8
254.535	616.8
254.918	609.2
255.301	619.4
255.685	603
256.068	604.8
256.452	634.6
256.835	633.6
257.219	623.6
257.603	633
257.986	613.8
258.37	627.6
258.754	607.2
259.138	616
259.522	617.2
259.906	615
260.29	626.4
260.675	618.2
261.059	615.4
261.443	609.8
261.828	620.4
262.212	618.4
262.597	605.6
262.981	603.2
263.366	627
263.751	607.6
264.136	604.6
264.521	612.8
264.906	604.8
265.291	623.2
265.676	614.8
266.061	623
266.446	634.8
266.831	618.6
267.217	637.8
267.602	622.6
267.987	626.2
268.373	613.8
268.759	624.8
269.144	625.4
269.53	617.4
269.916	620.8
270.302	608.4
270.688	626.2
271.074	617.2
271.46	627
271.846	645.4
272.232	615.6
272.618	611.6
273.004	614
273.391	625.4
273.777	624.8
274.164	622.2
274.55	633.2
274.937	613.8
275.324	611.2
275.71	623.2
276.097	624.4
276.484	607.2
276.871	627
277.258	620
277.645	605.6
278.032	605.2
278.419	622
278.807	623.2
279.194	608.8
279.581	613.6
279.969	626.6
280.356	610.4
280.744	613.8
281.131	639.2
281.519	631
281.907	615.2
282.295	614.4
282.682	620.8
283.07	615
283.458	629.8
283.846	632.8
284.235	624
284.623	627.6
285.011	603.2
285.399	613.8
285.788	617
286.176	611.2
286.565	630.4
286.953	614.8
287.342	618.2
287.731	614.2
288.119	606.6
288.508	621.4
288.897	615.2
289.286	597.2
289.675	621.8
290.064	617.6
290.453	618
290.821	619.6
291.21	629.2
291.599	610.4
291.989	615.8
292.378	626.2
292.768	644.8
293.157	625.2
293.547	621.4
293.936	609
294.326	611.6
294.716	618.6
295.106	617.8
295.496	623.2
295.886	620.8
296.276	612.2
296.666	602.8
297.056	608.2
297.446	604
297.836	631.8
298.227	606.2
298.617	620.6
299.008	632
299.398	613.6
299.789	605.4
300.179	617
300.57	635
300.961	617
301.352	605.8
301.742	626.8
302.133	624.2
302.524	613
302.915	627
303.307	614.8
303.698	623.6
304.089	620.6
304.48	612.8
304.872	620.8
305.263	613.4
305.655	607.2
306.046	629.4
306.438	618.2
306.829	610
307.221	629.4
307.613	625.6
308.005	633.8
308.397	641
308.789	639
309.181	635.6
309.573	632.8
309.965	635
310.357	620.4
310.749	631.8
311.142	611.4
311.534	614.4
311.926	625.6
312.319	615.2
312.711	613.6
313.104	627.6
313.497	621.6
313.889	655.8
314.282	636.8
314.675	651
315.068	618.8
315.461	627
315.854	654
316.247	627
316.64	617
317.033	629
317.405	625.2
317.798	618.4
318.192	625.4
318.585	610.8
318.979	628.4
319.372	612.4
319.766	609.6
320.16	626.8
320.553	632
320.947	641.4
321.341	617.8
321.735	613.4
322.129	597.4
322.523	632.6
322.917	615
323.311	634.4
323.705	617.6
324.099	616.4
324.494	634.6
324.888	629
325.282	618.4
325.677	626.6
326.071	630.2
326.466	631.2
326.861	618.6
327.255	632.6
327.65	632.4
328.045	633.2
328.44	626.6
328.835	617.4
329.23	616
329.625	647
330.02	616.4
330.415	636.8
330.81	622.2
331.206	620
331.601	613.4
331.996	627.6
332.37	644.8
332.766	603.6
333.161	649
333.557	610.6
333.953	626.4
334.348	905
334.744	619.8
335.14	616
335.536	614.6
335.932	636
336.328	619.6
336.724	620
337.12	622
337.516	615.6
337.913	621
338.309	628.4
338.705	624.8
339.102	615
339.498	617.4
339.895	631.6
340.291	613
340.688	622.6
341.085	615.8
341.481	618
341.878	612.4
342.275	635.8
342.672	611.8
343.069	610.8
343.466	601.4
343.842	618.8
344.239	608
344.636	619.6
345.033	606
345.431	603.8
345.828	612.2
346.225	612.8
346.623	643.8
347.02	616.2
347.418	614.6
347.816	618.4
348.213	604.4
348.611	623.8
349.009	612.6
349.407	628.8
349.805	606
350.203	600.4
350.601	622
350.999	614.2
351.397	669.8
351.795	614
352.193	633.2
352.57	625.2
352.969	627.8
353.367	606.8
353.766	604.2
354.164	605.2
354.563	627.4
354.961	616
355.36	610.6
355.759	611.2
356.158	605.4
356.557	611
356.956	612.4
357.355	604
357.754	614.8
358.153	616.2
358.552	630.4
358.951	611.4
359.35	630.4
359.75	612
360.149	603.2
360.527	605.2
360.926	599.8
361.326	610.4
361.726	610.6
362.125	610.6
362.525	625.8
362.925	612.6
363.325	623.6
363.724	612.6
364.124	610.6
364.524	613.4
364.924	613.4
365.324	613.8
365.725	597.2
366.125	620.8
366.525	616.2
366.904	612
367.304	597.8
367.705	639.8
368.105	629.2
368.506	602.2
368.906	623.4
369.307	616.2
369.708	618.6
370.108	592.4
370.509	622.6
370.91	600.2
371.311	614.8
371.712	607.6
372.113	611.2
372.514	596.2
372.894	602.6
373.295	597.6
373.696	617.4
374.097	618.6
374.499	638.4
374.9	616
375.301	605.8
375.703	612.8
376.105	604.6
376.506	613.8
376.908	611
377.309	608.2
377.711	611.6
378.113	603.2
378.493	612
378.895	605.4
379.297	623.4
379.699	600
380.102	610.8
380.504	610
380.906	613.4
381.308	637.8
381.71	601
382.113	617.6
382.515	605.8
382.918	615.2
383.299	609.8
383.701	613.4
384.104	612.4
384.507	585.2
384.909	610.4
385.312	599
385.715	598.2
386.118	607.6
386.521	609.8
386.924	612.6
387.327	607.2
387.709	598.2
388.112	597
388.515	606.6
388.918	601.6
389.322	619.4
389.725	604
390.129	627.6
390.532	610.2
390.936	608.6
391.339	594
391.743	610.2
392.125	597.4
392.529	613
392.933	620.2
393.337	612.8
393.74	603.4
394.144	610.4
394.548	594.2
394.953	603.2
395.357	622.2
395.761	608.4
396.144	604
396.548	598.8
396.952	603
397.357	609.8
397.761	594.6
398.166	593.6
398.57	604
398.975	593.2
399.379	613.8
399.763	657.4
400.168	606.8
400.572	606.4
400.977	604.4
401.382	628.8
401.787	613.4
402.192	619.4
402.597	623.8
403.002	595.6
403.386	615.6
403.791	624
404.197	593
404.602	612.2
405.007	610
405.413	600.8
405.818	620
406.224	609
406.608	611.2
407.014	601.2
407.42	623.4
407.825	603.4
408.231	618.6
408.637	618.6
409.043	628.8
409.449	609.8
409.834	613.8
410.24	611.4
410.646	620
411.052	619.2
411.458	615
411.865	627.4
412.271	629.6
412.677	614.4
413.062	611
413.469	608.8
413.875	628.8
414.282	624
414.689	619
415.095	617.6
415.502	606.4
415.888	608
416.294	592
416.701	642
417.108	610.2
417.515	614.4
417.923	608
418.33	628
418.715	609.8
419.123	605.4
419.53	619
419.937	614.8
420.345	625.8
420.752	603.2
421.16	622
421.546	616.2
421.953	618.2
422.361	597.2
422.769	612.6
423.177	612.4
423.585	637
423.992	624.6
424.379	622.4
424.787	624
425.195	626.4
425.603	613.6
426.011	626.2
426.419	622.4
426.806	619.6
427.214	616.2
427.623	625.6
428.031	624.6
428.44	617
428.848	619
429.235	625.4
429.644	619.8
430.053	613
430.461	631.6
430.87	637.4
431.279	621.6
431.666	598.2
432.075	612.4
432.484	614.6
432.893	616.2
433.302	624.4
433.711	647.6
434.099	617.4
434.508	608.6
434.918	612.6
435.327	615
435.737	626.2
436.125	623.4
436.534	621.8
436.944	627.8
437.353	626.6
437.763	642
438.173	625
438.561	635.8
438.971	621.6
439.381	633.4
439.791	646
440.201	624.4
440.589	636.2
440.999	648.8
441.409	659.6
441.819	634.4
442.23	661
442.619	660.2
443.029	663.8
443.439	664.6
443.85	678.8
444.26	676.6
444.649	679
445.06	668.6
445.471	671.4
445.881	677.4
446.292	686.8
446.682	694.4
447.092	674.8
447.503	734.6
447.914	698.2
448.325	684
448.715	692
449.126	694.8
449.537	697.4
449.948	697.8
450.338	710.6
450.75	712
451.161	706.4
451.572	712.2
451.984	710.2
452.374	692.2
452.786	715.8
453.197	719.4
453.609	709.6
453.999	702.6
454.411	706.8
454.823	730
455.235	721
455.647	715.4
456.037	720.6
456.449	706
456.862	724
457.274	723.8
457.665	719
458.077	733
458.489	746
458.902	724.4
459.293	725.8
459.705	730.4
460.118	724
460.53	725
460.921	728.8
461.334	725.8
461.747	736
462.16	739.8
462.551	744.6
462.964	738.2
463.377	725.8
463.79	741.2
464.182	744.4
464.595	733
465.008	735.6
465.421	745.8
465.813	737.2
466.226	760.4
466.64	747
467.053	795.2
467.445	752
467.859	755.2
468.272	754.4
468.686	757.4
469.078	755.6
469.492	743.2
469.906	756.6
470.298	759.8
470.712	754.2
471.126	800.8
471.54	740.8
471.933	738.2
472.347	762.4
472.761	751.4
473.175	750
473.568	745.8
473.982	751.6
474.397	755.2
474.79	750
475.204	761.2
475.619	756.2
476.033	755.4
476.426	757.4
476.841	762.6
477.256	783
477.649	749.8
478.064	738.2
478.479	739.6
478.872	743.6
479.287	736.6
479.702	748
480.118	755.4
480.511	753.8
480.927	752.4
481.342	752.6
481.736	755.2
482.151	746.8
482.566	759.6
482.96	750.8
483.376	771.8
483.792	745
484.186	764.2
484.602	751.8
485.017	759
485.412	751.2
485.827	751.8
486.243	753.6
486.638	767.2
487.054	757.4
487.47	761.4
487.865	751.2
488.281	744.2
488.697	739.2
489.092	741.8
489.508	736.4
489.925	758.4
490.32	740.4
490.736	749.4
491.153	743.4
491.548	742.8
491.964	738.2
492.381	719
492.776	741.4
493.193	738
493.61	745.6
494.006	742.4
494.422	743.4
494.84	718.6
495.235	739.6
495.652	731.6
496.069	726.6
496.465	732.8
496.883	732.8
497.3	741.6
497.696	725.6
498.113	737.6
498.509	727
498.927	717.8
499.344	714
499.741	718.4
500.158	728.8
500.576	726.6
500.973	720.4
501.39	711
501.787	716.2
502.205	727.4
502.623	719.8
503.02	703.2
503.438	721.8
503.856	710.6
504.253	719.8
504.671	715.4
505.068	708.2
505.486	708
505.905	721.8
506.302	718.6
506.72	722.8
507.118	702.2
507.536	705.2
507.955	701
508.352	706.8
508.771	706.6
509.169	700.6
509.587	707.6
510.006	700.2
510.404	690.8
510.823	694.4
511.221	694.2
511.64	698.8
512.038	713.6
512.457	692.6
512.877	697.4
513.275	694.8
513.694	687.8
514.092	684.4
514.512	695.8
514.91	697.8
515.33	687.6
515.749	694.2
516.148	697.2
516.568	688.6
516.966	686.8
517.386	679.2
517.785	692.4
518.205	675
518.603	682
519.024	681.2
519.444	700.6
519.843	690.2
520.263	691.4
520.662	683.6
521.082	678.4
521.481	673.2
521.902	671.2
522.301	670
522.722	692.2
523.121	668
523.542	667
523.963	672.2
524.362	671
524.783	672.8
525.183	672.2
525.604	677.2
526.003	659.8
526.425	665.6
526.824	682
527.246	673.8
527.646	679.2
528.067	666.6
528.467	661.6
528.888	669.8
529.289	659.2
529.71	666.8
530.11	656.2
530.532	657.4
530.932	656.4
531.354	654.6
531.755	686.6
532.176	662.2
532.577	662.8
532.999	656.2
533.4	651.2
533.822	671.2
534.223	661.2
534.645	653.2
535.046	649.4
535.468	652.8
535.869	658
536.292	651.6
536.693	682.4
537.115	654.2
537.516	638.2
537.939	642.8
538.34	655.2
538.742	660.2
539.165	636.6
539.566	653.4
539.989	641
540.391	652.8
540.814	645.2
541.216	647.2
541.639	655.4
542.041	656.2
542.464	634
542.866	639.4
543.268	637.6
543.691	649
544.093	660.4
544.517	667.4
544.919	635.6
545.343	670.6
545.745	635.8
546.147	643.4
546.571	634.6
546.974	642.4
547.398	642.4
547.8	657.8
548.224	635.8
548.627	638.4
549.03	657.2
549.454	638.8
549.857	627.2
550.281	626.8
550.684	631.8
551.087	645.4
551.512	642.4
551.915	636.4
552.34	642.8
552.743	630.4
553.146	637.2
553.571	634
553.975	655
554.399	627.4
554.803	681.6
555.207	631.4
555.632	621.8
556.036	633
556.461	632.8
556.865	637
557.268	620.6
557.694	630.4
558.098	624.8
558.502	635.2
558.927	629.6
559.332	630.8
559.736	635.6
560.162	630.6
560.566	628.2
560.992	634.8
561.396	632.6
561.801	625.8
562.227	634.2
562.631	621
563.036	624.6
563.462	628
563.867	628.6
564.272	617.6
564.698	627.8
565.103	608.4
565.508	641.2
565.935	625.2
566.34	621
566.745	634.6
567.172	615.4
567.577	639
567.982	628.2
568.409	623
568.815	617
569.22	619.6
569.626	625.2
570.053	607
570.459	626
570.865	625.4
571.292	622.4
571.698	616.2
572.104	612.4
572.531	611.2
572.937	626.2
573.343	612.2
573.75	620.4
574.177	609.2
574.583	617.8
574.99	613.6
575.396	618
575.824	613.8
576.231	621
576.637	608.4
577.065	642
577.472	611.6
577.879	618.6
578.286	635.4
578.714	610
579.121	610.6
579.528	610.8
579.935	620.2
580.364	616
580.771	604.2
581.178	605.4
581.585	616.8
582.014	616.8
582.421	601.6
582.829	613.4
583.236	611.8
583.644	604.4
584.073	595.2
584.481	610.2
584.889	611.4
585.296	610
585.726	611
586.134	600.6
586.542	598.6
586.95	623.8
587.358	598.4
587.787	604.6
588.196	619.8
588.604	601.8
589.012	606.6
589.421	605
589.851	598.8
590.259	611.4
590.668	597.2
591.076	646.2
591.485	586
591.894	615.8
592.324	610.8
592.733	618
593.142	599.8
593.551	614.6
593.96	643.4
594.369	594.4
594.8	597.6
595.209	602
595.618	582.2
596.028	588.2
596.437	600.4
596.847	603.8
597.256	600.6
597.687	608.2
598.097	610.2
598.507	590
598.917	605
599.327	607.4
599.736	602.4
600.146	608.4
600.556	604
600.988	610
601.398	594
601.808	610.2
602.219	588.2
602.629	600
603.039	606.6
603.45	622.4
603.86	596.2
604.271	615
604.703	599.4
605.114	595.8
605.525	606.4
605.935	601.8
606.346	624
606.757	604
607.168	608
607.579	587
607.99	612
608.402	598.2
608.813	596.4
609.224	604.8
609.636	595.4
610.047	595.4
610.48	593
610.892	608.2
611.303	613
611.715	597.8
612.127	594.2
612.539	595.4
612.95	598.2
613.362	587
613.774	587.8
614.186	592.2
614.599	592.8
615.011	617
615.423	595.2
615.835	597
616.248	590.8
616.66	601.6
617.073	592.6
617.485	596.6
617.898	607.2
618.311	603.6
618.723	601.2
619.136	626.8
619.549	617
619.962	627.4
620.375	595.6
620.788	601.4
621.201	595.8
621.614	606.2
622.028	598.4
622.441	599.6
622.854	612.2
623.268	594.8
623.681	603
624.095	599.4
624.509	609.2
624.922	605.2
625.336	592.4
625.728	593
626.142	610.2
626.556	611.2
626.97	607.6
627.384	598.6
627.799	600.4
628.213	601.4
628.627	586.4
629.041	603.8
629.456	595.4
629.87	602.2
630.285	603.4
630.699	610
631.093	589.8
631.507	593
631.922	598.2
632.337	610.6
632.752	581.6
633.167	585.4
633.582	587
633.997	590.2
634.412	585.8
634.806	601.8
635.221	587.4
635.637	600.2
636.052	580.8
636.468	590.4
636.883	615
637.299	596.6
637.715	582.2
638.109	590.8
638.525	580.2
638.941	606.2
639.357	594.6
639.773	603.6
640.189	603
640.584	599.8
641	596.8
641.416	587
641.832	589
642.249	592.2
642.665	590.2
643.06	594.4
643.477	599.6
643.894	584.8
644.31	590.4
644.727	593.2
645.123	586.8
645.54	586.4
645.957	597.8
646.374	610.2
646.77	599.2
647.187	621.4
647.604	589.4
648.021	583.6
648.439	593.4
648.835	598.4
649.252	594.6
649.67	591
650.088	591.2
650.484	601.8
650.902	598
651.32	601
651.738	596.2
652.134	593
652.552	616.4
652.971	604.6
653.389	594.8
653.786	604.8
654.204	614.6
654.622	592.4
655.019	596.6
655.438	594.8
655.857	605.4
656.275	601.8
656.673	591.2
657.091	607.4
657.51	588.6
657.908	600.6
658.327	603.8
658.746	582
659.144	590.2
659.563	603
659.982	593.6
660.38	575.6
660.8	585
661.219	599.4
661.617	597.8
662.037	586
662.457	597.2
662.855	579.4
663.275	621.2
663.695	588.6
664.094	596.8
664.514	593.6
664.934	585.4
665.333	597
665.753	583.4
666.152	586.8
666.572	585.2
666.993	597.8
667.392	588.6
667.812	591.2
668.212	585.6
668.632	597.8
669.053	585.8
669.453	589.2
669.874	595.6
670.273	593
670.694	580.4
671.116	603.2
671.515	604.2
671.937	592.8
672.337	590.6
672.758	595
673.158	592.4
673.58	584.6
673.98	602.6
674.402	605.8
674.824	590.2
675.224	584.4
675.646	580.2
676.047	587.4
676.469	597.8
676.869	596.6
677.292	593.8
677.693	579.8
678.115	588.2
678.516	598
678.939	596.4
679.34	588.2
679.762	605
680.164	599.6
680.586	585.6
680.988	593
681.411	616.6
681.812	589.6
682.236	576.6
682.637	576.6
683.061	577
683.462	594.6
683.864	588.6
684.288	591.2
684.69	585.6
685.114	587.4
685.516	596.2
685.94	578.6
686.342	589.2
686.766	582.2
687.168	590.8
687.571	611.6
687.995	593
688.398	570.6
688.822	589.2
689.225	607.8
689.628	601.6
690.052	590
690.456	591.2
690.88	583
691.284	579.2
691.687	596.6
692.112	576.4
692.515	582.6
692.919	587.8
693.344	596
693.747	583
694.173	584.8
694.577	596.2
694.98	586.2
695.406	587.4
695.81	595.4
696.214	593.2
696.64	585
697.044	600
697.448	594.6
697.874	584.4
698.279	591.4
698.684	573
699.11	586
699.514	586.4
699.919	586.2
700.324	588.4
700.75	588.4
701.156	583.8
701.561	597
701.987	590.4
702.393	599.2
702.798	596.2
703.203	590.2
703.63	587.8
704.036	584.2
704.442	590.8
704.847	590.6
705.274	588
705.68	586.8
706.086	595.2
706.492	577.2
706.92	585.2
707.326	600.4
707.732	584
708.139	584.4
708.545	577.4
708.973	585.4
709.38	582
709.786	581
710.193	602.8
710.6	584.8
711.028	577.2
711.435	588.4
711.842	585.2
712.249	585
712.656	591.6
713.064	594.4
713.492	576.6
713.9	589
714.307	593.8
714.715	593.6
715.123	588.4
715.53	587
715.938	600.2
716.367	587
716.775	585.4
717.184	578.4
717.592	587.8
718	595
718.408	620.6
718.816	632.2
719.225	595.4
719.633	588.8
720.042	589
720.472	587
720.881	606.8
721.29	591.6
721.699	574.6
722.108	592.6
722.517	587.6
722.926	579
723.335	596.4
723.744	591.4
724.154	595.4
724.563	587.8
724.973	593.6
725.382	583.8
725.792	586.8
726.202	581.8
726.612	602.2
727.022	587
727.432	577.4
779.813	573.8
780.223	631
780.634	576.4
781.044	583.2
781.454	577
781.865	589.6
782.276	573.6
782.686	593.4
783.097	577.6
783.508	579.4
783.919	592
784.33	593.2
784.741	596.6
785.152	575.2
785.563	576.2
785.974	577.8
786.386	593.2
786.776	592.2
787.188	585.6
787.599	582
788.011	588.8
788.423	593.4
788.835	582.8
789.247	578.4
789.659	582.6
790.071	582.4
790.483	624.8
790.874	590.6
791.286	594.8
791.699	587.2
792.111	584
792.524	587.8
792.937	576.6
793.349	584.6
793.741	571
794.154	590.6
794.567	599.8
794.98	578.4
795.393	578.6
795.785	594.8
796.198	585.8
796.612	585.6
797.026	585
797.439	569
797.831	579
798.245	570.6
798.659	574.4
799.073	578.8
799.487	586
799.88	582.8
800.294	587.2
800.708	589.2
801.123	591.6
801.516	600.4
801.93	578
802.345	577.2
802.76	586
803.153	603
803.568	600.8
803.983	592
804.377	594.6
804.792	579.2
805.207	571
805.601	578.2
806.016	619.2
806.432	578.4
806.826	616.2
807.242	593
807.658	589.8
808.052	581.2
808.468	577
808.884	578.4
809.279	584.4
809.695	602.4
810.111	609.4
810.506	591.4
810.922	602.4
811.339	583.2
811.734	596.6
812.151	580.4
812.546	578.8
812.963	581.4
813.38	585.8
813.776	580.2
814.193	598.2
814.589	581.6
815.006	581.4
815.402	575.6
815.82	582.4
816.237	587.2
816.633	581.8
817.051	566.2
817.448	590.2
817.866	571.4
818.262	598.6
818.68	577
819.077	580.4
819.495	575.4
819.892	622.6
820.311	584.4
820.708	586.8
821.127	582
821.524	596.2
821.943	588
822.34	607.4
822.759	591
823.157	587.6
823.576	596.6
823.974	591.2
824.393	610.2
824.791	583.2
825.189	576.8
825.609	583.2
826.007	591.2
826.427	568
826.826	583
827.246	587.4
827.644	567
828.043	593.4
828.463	570
828.862	592.2
829.261	593.6
829.682	564.6
830.081	590
830.502	572
830.901	583.4
831.301	598.8
831.722	575.2
832.121	587.8
832.521	575.6
832.943	583.6
833.342	578
833.742	575.6
834.164	581.6
834.564	572.8
834.965	580
835.386	571.8
835.787	577.4
836.188	580.2
836.588	579.4
837.01	578.8
837.411	569.8
837.812	584.8
838.213	585.6
838.636	575.4
839.037	638.4
839.438	592.8
839.84	590.2
840.263	592.2
840.664	587.4
841.066	586
841.468	585.2
841.891	581
842.293	598.6
842.695	587.2
843.098	593.8
843.5	582.8
843.902	592.6
844.326	587.2
844.729	585.6
845.131	589.8
845.534	580.4
845.937	598.4
846.34	604.2
846.764	572.8
847.167	585.8
847.571	577.2
847.974	588.6
848.377	581.6
848.781	633.4
849.184	598.2
849.588	577.6
849.992	584.6
850.396	583.8
850.821	602.2
851.225	583.8
851.63	585.4
852.034	591.4
852.438	583.8
852.843	607.6
853.247	581
853.652	580
854.057	605.6
854.462	584.8
854.867	591.4
855.272	613.4
855.677	588.6
856.082	581
856.487	574.4
856.893	583
