#lambda/nm	C1
208.295	509.8
208.67	463
209.045	433.8
209.419	431.8
209.794	613.8
210.169	599.8
210.544	717.6
210.919	614.2
211.295	606.2
211.67	619.2
212.045	607.4
212.421	613.4
212.796	645.6
213.172	606.6
213.547	610.6
213.923	616
214.299	609
214.675	615.6
215.051	613
215.427	621.6
215.803	628.6
216.179	618.6
216.555	613.8
216.932	623.2
217.308	618.6
217.684	614.8
218.061	623.2
218.438	615.4
218.814	610.4
219.191	621.2
219.568	608.4
219.945	607.8
220.322	628
220.699	621.6
221.076	622
221.453	614.4
221.83	605.6
222.208	612.2
222.585	613
222.962	613.6
223.34	617.8
223.717	611.8
224.095	610
224.473	620.4
224.851	607.8
225.229	608
225.607	627.8
225.985	603.2
226.363	615.2
226.741	608.4
227.119	619.4
227.497	622.8
227.876	602.8
228.254	623.6
228.633	624
229.011	613.8
229.39	622
229.769	615
230.148	628.6
230.527	641.8
230.905	613.2
231.284	617.8
231.664	616.6
232.043	628.6
232.422	617.4
232.801	606
233.181	612.4
233.56	608
233.94	610.8
234.319	599.8
234.699	605.6
235.079	654.2
235.458	656.8
235.838	625
236.218	604.6
236.598	598
236.978	601.4
237.358	610.6
237.738	607.2
238.119	618.4
238.499	607.8
238.88	609.8
239.26	619.4
239.641	596.6
240.021	604.6
240.402	599.4
240.783	601.8
241.163	602.4
241.544	614.6
241.925	610.2
242.306	629.4
242.687	608.8
243.069	606.6
243.45	610
243.831	608.8
244.212	613
244.594	646
244.975	626
245.357	616.4
245.739	597.6
246.12	609.6
246.502	626.4
246.884	609.6
247.266	605.4
247.648	613.8
248.03	634
248.412	607.6
248.794	617.4
249.176	612.4
249.559	624.4
249.941	604.6
250.323	594
250.706	599.6
251.089	606.8
251.471	619.4
251.854	612
252.237	609.6
252.62	623.4
253.002	609.8
253.385	611.4
253.769	623.2
254.152	616
254.535	619.6
254.918	608.2
255.301	611
255.685	606.8
256.068	606
256.452	639.6
256.835	616
257.219	625
257.603	626.4
257.986	613.4
258.37	620
258.754	602.8
259.138	612.6
259.522	619.2
259.906	600.6
260.29	612.2
260.675	613.4
261.059	619.8
261.443	611.8
261.828	626.6
262.212	620.8
262.597	602
262.981	613.2
263.366	628
263.751	615.6
264.136	616.2
264.521	605.8
264.906	610
265.291	627.6
265.676	610.8
266.061	626.8
266.446	630.8
266.831	620
267.217	630
267.602	611.8
267.987	612.8
268.373	612.4
268.759	628.4
269.144	620.8
269.53	619.2
269.916	605.8
270.302	614.6
270.688	619.6
271.074	619.6
271.46	632.6
271.846	646.8
272.232	612.8
272.618	610.8
273.004	614.6
273.391	629.4
273.777	620.6
274.164	625
274.55	623.4
274.937	622.6
275.324	612.8
275.71	623.2
276.097	622.4
276.484	613.6
276.871	620.8
277.258	613.8
277.645	604.4
278.032	607.8
278.419	612
278.807	621
279.194	610.6
279.581	612.6
279.969	621
280.356	619.8
280.744	609.2
281.131	637.6
281.519	633.6
281.907	614
282.295	610.2
282.682	625.2
283.07	623.6
283.458	622.6
283.846	629.8
284.235	631
284.623	622.2
285.011	609.6
285.399	618.2
285.788	620.8
286.176	605.4
286.565	622.8
286.953	609.8
287.342	615
287.731	611.4
288.119	610.4
288.508	620.8
288.897	620.4
289.286	598
289.675	614
290.064	626.6
290.453	604
290.821	611.4
291.21	628.8
291.599	615.2
291.989	613.2
292.378	618.2
292.768	629.8
293.157	618.6
293.547	618.2
293.936	607.4
294.326	614
294.716	614.6
295.106	602.2
295.496	619.8
295.886	627.2
296.276	616
296.666	608.4
297.056	609.8
297.446	602.6
297.836	632
298.227	613.2
298.617	612.8
299.008	625.4
299.398	612.8
299.789	608.2
300.179	614.6
300.57	619
300.961	608
301.352	604.2
301.742	620.6
302.133	621.8
302.524	617
302.915	613.8
303.307	608.6
303.698	622
304.089	619.4
304.48	619.2
304.872	620.8
305.263	613.8
305.655	613.6
306.046	615.6
306.438	619.2
306.829	617.2
307.221	633.6
307.613	621.8
308.005	630
308.397	626
308.789	633
309.181	633.4
309.573	635.4
309.965	624.2
310.357	610.4
310.749	633.4
311.142	611.2
311.534	613.2
311.926	629.4
312.319	621
312.711	606.2
313.104	631.8
313.497	617
313.889	659.6
314.282	633.6
314.675	636.4
315.068	628.8
315.461	632.8
315.854	651
316.247	623.2
316.64	612.8
317.033	616.2
317.405	617.4
317.798	618.4
318.192	619.4
318.585	607.2
318.979	622.6
319.372	609.2
319.766	611.8
320.16	625.8
320.553	630.6
320.947	640.4
321.341	617
321.735	611.6
322.129	599.6
322.523	643.6
322.917	606.6
323.311	618.4
323.705	617.8
324.099	616
324.494	628
324.888	632.4
325.282	617
325.677	626.6
326.071	630.2
326.466	628
326.861	619.4
327.255	622.8
327.65	629
328.045	637
328.44	608.8
328.835	613.6
329.23	609.2
329.625	639.4
330.02	613.4
330.415	633
330.81	619.4
331.206	624.4
331.601	617.4
331.996	620.2
332.37	638.2
332.766	596.6
333.161	638.8
333.557	609
333.953	613.4
334.348	952.8
334.744	607.8
335.14	608.6
335.536	605.8
335.932	618
336.328	614.6
336.724	622.2
337.12	610.6
337.516	612.4
337.913	614.8
338.309	617.4
338.705	613.6
339.102	629.8
339.498	600.8
339.895	619.2
340.291	612.2
340.688	620.8
341.085	600.2
341.481	608
341.878	606.8
342.275	632.6
342.672	596.4
343.069	599
343.466	593.2
343.842	617.6
344.239	604.4
344.636	609
345.033	608.4
345.431	600.8
345.828	605
346.225	607
346.623	636.6
347.02	613.4
347.418	618.2
347.816	621
348.213	603
348.611	620.8
349.009	598.4
349.407	628.6
349.805	602.8
350.203	590.8
350.601	619
350.999	610.8
351.397	670.6
351.795	611.8
352.193	616.4
352.57	622
352.969	626.4
353.367	604.2
353.766	600.4
354.164	614.6
354.563	629
354.961	613.4
355.36	619
355.759	609.6
356.158	605.6
356.557	600.2
356.956	595.8
357.355	601.8
357.754	611.8
358.153	615.6
358.552	629.6
358.951	615.2
359.35	622
359.75	604
360.149	604.4
360.527	597.4
360.926	600.8
361.326	617.8
361.726	607.2
362.125	607.6
362.525	618.8
362.925	608.4
363.325	608
363.724	623.2
364.124	599.4
364.524	609.4
364.924	605
365.324	623.2
365.725	593.6
366.125	617.8
366.525	611.4
366.904	604
367.304	596.2
367.705	623.8
368.105	623.4
368.506	607.6
368.906	616
369.307	608.6
369.708	612.6
370.108	597.4
370.509	622.2
370.91	602.8
371.311	607.8
371.712	612.8
372.113	608.4
372.514	603.4
372.894	611.2
373.295	604.8
373.696	619
374.097	620.6
374.499	632
374.9	609
375.301	597.4
375.703	614.6
376.105	604.2
376.506	618.8
376.908	606.6
377.309	602.2
377.711	609.4
378.113	603.2
378.493	611.8
378.895	599.2
379.297	614.4
379.699	596.2
380.102	610.2
380.504	606.2
380.906	605
381.308	632.8
381.71	605.2
382.113	618.2
382.515	605.4
382.918	608.4
383.299	604
383.701	615.6
384.104	611
384.507	587.2
384.909	606.4
385.312	592.6
385.715	592.4
386.118	600.8
386.521	586.2
386.924	614.2
387.327	605.6
387.709	593.6
388.112	589
388.515	606
388.918	603.8
389.322	598
389.725	598.2
390.129	626.4
390.532	599.4
390.936	602.8
391.339	599.4
391.743	613.2
392.125	597.6
392.529	620.2
392.933	615.2
393.337	608.4
393.74	606
394.144	604.8
394.548	597.2
394.953	604.2
395.357	612.6
395.761	601.2
396.144	603
396.548	603.8
396.952	598.2
397.357	605.8
397.761	609.8
398.166	605.6
398.57	604.8
398.975	601.2
399.379	612.8
399.763	649
400.168	605.2
400.572	603.8
400.977	604.6
401.382	626.4
401.787	614.6
402.192	618
402.597	622
403.002	594.2
403.386	619.4
403.791	622.8
404.197	599.8
404.602	608.4
405.007	602.2
405.413	605.8
405.818	607.6
406.224	599
406.608	603.4
407.014	600
407.42	625.6
407.825	605
408.231	623.6
408.637	606.4
409.043	622.8
409.449	605.8
409.834	603.6
410.24	612.6
410.646	618.6
411.052	618.2
411.458	613.8
411.865	624.4
412.271	608.8
412.677	610.6
413.062	619.4
413.469	599.4
413.875	633.2
414.282	612.8
414.689	614.6
415.095	615.8
415.502	603.6
415.888	612.8
416.294	588.8
416.701	640.4
417.108	607
417.515	609.8
417.923	610.6
418.33	629
418.715	620
419.123	616.2
419.53	599
419.937	602.4
420.345	627.4
420.752	608
421.16	633.2
421.546	614
421.953	616.8
422.361	599.2
422.769	612.4
423.177	596.8
423.585	632.4
423.992	627.4
424.379	622.2
424.787	618.6
425.195	629
425.603	606.2
426.011	615.4
426.419	630.4
426.806	613.4
427.214	611.2
427.623	625.4
428.031	621.6
428.44	626
428.848	617.4
429.235	626.2
429.644	608.4
430.053	608.6
430.461	625.6
430.87	633.8
431.279	622.4
431.666	607
432.075	611.4
432.484	617.4
432.893	611.6
433.302	626.8
433.711	646.6
434.099	621.6
434.508	608.8
434.918	604.2
435.327	623.2
435.737	621.4
436.125	620.2
436.534	631
436.944	626.2
437.353	634.2
437.763	652.6
438.173	631.8
438.561	642.8
438.971	631.4
439.381	631.6
439.791	646.4
440.201	630
440.589	654.8
440.999	654.4
441.409	655
441.819	636
442.23	668
442.619	678
443.029	681.6
443.439	675.6
443.85	683.6
444.26	685
444.649	690.2
445.06	678
445.471	689.4
445.881	691.4
446.292	708.6
446.682	705.6
447.092	688.6
447.503	747.2
447.914	708
448.325	716.6
448.715	701.4
449.126	705
449.537	705
449.948	711.4
450.338	712.4
450.75	717.8
451.161	713.4
451.572	718.4
451.984	716
452.374	694.4
452.786	723.2
453.197	718.4
453.609	720.6
453.999	714
454.411	714.8
454.823	736.8
455.235	730.2
455.647	720.4
456.037	727
456.449	709.6
456.862	725.4
457.274	729
457.665	710.8
458.077	722.4
458.489	750.6
458.902	722.6
459.293	733.4
459.705	726.8
460.118	723.2
460.53	733
460.921	730.8
461.334	741.4
461.747	720.2
462.16	735.8
462.551	745.6
462.964	739
463.377	715.2
463.79	724.6
464.182	750.4
464.595	722.8
465.008	736.4
465.421	735.8
465.813	717.6
466.226	747.6
466.64	725.4
467.053	784.4
467.445	745
467.859	757.6
468.272	737.8
468.686	745.4
469.078	739.4
469.492	715
469.906	736.8
470.298	743.6
470.712	730
471.126	783.2
471.54	726
471.933	733
472.347	732
472.761	723.4
473.175	736
473.568	735.2
473.982	719.2
474.397	737.2
474.79	732
475.204	736.8
475.619	722.8
476.033	743.4
476.426	730.2
476.841	717
477.256	749.8
477.649	714.2
478.064	720
478.479	723.6
478.872	721.6
479.287	711.4
479.702	719.8
480.118	721.2
480.511	727.4
480.927	733.8
481.342	717
481.736	730.8
482.151	716.4
482.566	736.2
482.96	722.8
483.376	742.6
483.792	721.4
484.186	719.4
484.602	714.2
485.017	721.2
485.412	720.8
485.827	728.8
486.243	720.2
486.638	743
487.054	725.6
487.47	724.2
487.865	727.8
488.281	707.4
488.697	711
489.092	714.8
489.508	708.8
489.925	718.2
490.32	704
490.736	721.2
491.153	720.2
491.548	716
491.964	716
492.381	700.8
492.776	708.8
493.193	707.6
493.61	706.4
494.006	711.2
494.422	707
494.84	698
495.235	716.4
495.652	713
496.069	706.2
496.465	696.6
496.883	700
497.3	729
497.696	697.8
498.113	717.8
498.509	687.8
498.927	690.2
499.344	694.8
499.741	683.6
500.158	703
500.576	710.6
500.973	698.4
501.39	689
501.787	684
502.205	691.8
502.623	677
503.02	666.8
503.438	682
503.856	691.2
504.253	692.6
504.671	692.4
505.068	683.4
505.486	693.4
505.905	700.8
506.302	689.8
506.72	705.8
507.118	670.8
507.536	686.4
507.955	682
508.352	681.4
508.771	695.2
509.169	699.2
509.587	676
510.006	678
510.404	671.6
510.823	670
511.221	679
511.64	675
512.038	686.8
512.457	676.2
512.877	667.6
513.275	661
513.694	669.6
514.092	677
514.512	678.6
514.91	675.8
515.33	672.6
515.749	667
516.148	674.8
516.568	666.4
516.966	667.2
517.386	672.8
517.785	664
518.205	660.8
518.603	662
519.024	660.2
519.444	670.6
519.843	662.6
520.263	671.8
520.662	672.6
521.082	658.6
521.481	671.6
521.902	659.8
522.301	667.8
522.722	662.2
523.121	658.2
523.542	649.8
523.963	661.8
524.362	664.8
524.783	659
525.183	649
525.604	660.6
526.003	652.6
526.425	649.4
526.824	662.8
527.246	657.6
527.646	653.8
528.067	657
528.467	650.2
528.888	648.4
529.289	645.2
529.71	644.6
530.11	644
530.532	637
530.932	632.2
531.354	629.8
531.755	671.2
532.176	654.2
532.577	646.8
532.999	649
533.4	632.4
533.822	651.6
534.223	653.2
534.645	634.2
535.046	633
535.468	636.2
535.869	658.2
536.292	631.4
536.693	668
537.115	644.6
537.516	630.4
537.939	634.2
538.34	646.6
538.742	644.2
539.165	640.2
539.566	630.8
539.989	629
540.391	631.2
540.814	641.2
541.216	643.4
541.639	636.8
542.041	643.4
542.464	639.4
542.866	630.2
543.268	623.4
543.691	637.2
544.093	638.6
544.517	657.2
544.919	630.8
545.343	668
545.745	641.8
546.147	635.4
546.571	629.4
546.974	618
547.398	638.4
547.8	649.8
548.224	628.8
548.627	630.6
549.03	648
549.454	621.2
549.857	625.8
550.281	627.6
550.684	628.6
551.087	647.2
551.512	629.4
551.915	635
552.34	632.2
552.743	624.8
553.146	637.4
553.571	630.6
553.975	650.2
554.399	624.4
554.803	677.6
555.207	621.6
555.632	616.6
556.036	628
556.461	618.6
556.865	626
557.268	623.4
557.694	622.4
558.098	638.8
558.502	634.2
558.927	615.2
559.332	623.2
559.736	632
560.162	630.4
560.566	626.6
560.992	627.6
561.396	633.6
561.801	622
562.227	628.6
562.631	621
563.036	623.8
563.462	629.2
563.867	618
564.272	607
564.698	623.8
565.103	609.8
565.508	641.4
565.935	629.4
566.34	617.8
566.745	641.4
567.172	617
567.577	640.6
567.982	625.4
568.409	625.6
568.815	607.8
569.22	622.6
569.626	620.6
570.053	603.8
570.459	622.4
570.865	631.4
571.292	624.8
571.698	621.6
572.104	597.4
572.531	609.8
572.937	626.2
573.343	620.4
573.75	604.8
574.177	619.6
574.583	619.8
574.99	610.2
575.396	612.2
575.824	609
576.231	624.6
576.637	607.6
577.065	637.2
577.472	610.4
577.879	612.6
578.286	629.8
578.714	619.2
579.121	609
579.528	612
579.935	613.6
580.364	614.4
580.771	591.2
581.178	603.6
581.585	615.6
582.014	608.6
582.421	602.8
582.829	600
583.236	623.8
583.644	606.2
584.073	600
584.481	604.6
584.889	604.2
585.296	611.4
585.726	606.8
586.134	597.2
586.542	604.4
586.95	626
587.358	596.4
587.787	611.6
588.196	623.2
588.604	597
589.012	604.6
589.421	594.2
589.851	600.6
590.259	611.8
590.668	599.4
591.076	641.2
591.485	595.2
591.894	604.2
592.324	621.8
592.733	615.2
593.142	588.4
593.551	606.6
593.96	645
594.369	583.4
594.8	595.4
595.209	610.8
595.618	586.6
596.028	593.2
596.437	596.2
596.847	604
597.256	601.2
597.687	601.8
598.097	601.6
598.507	589.8
598.917	603
599.327	607.2
599.736	605.2
600.146	606.4
600.556	606
600.988	608.2
601.398	602.8
601.808	609.8
602.219	586.8
602.629	590.2
603.039	601.6
603.45	632.2
603.86	596.4
604.271	612.8
604.703	606.2
605.114	589.6
605.525	599.6
605.935	601.4
606.346	615
606.757	598.8
607.168	601
607.579	598.4
607.99	612.6
608.402	602
608.813	597.4
609.224	590.8
609.636	588.2
610.047	592.6
610.48	597.8
610.892	607.2
611.303	600.8
611.715	604.2
612.127	591.6
612.539	587.2
612.95	600.2
613.362	586.8
613.774	582.4
614.186	592.6
614.599	587.6
615.011	610.4
615.423	599.2
615.835	588.4
616.248	586.8
616.66	603.2
617.073	592.2
617.485	598.2
617.898	602.6
618.311	603.2
618.723	596
619.136	621
619.549	611
619.962	621.2
620.375	590
620.788	598.2
621.201	588.6
621.614	609.2
622.028	595.4
622.441	593.2
622.854	609.4
623.268	588.8
623.681	587.8
624.095	593.4
624.509	605.2
624.922	596.2
625.336	581
625.728	591.8
626.142	598
626.556	607.8
626.97	591.6
627.384	583.2
627.799	598
628.213	589.6
628.627	587
629.041	588.2
629.456	581.6
629.87	595.6
630.285	593.8
630.699	602.4
631.093	588.2
631.507	597.4
631.922	592.2
632.337	610.2
632.752	576.8
633.167	596.4
633.582	585.4
633.997	588.8
634.412	580
634.806	587.2
635.221	577.4
635.637	597.4
636.052	570
636.468	590.8
636.883	608.6
637.299	578.4
637.715	581.4
638.109	593
638.525	574.4
638.941	602.8
639.357	594
639.773	599.6
640.189	586.4
640.584	584.4
641	589
641.416	574.6
641.832	586
642.249	580.6
642.665	582.2
643.06	597.8
643.477	603.6
643.894	576.4
644.31	587.8
644.727	592.4
645.123	592.6
645.54	583.4
645.957	596.8
646.374	597.2
646.77	597.2
647.187	617
647.604	587.6
648.021	571.8
648.439	591.2
648.835	597.2
649.252	589
649.67	594.6
650.088	594.6
650.484	594.6
650.902	593.2
651.32	593.2
651.738	590.2
652.134	588
652.552	600.6
652.971	603.2
653.389	582.4
653.786	609.4
654.204	612.6
654.622	587.8
655.019	593
655.438	592.6
655.857	602.6
656.275	593.6
656.673	584.4
657.091	603.6
657.51	594.6
657.908	595
658.327	598.4
658.746	589.4
659.144	587.8
659.563	595.6
659.982	590.4
660.38	587.8
660.8	602.2
661.219	598.2
661.617	594.4
662.037	592
662.457	601.6
662.855	577.8
663.275	615.4
663.695	592
664.094	584.4
664.514	592.2
664.934	584.2
665.333	592.6
665.753	582.6
666.152	579.6
666.572	582.2
666.993	599.2
667.392	589.2
667.812	591.8
668.212	588.6
668.632	600
669.053	583
669.453	603
669.874	591.2
670.273	588
670.694	579.2
671.116	608
671.515	603.6
671.937	587.6
672.337	593.8
672.758	598.8
673.158	600
673.58	580.2
673.98	595.6
674.402	598.2
674.824	589
675.224	584.2
675.646	575
676.047	577
676.469	581.8
676.869	595
677.292	592.4
677.693	583
678.115	586
678.516	594.4
678.939	592
679.34	584
679.762	608.8
680.164	593.6
680.586	582.4
680.988	593.2
681.411	606.6
681.812	587.2
682.236	580.6
682.637	584
683.061	586.8
683.462	585.6
683.864	586.2
684.288	591.8
684.69	578.8
685.114	597
685.516	598.4
685.94	582.8
686.342	588.6
686.766	579.8
687.168	583
687.571	600.4
687.995	596.2
688.398	571.8
688.822	576.4
689.225	607
689.628	612.8
690.052	587.8
690.456	589.2
690.88	592
691.284	574.8
691.687	586.8
692.112	575.2
692.515	584.6
692.919	589.8
693.344	592.4
693.747	585.6
694.173	575.2
694.577	602.6
694.98	585.8
695.406	590.6
695.81	581
696.214	593.6
696.64	586.4
697.044	594
697.448	583.6
697.874	585.8
698.279	588.4
698.684	573.6
699.11	579.6
699.514	581
699.919	584.4
700.324	580.8
700.75	590.8
701.156	591.6
701.561	592.8
701.987	592.2
702.393	594.4
702.798	601.4
703.203	581.4
703.63	577.8
704.036	586.6
704.442	572.8
704.847	578.6
705.274	591.4
705.68	593.4
706.086	602.6
706.492	577
706.92	585.6
707.326	599.6
707.732	593
708.139	565.8
708.545	572.6
708.973	586.2
709.38	583.2
709.786	574.6
710.193	593
710.6	589.4
711.028	576.6
711.435	578.2
711.842	583.6
712.249	578.8
712.656	591.8
713.064	600.2
713.492	578.6
713.9	584
714.307	592.6
714.715	578.6
715.123	586.6
715.53	584.2
715.938	603
716.367	589
716.775	586.2
717.184	588.6
717.592	584.8
718	592
718.408	626.8
718.816	625
719.225	579.8
719.633	583.8
720.042	570.2
720.472	574.2
720.881	605.6
721.29	579.2
721.699	573.6
722.108	582.6
722.517	587
722.926	572
723.335	587
723.744	580.2
724.154	585.2
724.563	580.4
724.973	579.4
725.382	590.2
725.792	576
726.202	568.8
726.612	597.8
727.022	583.8
727.432	578.2
779.813	582.4
780.223	620
780.634	581.4
781.044	576.6
781.454	578.6
781.865	588.2
782.276	580
782.686	586
783.097	572.6
783.508	579
783.919	578
784.33	586.6
784.741	586
785.152	579.4
785.563	571
785.974	578.2
786.386	584.8
786.776	575.6
787.188	581.4
787.599	572.4
788.011	592
788.423	584.2
788.835	576.6
789.247	578.6
789.659	577.6
790.071	577.4
790.483	619
790.874	577.4
791.286	592.2
791.699	566.6
792.111	579.8
792.524	582.8
792.937	578.2
793.349	574.2
793.741	575.6
794.154	570
794.567	594.8
794.98	587.6
795.393	580.4
795.785	597.8
796.198	582
796.612	590.4
797.026	576.8
797.439	568.2
797.831	585
798.245	574.2
798.659	592.8
799.073	574
799.487	566.2
799.88	579.8
800.294	578.6
800.708	590.4
801.123	584.6
801.516	598.6
801.93	571.2
802.345	572.4
802.76	580
803.153	602.8
803.568	589.2
803.983	596.8
804.377	589.4
804.792	575.8
805.207	566.8
805.601	583
806.016	614
806.432	581.4
806.826	618.4
807.242	599.6
807.658	588.2
808.052	581.4
808.468	578.8
808.884	569.8
809.279	580
809.695	591.6
810.111	603.6
810.506	582
810.922	598.2
811.339	579.4
811.734	592
812.151	582.6
812.546	581
812.963	586.6
813.38	589.4
813.776	591.4
814.193	608.6
814.589	581.2
815.006	583.4
815.402	573.2
815.82	579.4
816.237	581.6
816.633	589.4
817.051	573.8
817.448	583.4
817.866	575.8
818.262	598.4
818.68	583.2
819.077	578
819.495	585.6
819.892	627.2
820.311	571
820.708	581.4
821.127	586.4
821.524	603.4
821.943	594.2
822.34	597.2
822.759	584.8
823.157	581.6
823.576	595.2
823.974	580.6
824.393	600
824.791	580.6
825.189	572.6
825.609	571.4
826.007	577
826.427	570.8
826.826	570.4
827.246	582.8
827.644	574.6
828.043	589.6
828.463	572
828.862	583.8
829.261	587.8
829.682	572.4
830.081	586.4
830.502	570.4
830.901	584.2
831.301	593.4
831.722	565.6
832.121	580.4
832.521	585.6
832.943	588.2
833.342	582
833.742	570.8
834.164	574.4
834.564	571.8
834.965	578.4
835.386	578.2
835.787	576.6
836.188	578.4
836.588	584.2
837.01	576.6
837.411	579.4
837.812	586.4
838.213	575.8
838.636	576.8
839.037	641.8
839.438	585.8
839.84	576.2
840.263	582.2
840.664	585.8
841.066	578.2
841.468	577.4
841.891	577.6
842.293	587.2
842.695	584.2
843.098	593.6
843.5	573
843.902	589.2
844.326	586
844.729	591.8
845.131	594
845.534	584
845.937	586.4
846.34	598.2
846.764	577.8
847.167	583.8
847.571	582.6
847.974	576.2
848.377	581.4
848.781	629
849.184	590.2
849.588	580.6
849.992	574
850.396	582.4
850.821	601.4
851.225	586.8
851.63	576
852.034	604.2
852.438	577.4
852.843	656.8
853.247	580
853.652	572.2
854.057	602.4
854.462	581.2
854.867	585
855.272	609.8
855.677	585.8
856.082	579
856.487	576.8
