#lambda/nm	C1
208.295	508.2
208.67	467.8
209.045	425.2
209.419	427.6
209.794	605.2
210.169	589.4
210.544	713.8
210.919	613.8
211.295	611.4
211.67	618.2
212.045	617.6
212.421	602.4
212.796	649
213.172	608
213.547	608.8
213.923	613.2
214.299	609.2
214.675	621.8
215.051	620
215.427	622.2
215.803	632.8
216.179	621
216.555	605.4
216.932	621.8
217.308	621.4
217.684	617.2
218.061	612.8
218.438	621.4
218.814	603.2
219.191	617.6
219.568	606.8
219.945	614.2
220.322	618
220.699	621.4
221.076	622
221.453	618
221.83	602.8
222.208	605.6
222.585	612.4
222.962	620.4
223.34	626.6
223.717	611.2
224.095	612
224.473	623.6
224.851	607
225.229	606.2
225.607	626.4
225.985	605.4
226.363	615.4
226.741	622.4
227.119	616.4
227.497	629.4
227.876	610
228.254	626.4
228.633	616.6
229.011	622.4
229.39	618.8
229.769	619
230.148	623.4
230.527	635.4
230.905	615.6
231.284	623.4
231.664	616
232.043	620.2
232.422	625.8
232.801	617
233.181	614.4
233.56	605.8
233.94	619.6
234.319	593
234.699	614
235.079	655.2
235.458	658.2
235.838	640.2
236.218	606.6
236.598	612.6
236.978	610
237.358	614.4
237.738	614.4
238.119	629.6
238.499	605
238.88	614.4
239.26	634
239.641	611.2
240.021	614.2
240.402	619.6
240.783	612.8
241.163	617.8
241.544	618.6
241.925	611.8
242.306	630.4
242.687	616.6
243.069	614.6
243.45	626.6
243.831	602.4
244.212	615.4
244.594	648.4
244.975	624.8
245.357	618.4
245.739	611.2
246.12	616
246.502	632.8
246.884	613.8
247.266	609
247.648	625.6
248.03	642.8
248.412	617
248.794	625.8
249.176	614
249.559	627.6
249.941	614.2
250.323	600.4
250.706	614.6
251.089	613.2
251.471	615.6
251.854	611
252.237	612.8
252.62	629.6
253.002	615
253.385	616.2
253.769	637.4
254.152	615
254.535	618.2
254.918	609.6
255.301	618.6
255.685	608.4
256.068	606.6
256.452	640.2
256.835	627
257.219	617.2
257.603	626.8
257.986	606.2
258.37	624.4
258.754	607.4
259.138	631.2
259.522	628.8
259.906	613
260.29	623.2
260.675	621
261.059	617.8
261.443	605.6
261.828	626.6
262.212	621.2
262.597	596.4
262.981	615.4
263.366	633.2
263.751	616
264.136	616.8
264.521	619
264.906	609.8
265.291	627.4
265.676	603.2
266.061	612
266.446	637.8
266.831	618
267.217	632.8
267.602	615
267.987	623.2
268.373	608.8
268.759	618.2
269.144	618.4
269.53	605.2
269.916	620.8
270.302	613.6
270.688	610.8
271.074	618.2
271.46	622.6
271.846	640.4
272.232	615.2
272.618	605.2
273.004	607
273.391	624.6
273.777	629
274.164	618.6
274.55	626.2
274.937	618.2
275.324	600.2
275.71	616.2
276.097	619.4
276.484	602.4
276.871	617.2
277.258	620
277.645	602.2
278.032	613.4
278.419	617.8
278.807	612.8
279.194	608.2
279.581	603.8
279.969	618.8
280.356	607.8
280.744	618
281.131	644
281.519	622
281.907	611.2
282.295	606.4
282.682	627.2
283.07	621.4
283.458	618.2
283.846	626.6
284.235	632.4
284.623	618.8
285.011	602
285.399	617.2
285.788	617.8
286.176	606.6
286.565	627.8
286.953	604.4
287.342	616
287.731	605.4
288.119	608.6
288.508	610
288.897	609
289.286	600.2
289.675	621
290.064	620.2
290.453	617.4
290.821	618.6
291.21	630
291.599	606.6
291.989	616.8
292.378	624.2
292.768	642
293.157	629.6
293.547	627.2
293.936	609.4
294.326	609.8
294.716	626.2
295.106	610.4
295.496	623.6
295.886	628.2
296.276	606.6
296.666	611
297.056	609.4
297.446	607.8
297.836	635.4
298.227	622.4
298.617	624.6
299.008	630.4
299.398	628
299.789	610.6
300.179	623
300.57	632.4
300.961	615.8
301.352	612.8
301.742	626.6
302.133	626
302.524	624.4
302.915	622.6
303.307	610.6
303.698	629.2
304.089	623.8
304.48	616.2
304.872	617.6
305.263	614.6
305.655	612.6
306.046	631.2
306.438	627
306.829	608.8
307.221	628.2
307.613	618.4
308.005	626.8
308.397	632.4
308.789	639
309.181	642.4
309.573	637.4
309.965	631.2
310.357	611.4
310.749	636.6
311.142	605.4
311.534	614.4
311.926	620.8
312.319	620.4
312.711	617.4
313.104	634.2
313.497	617.6
313.889	646
314.282	632
314.675	650.4
315.068	620.4
315.461	632.6
315.854	652.2
316.247	632
316.64	617.4
317.033	624.8
317.405	630.4
317.798	615.4
318.192	624.2
318.585	615
318.979	626.8
319.372	614.6
319.766	623.2
320.16	630.6
320.553	630.6
320.947	637.4
321.341	611.2
321.735	617.2
322.129	603.8
322.523	648
322.917	616
323.311	633.4
323.705	629.4
324.099	625.4
324.494	638.2
324.888	631.4
325.282	617.2
325.677	627.2
326.071	626.6
326.466	634.2
326.861	620.8
327.255	632.8
327.65	638.2
328.045	632.2
328.44	620.4
328.835	618.6
329.23	614
329.625	647.8
330.02	604.2
330.415	638.2
330.81	616.4
331.206	631.6
331.601	616
331.996	628.2
332.37	633.8
332.766	613.2
333.161	642.8
333.557	616
333.953	619.8
334.348	947.8
334.744	617.4
335.14	622.6
335.536	608
335.932	627
336.328	625.2
336.724	632.6
337.12	619.8
337.516	622.6
337.913	616
338.309	633.8
338.705	621
339.102	631.8
339.498	615.2
339.895	637.6
340.291	616.2
340.688	633.6
341.085	620
341.481	615.8
341.878	619.8
342.275	630.8
342.672	606.8
343.069	613.6
343.466	601.4
343.842	635.4
344.239	618.4
344.636	616.4
345.033	606.2
345.431	603.6
345.828	612.8
346.225	610.8
346.623	652.4
347.02	620.6
347.418	623.6
347.816	632.2
348.213	606.6
348.611	621.8
349.009	613.4
349.407	637.8
349.805	608.6
350.203	603.2
350.601	629
350.999	613.2
351.397	678.4
351.795	612.8
352.193	613.2
352.57	631.4
352.969	630.2
353.367	608.2
353.766	603.8
354.164	614.2
354.563	628.8
354.961	616.2
355.36	618.8
355.759	613
356.158	605
356.557	605.6
356.956	604.4
357.355	606.6
357.754	616
358.153	619.4
358.552	641.6
358.951	616.6
359.35	629.4
359.75	607.6
360.149	609
360.527	607
360.926	606.4
361.326	607.2
361.726	618.2
362.125	608.2
362.525	620.6
362.925	612
363.325	615.4
363.724	605
364.124	610.2
364.524	605
364.924	609.4
365.324	614.2
365.725	596
366.125	613.4
366.525	607.6
366.904	603.4
367.304	598.4
367.705	626
368.105	620.8
368.506	612.2
368.906	615.6
369.307	615.2
369.708	615.6
370.108	595.6
370.509	622.2
370.91	595.8
371.311	612
371.712	607.2
372.113	606.6
372.514	593.8
372.894	602.4
373.295	597.2
373.696	619
374.097	613.8
374.499	639.8
374.9	611.4
375.301	603.8
375.703	612
376.105	603.2
376.506	610.6
376.908	615.4
377.309	611.2
377.711	605.4
378.113	601
378.493	606.4
378.895	597.4
379.297	614.4
379.699	590.4
380.102	609.8
380.504	608.4
380.906	604.8
381.308	639.2
381.71	609.2
382.113	615.2
382.515	607.8
382.918	612.4
383.299	608
383.701	622.8
384.104	611.6
384.507	592
384.909	598
385.312	601.8
385.715	595.4
386.118	609
386.521	603.4
386.924	609.2
387.327	605.2
387.709	603.4
388.112	589.8
388.515	615.2
388.918	608
389.322	610
389.725	601
390.129	639.6
390.532	617
390.936	610.6
391.339	607.8
391.743	606.8
392.125	595.8
392.529	615.6
392.933	624.8
393.337	616.2
393.74	604
394.144	614.6
394.548	609.4
394.953	608.4
395.357	623.8
395.761	614
396.144	605.2
396.548	604.6
396.952	615.2
397.357	606.8
397.761	607.2
398.166	610.2
398.57	605.6
398.975	605
399.379	619.8
399.763	651.8
400.168	613.8
400.572	611.2
400.977	610.2
401.382	625.2
401.787	619
402.192	629.6
402.597	629.4
403.002	599.8
403.386	618
403.791	626.8
404.197	602.6
404.602	600.6
405.007	610
405.413	605
405.818	606.8
406.224	603.4
406.608	602
407.014	603.2
407.42	628
407.825	603
408.231	618.2
408.637	608.4
409.043	619.4
409.449	599.8
409.834	607.2
410.24	604.2
410.646	624.4
411.052	619
411.458	614.4
411.865	613.2
412.271	625.6
412.677	609.2
413.062	616.8
413.469	598.4
413.875	635
414.282	628.6
414.689	611
415.095	615.6
415.502	602.4
415.888	615.4
416.294	608.2
416.701	651
417.108	599.6
417.515	616.6
417.923	609
418.33	621.6
418.715	626
419.123	606.8
419.53	608.2
419.937	613.8
420.345	624.8
420.752	604.6
421.16	622.6
421.546	618.8
421.953	614.6
422.361	609.4
422.769	618.6
423.177	610.8
423.585	632
423.992	628.6
424.379	615
424.787	621.4
425.195	633.8
425.603	602.2
426.011	625.4
426.419	627.6
426.806	606.2
427.214	623.4
427.623	625.2
428.031	628.8
428.44	613.6
428.848	623
429.235	631.8
429.644	616.8
430.053	623.2
430.461	636.8
430.87	649.8
431.279	635.4
431.666	623.6
432.075	626.8
432.484	634
432.893	642.2
433.302	660.6
433.711	694.8
434.099	649.2
434.508	660
434.918	657.2
435.327	680.2
435.737	681.8
436.125	683
436.534	690.6
436.944	709.2
437.353	715.2
437.763	721.2
438.173	710.8
438.561	744.4
438.971	727
439.381	739.4
439.791	744.8
440.201	734
440.589	764
440.999	780.2
441.409	770.8
441.819	772.2
442.23	796.4
442.619	791
443.029	797
443.439	804
443.85	825.2
444.26	827.4
444.649	826.2
445.06	822.2
445.471	813.2
445.881	830.2
446.292	849.6
446.682	861.4
447.092	824.4
447.503	892.2
447.914	851.6
448.325	841.8
448.715	850.4
449.126	849.2
449.537	863.8
449.948	865.8
450.338	874.6
450.75	868.4
451.161	875.8
451.572	871.6
451.984	862.6
452.374	860
452.786	872.2
453.197	878
453.609	878.8
453.999	865.2
454.411	870.4
454.823	892.6
455.235	887.6
455.647	883.8
456.037	884.6
456.449	862.4
456.862	882
457.274	873
457.665	874.6
458.077	886.8
458.489	923.4
458.902	883.8
459.293	881
459.705	888.8
460.118	883.4
460.53	887.6
460.921	895.4
461.334	879
461.747	886
462.16	907.8
462.551	904.8
462.964	891.8
463.377	871.6
463.79	892.6
464.182	901.4
464.595	882.8
465.008	901.4
465.421	902.8
465.813	901.6
466.226	904.2
466.64	898.4
467.053	945.6
467.445	902.6
467.859	920
468.272	895
468.686	909.8
469.078	900
469.492	898.4
469.906	898.2
470.298	919.4
470.712	890.6
471.126	945.8
471.54	895
471.933	883
472.347	892.4
472.761	882
473.175	888.2
473.568	895.4
473.982	888.6
474.397	883.2
474.79	895.2
475.204	900.8
475.619	895.6
476.033	893
476.426	875
476.841	878.8
477.256	912
477.649	888.8
478.064	880.4
478.479	881
478.872	869.8
479.287	867.6
479.702	871.4
480.118	874.2
480.511	870.2
480.927	877
481.342	866.4
481.736	876
482.151	862
482.566	890.2
482.96	881.6
483.376	887
483.792	865
484.186	862.2
484.602	867.2
485.017	858.6
485.412	861
485.827	862.4
486.243	862.6
486.638	872.8
487.054	872.2
487.47	866.8
487.865	846.4
488.281	843.8
488.697	855.6
489.092	855.2
489.508	841.4
489.925	855
490.32	838.6
490.736	856.6
491.153	852
491.548	841.4
491.964	854.4
492.381	817
492.776	839.6
493.193	839
493.61	837.2
494.006	847.2
494.422	834
494.84	824.8
495.235	834
495.652	814.4
496.069	827.8
496.465	809.4
496.883	822.2
497.3	847.4
497.696	804.2
498.113	826.4
498.509	814.2
498.927	808
499.344	791.4
499.741	810.4
500.158	814.2
500.576	811.8
500.973	789.4
501.39	790.6
501.787	781
502.205	793.4
502.623	798.4
503.02	771.6
503.438	776.6
503.856	782.4
504.253	791.6
504.671	779.4
505.068	768.2
505.486	771.8
505.905	797.6
506.302	781
506.72	785.6
507.118	768.8
507.536	766.4
507.955	771.8
508.352	773
508.771	771.6
509.169	777.6
509.587	762.6
510.006	766.6
510.404	751.4
510.823	761.6
511.221	761
511.64	752.6
512.038	770
512.457	752.2
512.877	758.6
513.275	752.4
513.694	749.2
514.092	744.2
514.512	747.8
514.91	757.4
515.33	745.8
515.749	742.2
516.148	754.2
516.568	746.4
516.966	738.4
517.386	734
517.785	739.4
518.205	733.8
518.603	727.6
519.024	726.4
519.444	730.2
519.843	731.6
520.263	739
520.662	729.6
521.082	719.4
521.481	724
521.902	717.4
522.301	717.6
522.722	720.6
523.121	718.8
523.542	711.8
523.963	712.8
524.362	709.2
524.783	719.6
525.183	715.4
525.604	719
526.003	705.6
526.425	698
526.824	711.4
527.246	714
527.646	715.4
528.067	719.8
528.467	710
528.888	703.6
529.289	694
529.71	710
530.11	695.8
530.532	695.2
530.932	696.8
531.354	684.8
531.755	726.4
532.176	697
532.577	695
532.999	697.6
533.4	687.6
533.822	694.6
534.223	694.2
534.645	674.8
535.046	682.4
535.468	674
535.869	709.2
536.292	678.6
536.693	715.8
537.115	681.2
537.516	669.4
537.939	677.2
538.34	696.8
538.742	692.2
539.165	685.8
539.566	678
539.989	675.8
540.391	671.2
540.814	679
541.216	680.4
541.639	672
542.041	683.6
542.464	668.6
542.866	670.4
543.268	657.8
543.691	674.8
544.093	666.8
544.517	685.6
544.919	651.8
545.343	682.8
545.745	658.4
546.147	663.2
546.571	664.2
546.974	656.8
547.398	657.4
547.8	675.4
548.224	662.4
548.627	653.8
549.03	663.6
549.454	652.6
549.857	655.2
550.281	653.2
550.684	653.6
551.087	665.2
551.512	651
551.915	664.4
552.34	654
552.743	654
553.146	654.6
553.571	651
553.975	665.2
554.399	647.8
554.803	702.6
555.207	645.2
555.632	645
556.036	655.2
556.461	645.2
556.865	640.8
557.268	639.2
557.694	639
558.098	649.4
558.502	647
558.927	641
559.332	640.8
559.736	642.4
560.162	651.6
560.566	641.6
560.992	646.8
561.396	643
561.801	641.6
562.227	643.8
562.631	640.8
563.036	634
563.462	639.8
563.867	641.8
564.272	622.4
564.698	626
565.103	625.6
565.508	655.6
565.935	640
566.34	631.6
566.745	643.4
567.172	630
567.577	649.6
567.982	647.6
568.409	640.4
568.815	623.4
569.22	620.6
569.626	637.4
570.053	618.2
570.459	635
570.865	637.4
571.292	634
571.698	632.8
572.104	614.8
572.531	628.4
572.937	640
573.343	624
573.75	618.2
574.177	625.6
574.583	630.2
574.99	627.4
575.396	631.6
575.824	630.2
576.231	637.6
576.637	621
577.065	650.4
577.472	613.2
577.879	626.6
578.286	637.4
578.714	619
579.121	624.8
579.528	627.8
579.935	632.4
580.364	622.6
580.771	606.8
581.178	609.6
581.585	617.8
582.014	620
582.421	615.4
582.829	613.2
583.236	625.2
583.644	614.4
584.073	617.8
584.481	616.6
584.889	614
585.296	621.2
585.726	618.2
586.134	615
586.542	614.2
586.95	626.2
587.358	613.2
587.787	614.4
588.196	628.2
588.604	615.6
589.012	622
589.421	596.6
589.851	606
590.259	619.8
590.668	603.6
591.076	648
591.485	610.8
591.894	612.6
592.324	622.2
592.733	620.8
593.142	601.6
593.551	610.6
593.96	613
594.369	595.8
594.8	608.4
595.209	608.6
595.618	602.4
596.028	605
596.437	592
596.847	607.4
597.256	612.6
597.687	605.4
598.097	603
598.507	593
598.917	603.4
599.327	609.4
599.736	607.6
600.146	616.6
600.556	606.2
600.988	615.4
601.398	594
601.808	615.6
602.219	597.4
602.629	606.4
603.039	610.6
603.45	625.8
603.86	609.4
604.271	621
604.703	589.4
605.114	603.8
605.525	611.6
605.935	607
606.346	623.8
606.757	610.6
607.168	597.8
607.579	602.2
607.99	618.2
608.402	611
608.813	605.4
609.224	595.2
609.636	595.6
610.047	600.4
610.48	610.8
610.892	608
611.303	607.6
611.715	601.2
612.127	586.8
612.539	598
612.95	607.4
613.362	590.4
613.774	587
614.186	591.8
614.599	595.6
615.011	608
615.423	604.6
615.835	600.4
616.248	587.6
616.66	601
617.073	591.8
617.485	609.2
617.898	611.2
618.311	604.2
618.723	598.4
619.136	636.2
619.549	615.4
619.962	629.4
620.375	597.2
620.788	593.8
621.201	600.2
621.614	603.2
622.028	598.8
622.441	602.8
622.854	617.6
623.268	588.4
623.681	605.6
624.095	606.2
624.509	607.6
624.922	608.2
625.336	588.8
625.728	602.4
626.142	611.2
626.556	615.2
626.97	609.6
627.384	598.2
627.799	596.8
628.213	618.2
628.627	598.8
629.041	586.8
629.456	594
629.87	601.2
630.285	605.2
630.699	605
631.093	593.8
631.507	597.4
631.922	601.4
632.337	607.6
632.752	584.6
633.167	605.4
633.582	596
633.997	588.2
634.412	595.2
634.806	601.2
635.221	589
635.637	607.8
636.052	587.6
636.468	599.4
636.883	610
637.299	606.4
637.715	589
638.109	611.4
638.525	587.4
638.941	615.4
639.357	598.8
639.773	610.4
640.189	598.4
640.584	596.8
641	601.2
641.416	588.8
641.832	591.8
642.249	598.4
642.665	592.4
643.06	603.4
643.477	603
643.894	584.8
644.31	597.2
644.727	594
645.123	596
645.54	592
645.957	595
646.374	609.2
646.77	606.2
647.187	615.2
647.604	591.2
648.021	579.6
648.439	586.4
648.835	595.6
649.252	587
649.67	592.6
650.088	602.6
650.484	598.4
650.902	603
651.32	598.2
651.738	588.6
652.134	596.2
652.552	608.6
652.971	605
653.389	592.6
653.786	603.8
654.204	612.8
654.622	588.6
655.019	599.8
655.438	596
655.857	596.4
656.275	597
656.673	584.4
657.091	605
657.51	586.4
657.908	589
658.327	612
658.746	583.4
659.144	598
659.563	611.2
659.982	605.4
660.38	579.4
660.8	596.2
661.219	597.4
661.617	599.4
662.037	593.4
662.457	603
662.855	581.6
663.275	613.2
663.695	591.6
664.094	590.8
664.514	595.2
664.934	582.4
665.333	596.2
665.753	588.4
666.152	580.2
666.572	588.2
666.993	598
667.392	583
667.812	592.4
668.212	586.8
668.632	607
669.053	589.2
669.453	594
669.874	592.2
670.273	597.8
670.694	584.4
671.116	597.2
671.515	603
671.937	591.6
672.337	594.8
672.758	591
673.158	593.6
673.58	579.2
673.98	596.8
674.402	604.4
674.824	591.2
675.224	585.2
675.646	591
676.047	584.4
676.469	587.6
676.869	597.4
677.292	592.4
677.693	587.6
678.115	582.2
678.516	599.2
678.939	594.4
679.34	589.6
679.762	597.8
680.164	587.2
680.586	582
680.988	592.2
681.411	605.4
681.812	585.4
682.236	587.8
682.637	577
683.061	581
683.462	594
683.864	594.2
684.288	596.6
684.69	589.6
685.114	595
685.516	597.8
685.94	583.6
686.342	594.4
686.766	589
687.168	585.6
687.571	608.2
687.995	592
688.398	582.8
688.822	590.8
689.225	606.6
689.628	605
690.052	587.6
690.456	598.4
690.88	589.8
691.284	585.6
691.687	599
692.112	581.6
692.515	582
692.919	591.2
693.344	601.6
693.747	584.8
694.173	585.6
694.577	600.4
694.98	582.6
695.406	587.8
695.81	580.6
696.214	588
696.64	591.2
697.044	587.4
697.448	599.6
697.874	587.4
698.279	579
698.684	578.2
699.11	579.2
699.514	584
699.919	584.2
700.324	582.6
700.75	589
701.156	595.2
701.561	600.8
701.987	599.8
702.393	595.6
702.798	597.6
703.203	593.6
703.63	587.6
704.036	582.2
704.442	587.4
704.847	589.2
705.274	598.4
705.68	582.2
706.086	590.2
706.492	579.6
706.92	592.6
707.326	603
707.732	582
708.139	586.4
708.545	577
708.973	583.2
709.38	590.6
709.786	572.6
710.193	607.2
710.6	591
711.028	575.8
711.435	590.2
711.842	585.8
712.249	587
712.656	588.2
713.064	594
713.492	577.2
713.9	582.8
714.307	591.2
714.715	591.2
715.123	596.2
715.53	599.6
715.938	602
716.367	593.2
716.775	585.8
717.184	588
717.592	593
718	603.2
718.408	624
718.816	628.6
719.225	596.8
719.633	590.6
720.042	583.2
720.472	588
720.881	616.8
721.29	596.8
721.699	577.8
722.108	588.8
722.517	585
722.926	585.6
723.335	595.2
723.744	587
724.154	589.8
724.563	596.6
724.973	595.8
725.382	590
725.792	583.8
726.202	585.6
726.612	613.6
727.022	594.4
727.432	575.2
779.813	580.8
780.223	626.8
780.634	585.8
781.044	584.6
781.454	591.6
781.865	599
782.276	580.2
782.686	594
783.097	588.6
783.508	587.8
783.919	590.4
784.33	603.8
784.741	595.6
785.152	587.4
785.563	572
785.974	584.8
786.386	602
786.776	594.8
787.188	591
787.599	571.4
788.011	589.8
788.423	592.6
788.835	588.2
789.247	577.2
789.659	584.2
790.071	572.6
790.483	634.4
790.874	593.4
791.286	594.2
791.699	581.4
792.111	584.4
792.524	592.6
792.937	582.6
793.349	579.4
793.741	583
794.154	584.6
794.567	599.6
794.98	594.8
795.393	573
795.785	605
796.198	590.4
796.612	590
797.026	572.8
797.439	565.2
797.831	579.2
798.245	581.2
798.659	591.2
799.073	577.4
799.487	574.6
799.88	582.8
800.294	576.4
800.708	583
801.123	586.4
801.516	604.6
801.93	576.6
802.345	567.4
802.76	580.2
803.153	598.2
803.568	588.8
803.983	592.6
804.377	591.8
804.792	567
805.207	570.8
805.601	587
806.016	619.2
806.432	575.4
806.826	619.8
807.242	606.4
807.658	591.2
808.052	582.4
808.468	574.4
808.884	575.6
809.279	586
809.695	599.8
810.111	606.2
810.506	589.4
810.922	610.6
811.339	579.4
811.734	588.8
812.151	573.4
812.546	578.6
812.963	585.2
813.38	581.2
813.776	585.2
814.193	602.6
814.589	581.2
815.006	578
815.402	570.8
815.82	576.4
816.237	584.2
816.633	581.2
817.051	578.4
817.448	589.4
817.866	572.4
818.262	600
818.68	572.4
819.077	581.2
819.495	580.6
819.892	614.6
820.311	576.4
820.708	588.6
821.127	579.2
821.524	599.6
821.943	585.4
822.34	604
822.759	581.6
823.157	592.2
823.576	599.6
823.974	589.4
824.393	606.2
824.791	579.8
825.189	573
825.609	580.6
826.007	581.4
826.427	576.2
826.826	583.2
827.246	586.2
827.644	564.6
828.043	587.6
828.463	578.6
828.862	593.4
829.261	593.2
829.682	577.8
830.081	588.2
830.502	581.6
830.901	583.4
831.301	596.2
831.722	572.2
832.121	585.8
832.521	586.4
832.943	583.4
833.342	581.2
833.742	570.2
834.164	582
834.564	579.2
834.965	575
835.386	576
835.787	580.6
836.188	580.4
836.588	584.8
837.01	584.4
837.411	575.6
837.812	587.8
838.213	595.2
838.636	573.8
839.037	648.4
839.438	586.6
839.84	586.6
840.263	585.2
840.664	583.2
841.066	585.2
841.468	586
841.891	576.4
842.293	585.8
842.695	586.8
843.098	588.6
843.5	582.8
843.902	589
844.326	576.8
844.729	577.6
845.131	597.2
845.534	579.8
845.937	593.6
846.34	592.4
846.764	572.8
847.167	587.8
847.571	575
847.974	578.6
848.377	579.8
848.781	628
849.184	596.8
849.588	583.8
849.992	582.8
850.396	588.4
850.821	610.2
851.225	593.4
851.63	584
852.034	599.8
852.438	583.2
852.843	608.6
853.247	567
853.652	576.6
854.057	599.6
854.462	596.8
854.867	580.6
855.272	615.6
855.677	590.6
856.082	576.6
