#lambda/nm	C1
208.295	506.6
208.67	462.8
209.045	426.4
209.419	435
209.794	617.4
210.169	596.4
210.544	715.2
210.919	622
211.295	603.8
211.67	612.2
212.045	618.2
212.421	602.8
212.796	644.6
213.172	608
213.547	617.6
213.923	614.8
214.299	605.4
214.675	622.6
215.051	622.2
215.427	626.8
215.803	637.4
216.179	619.4
216.555	612.8
216.932	621.2
217.308	617.2
217.684	612.8
218.061	629.2
218.438	612.8
218.814	609.4
219.191	620
219.568	601.6
219.945	617.4
220.322	615.6
220.699	618.6
221.076	620.2
221.453	614
221.83	611.6
222.208	605.6
222.585	600
222.962	612.2
223.34	623.4
223.717	618.8
224.095	617.2
224.473	617.6
224.851	604.6
225.229	606
225.607	627.8
225.985	612.6
226.363	621.8
226.741	615
227.119	612.8
227.497	628.6
227.876	592.4
228.254	622.2
228.633	616
229.011	611.2
229.39	620.8
229.769	621.6
230.148	629.6
230.527	629.8
230.905	608.6
231.284	617.6
231.664	612
232.043	627.6
232.422	626.2
232.801	610.2
233.181	612
233.56	619
233.94	617.8
234.319	602.6
234.699	612.6
235.079	653.2
235.458	656.4
235.838	626
236.218	604.2
236.598	602.6
236.978	614.6
237.358	610.6
237.738	618.6
238.119	624.4
238.499	607.4
238.88	625.4
239.26	634.8
239.641	609.2
240.021	618
240.402	611.4
240.783	613.4
241.163	619.8
241.544	619.8
241.925	606
242.306	623.6
242.687	628.6
243.069	615.8
243.45	622.6
243.831	611.4
244.212	609.6
244.594	647.8
244.975	619
245.357	619.4
245.739	611.4
246.12	622.2
246.502	628
246.884	615.8
247.266	614.8
247.648	615
248.03	642.6
248.412	627.2
248.794	626.2
249.176	613
249.559	626.4
249.941	606.8
250.323	612
250.706	625.4
251.089	613.8
251.471	616
251.854	617.8
252.237	611
252.62	625.4
253.002	620.4
253.385	616
253.769	624.6
254.152	623.4
254.535	624.6
254.918	603.6
255.301	608
255.685	614.4
256.068	613
256.452	641.4
256.835	638
257.219	622
257.603	627.8
257.986	604.4
258.37	627.8
258.754	609.4
259.138	620.6
259.522	623.8
259.906	615.6
260.29	616
260.675	617
261.059	617.4
261.443	608.6
261.828	616.8
262.212	619.2
262.597	606.6
262.981	614.2
263.366	620.4
263.751	619.6
264.136	611.2
264.521	613.8
264.906	608
265.291	625.8
265.676	615.8
266.061	616.2
266.446	631.8
266.831	609.2
267.217	639.4
267.602	629
267.987	619.4
268.373	606
268.759	630.6
269.144	628
269.53	623
269.916	620.6
270.302	609.2
270.688	617.6
271.074	611.6
271.46	632
271.846	647.4
272.232	616.6
272.618	610.4
273.004	615.4
273.391	625.4
273.777	625.2
274.164	619.8
274.55	635.2
274.937	622.8
275.324	617.6
275.71	623.6
276.097	621.2
276.484	613.6
276.871	614
277.258	621.4
277.645	609.4
278.032	623
278.419	610.4
278.807	615.6
279.194	600.2
279.581	606.2
279.969	618
280.356	615
280.744	611
281.131	644.2
281.519	621.8
281.907	618
282.295	612.6
282.682	616
283.07	619.4
283.458	617
283.846	622.4
284.235	629.8
284.623	630
285.011	607.6
285.399	621.8
285.788	623.4
286.176	607
286.565	622
286.953	610.2
287.342	618
287.731	610.2
288.119	612
288.508	612.8
288.897	614.8
289.286	605.8
289.675	615.6
290.064	620.4
290.453	604.8
290.821	615.6
291.21	622.6
291.599	602.2
291.989	619.2
292.378	615.2
292.768	635.2
293.157	621.2
293.547	620.6
293.936	611.2
294.326	611.2
294.716	624
295.106	611
295.496	618.4
295.886	622.2
296.276	614.8
296.666	616.4
297.056	611.4
297.446	606.2
297.836	631.8
298.227	619.2
298.617	617.4
299.008	633.8
299.398	618.8
299.789	611.4
300.179	617.8
300.57	629.2
300.961	606.6
301.352	613
301.742	621.8
302.133	610.8
302.524	613.4
302.915	616.8
303.307	612.4
303.698	629.2
304.089	623
304.48	612.4
304.872	619.8
305.263	623
305.655	623.6
306.046	625.4
306.438	622
306.829	606.8
307.221	628.2
307.613	618.8
308.005	621.6
308.397	634.8
308.789	632.4
309.181	637
309.573	637
309.965	627
310.357	614.8
310.749	629.6
311.142	610.4
311.534	610.8
311.926	624.4
312.319	622.2
312.711	615.6
313.104	627.6
313.497	616.8
313.889	660.6
314.282	632.2
314.675	645.4
315.068	625.2
315.461	625.2
315.854	647.6
316.247	620.6
316.64	620.4
317.033	624.6
317.405	627.4
317.798	618
318.192	627.6
318.585	602.4
318.979	623.2
319.372	608.4
319.766	616
320.16	620.8
320.553	639
320.947	637
321.341	610
321.735	607.4
322.129	602.4
322.523	633.2
322.917	601.8
323.311	631.6
323.705	618.8
324.099	624
324.494	626.6
324.888	628.4
325.282	609.2
325.677	623
326.071	622.8
326.466	631
326.861	615.2
327.255	625.2
327.65	628.4
328.045	633.4
328.44	617.4
328.835	619.8
329.23	617
329.625	635.2
330.02	605.4
330.415	636.2
330.81	618
331.206	622
331.601	617.6
331.996	625.6
332.37	635.8
332.766	606.8
333.161	642.6
333.557	611.8
333.953	616
334.348	980
334.744	615.8
335.14	618.8
335.536	608.4
335.932	631.8
336.328	612.8
336.724	626
337.12	623
337.516	617.6
337.913	619
338.309	635.8
338.705	612.8
339.102	639.2
339.498	615.4
339.895	625.8
340.291	609.8
340.688	635.2
341.085	613
341.481	619.8
341.878	611.4
342.275	631.2
342.672	611
343.069	607.2
343.466	603.4
343.842	627.6
344.239	608.2
344.636	621.2
345.033	609.2
345.431	617.8
345.828	620.4
346.225	606.8
346.623	649.4
347.02	617
347.418	627.8
347.816	629.4
348.213	615.2
348.611	628.6
349.009	614.8
349.407	627.8
349.805	607.8
350.203	599
350.601	630.6
350.999	616.2
351.397	676.2
351.795	616.8
352.193	622.4
352.57	621.8
352.969	625.8
353.367	607
353.766	603.4
354.164	611.6
354.563	633.2
354.961	613.8
355.36	607.4
355.759	611.6
356.158	603.6
356.557	611.8
356.956	603.8
357.355	604.8
357.754	617.2
358.153	611.8
358.552	633.4
358.951	609
359.35	624
359.75	610.4
360.149	602.4
360.527	593.4
360.926	599.2
361.326	617.8
361.726	612.8
362.125	609.4
362.525	615.8
362.925	607.4
363.325	613.4
363.724	617
364.124	606.2
364.524	596.6
364.924	612.2
365.324	621.2
365.725	601
366.125	608.2
366.525	608.4
366.904	600.8
367.304	600.4
367.705	630
368.105	624.8
368.506	611.8
368.906	609.6
369.307	603.4
369.708	614
370.108	597.4
370.509	615.6
370.91	610.8
371.311	605.8
371.712	611.8
372.113	608.8
372.514	595.8
372.894	604
373.295	601.8
373.696	621.8
374.097	623.6
374.499	636
374.9	613
375.301	596.2
375.703	617.4
376.105	607.2
376.506	617.8
376.908	617.2
377.309	613.4
377.711	605.6
378.113	601.6
378.493	614.4
378.895	607.8
379.297	626.6
379.699	587.2
380.102	604.2
380.504	601.8
380.906	597.2
381.308	631.2
381.71	603.2
382.113	613.4
382.515	607
382.918	620
383.299	604.4
383.701	611.6
384.104	612
384.507	589.4
384.909	608.4
385.312	597.6
385.715	597.2
386.118	601.4
386.521	598.8
386.924	603.6
387.327	609.8
387.709	592.8
388.112	594.4
388.515	605.6
388.918	606
389.322	607.4
389.725	601.4
390.129	623.2
390.532	612.6
390.936	604.6
391.339	603
391.743	617.2
392.125	604.4
392.529	625.2
392.933	614.8
393.337	610.2
393.74	612.4
394.144	606
394.548	600.6
394.953	607.2
395.357	614.6
395.761	607.6
396.144	607.4
396.548	607.6
396.952	614
397.357	615.6
397.761	600
398.166	608.8
398.57	613.8
398.975	601.6
399.379	605.2
399.763	658.6
400.168	615.2
400.572	597
400.977	608
401.382	627.2
401.787	622.4
402.192	625.4
402.597	624.8
403.002	593.4
403.386	622.4
403.791	620
404.197	604
404.602	612
405.007	606.2
405.413	604.6
405.818	610
406.224	596
406.608	604.2
407.014	600.2
407.42	623.8
407.825	609.4
408.231	619.2
408.637	608.2
409.043	623.4
409.449	606.4
409.834	600.4
410.24	600.4
410.646	624.6
411.052	619.2
411.458	617.2
411.865	625
412.271	617.4
412.677	606.4
413.062	611.8
413.469	598.2
413.875	630.4
414.282	620
414.689	609.4
415.095	609
415.502	602
415.888	607.8
416.294	598.8
416.701	653.4
417.108	604.2
417.515	621.4
417.923	616.4
418.33	626.8
418.715	616.2
419.123	604.2
419.53	600
419.937	606.4
420.345	615.4
420.752	602.4
421.16	623.4
421.546	609
421.953	618.8
422.361	602.8
422.769	606.8
423.177	601.4
423.585	639.4
423.992	629.6
424.379	615.2
424.787	619
425.195	635.4
425.603	607.8
426.011	624.6
426.419	624
426.806	611.6
427.214	609.2
427.623	620.6
428.031	625
428.44	617.2
428.848	624.2
429.235	621.8
429.644	614.8
430.053	607.4
430.461	627.2
430.87	631.2
431.279	630
431.666	608.4
432.075	616.2
432.484	618.8
432.893	614.8
433.302	634.8
433.711	650.2
434.099	620
434.508	611.2
434.918	618.8
435.327	632.6
435.737	635
436.125	631.6
436.534	636.6
436.944	641.2
437.353	641
437.763	665.6
438.173	625
438.561	657.4
438.971	631.2
439.381	650.6
439.791	658.2
440.201	645.8
440.589	676.4
440.999	683.8
441.409	673.6
441.819	665.8
442.23	694.8
442.619	695.4
443.029	680.2
443.439	694.2
443.85	702
444.26	711.8
444.649	703.6
445.06	696.8
445.471	699.4
445.881	708.4
446.292	726.2
446.682	739.2
447.092	700.2
447.503	768
447.914	707.2
448.325	719.2
448.715	726.4
449.126	711.4
449.537	730
449.948	724.6
450.338	722.6
450.75	738.6
451.161	739.4
451.572	747
451.984	740.6
452.374	724.2
452.786	738.8
453.197	743.2
453.609	748.4
453.999	721.2
454.411	740
454.823	756.2
455.235	745.8
455.647	749.8
456.037	751.6
456.449	736.8
456.862	744.2
457.274	753.2
457.665	740.8
458.077	760.2
458.489	779
458.902	752.4
459.293	764.6
459.705	754
460.118	745.2
460.53	749.4
460.921	751.8
461.334	757.8
461.747	752.2
462.16	769
462.551	767.4
462.964	772.4
463.377	737
463.79	752.4
464.182	776.8
464.595	748.4
465.008	765.4
465.421	771.2
465.813	771.4
466.226	762.4
466.64	774
467.053	822.4
467.445	785.4
467.859	783.6
468.272	766.2
468.686	781.2
469.078	770.6
469.492	761
469.906	767.6
470.298	761.6
470.712	777.8
471.126	816.4
471.54	757.4
471.933	753.4
472.347	770.2
472.761	760
473.175	754.2
473.568	756
473.982	757.2
474.397	772
474.79	775.4
475.204	774.6
475.619	769
476.033	773
476.426	763.8
476.841	766.8
477.256	788.8
477.649	754.2
478.064	765.6
478.479	764.2
478.872	752.6
479.287	755
479.702	756.2
480.118	764
480.511	770
480.927	767.2
481.342	756.6
481.736	765.2
482.151	751.6
482.566	779.8
482.96	766.4
483.376	763.8
483.792	750.2
484.186	762.2
484.602	749.6
485.017	759
485.412	755.6
485.827	758.4
486.243	752.2
486.638	765.6
487.054	755.6
487.47	767.2
487.865	754.8
488.281	749
488.697	744.4
489.092	747.6
489.508	733.8
489.925	758
490.32	736.8
490.736	739.2
491.153	750
491.548	752.8
491.964	748.4
492.381	733.8
492.776	745.4
493.193	747
493.61	743.6
494.006	745.2
494.422	737.8
494.84	733.2
495.235	751.4
495.652	740.2
496.069	735.8
496.465	737
496.883	736.4
497.3	747.6
497.696	725.8
498.113	736.6
498.509	726
498.927	716.2
499.344	723.4
499.741	720.6
500.158	731.6
500.576	737
500.973	730.8
501.39	716
501.787	713.6
502.205	723.4
502.623	722.2
503.02	702
503.438	717.6
503.856	715.4
504.253	717.4
504.671	713.4
505.068	709
505.486	706.6
505.905	731.6
506.302	719.2
506.72	719.4
507.118	704.2
507.536	705.2
507.955	706.4
508.352	705.4
508.771	713.6
509.169	714.4
509.587	687.8
510.006	704.6
510.404	690.6
510.823	695
511.221	698.6
511.64	692
512.038	708.8
512.457	691.4
512.877	701
513.275	685.8
513.694	688.6
514.092	691.2
514.512	688.6
514.91	692.8
515.33	688.8
515.749	693
516.148	691
516.568	678.8
516.966	689.4
517.386	677.8
517.785	678.8
518.205	676
518.603	676
519.024	675.4
519.444	674.4
519.843	683.8
520.263	681.6
520.662	684.6
521.082	674.6
521.481	679
521.902	670.4
522.301	674.6
522.722	674.6
523.121	665.2
523.542	671.2
523.963	668.8
524.362	679
524.783	667.8
525.183	670.2
525.604	676.4
526.003	661.8
526.425	662.4
526.824	668.2
527.246	677.6
527.646	676.2
528.067	669.8
528.467	665.4
528.888	668.8
529.289	672.4
529.71	660.8
530.11	654.6
530.532	666.4
530.932	652.6
531.354	651.8
531.755	689
532.176	668.4
532.577	655
532.999	657.4
533.4	648.4
533.822	670
534.223	659.6
534.645	652.4
535.046	654.4
535.468	651.8
535.869	669.2
536.292	650.4
536.693	693
537.115	654.6
537.516	647
537.939	647.8
538.34	669.4
538.742	657.2
539.165	648
539.566	649.2
539.989	645.8
540.391	643.4
540.814	643.2
541.216	648.8
541.639	649.8
542.041	655.2
542.464	643
542.866	638.8
543.268	636.6
543.691	641.6
544.093	648
544.517	663.8
544.919	633.6
545.343	666.8
545.745	636.4
546.147	642.4
546.571	632.8
546.974	621.4
547.398	641.4
547.8	652.6
548.224	637.6
548.627	638.4
549.03	644.2
549.454	621.8
549.857	628.8
550.281	628.2
550.684	627.8
551.087	650.6
551.512	629.4
551.915	635
552.34	633
552.743	628.6
553.146	635.6
553.571	637.2
553.975	647.6
554.399	632.4
554.803	684
555.207	620.6
555.632	619.8
556.036	632.8
556.461	631.2
556.865	629.4
557.268	631.8
557.694	624.4
558.098	635
558.502	629.6
558.927	626.6
559.332	620.4
559.736	625.6
560.162	631.6
560.566	633
560.992	629.6
561.396	623.8
561.801	629
562.227	628.6
562.631	609.6
563.036	625.8
563.462	624.6
563.867	618.8
564.272	612.6
564.698	620.2
565.103	608.2
565.508	644
565.935	619.4
566.34	618.8
566.745	634.6
567.172	625.2
567.577	636.4
567.982	630.6
568.409	627.8
568.815	617.8
569.22	619.8
569.626	626
570.053	606
570.459	621.8
570.865	620
571.292	620.4
571.698	617
572.104	601
572.531	607.4
572.937	633.4
573.343	613.4
573.75	609.2
574.177	616.6
574.583	617.8
574.99	615.2
575.396	622.8
575.824	616.4
576.231	619.2
576.637	610.6
577.065	642.6
577.472	606
577.879	615.8
578.286	626.8
578.714	598
579.121	612.4
579.528	611.8
579.935	625
580.364	614.8
580.771	600
581.178	605
581.585	609.4
582.014	618.8
582.421	606.6
582.829	607.4
583.236	617.8
583.644	594.2
584.073	604.8
584.481	619.4
584.889	606.8
585.296	607.4
585.726	602
586.134	594.8
586.542	613.2
586.95	621.8
587.358	594.4
587.787	616
588.196	618
588.604	604.2
589.012	609.6
589.421	592.8
589.851	601.8
590.259	615
590.668	604.6
591.076	641.6
591.485	601
591.894	606.4
592.324	623
592.733	619.2
593.142	594
593.551	597.2
593.96	643.8
594.369	594
594.8	603.4
595.209	603.4
595.618	595.6
596.028	598.2
596.437	594.8
596.847	604
597.256	599.2
597.687	613.6
598.097	606.8
598.507	597.4
598.917	605.4
599.327	605
599.736	607.4
600.146	613.8
600.556	604.4
600.988	613.2
601.398	602
601.808	619
602.219	590.4
602.629	604
603.039	598.2
603.45	624.6
603.86	603.8
604.271	612.6
604.703	592.8
605.114	605
605.525	601.2
605.935	611.2
606.346	618.2
606.757	604.6
607.168	591.6
607.579	590.6
607.99	607
608.402	609.2
608.813	598.8
609.224	590.4
609.636	590.6
610.047	591.2
610.48	595
610.892	607.2
611.303	614.8
611.715	601.4
612.127	582.8
612.539	597.2
612.95	596.2
613.362	591.8
613.774	588.4
614.186	592.8
614.599	592.4
615.011	599.6
615.423	599.2
615.835	591.8
616.248	580.8
616.66	601.6
617.073	589
617.485	594
617.898	604.6
618.311	600.8
618.723	599.2
619.136	618
619.549	607.8
619.962	630.2
620.375	595
620.788	602.4
621.201	593.2
621.614	591.8
622.028	592.4
622.441	612.8
622.854	610.2
623.268	597.8
623.681	607.6
624.095	602.2
624.509	610.4
624.922	602.6
625.336	588.2
625.728	596.4
626.142	604.2
626.556	610.2
626.97	603.4
627.384	601.6
627.799	600
628.213	616
628.627	598.2
629.041	596.2
629.456	595
629.87	593.2
630.285	599.4
630.699	598.8
631.093	591
631.507	607.8
631.922	603.6
632.337	604.4
632.752	588.6
633.167	593.6
633.582	595.4
633.997	593
634.412	582.4
634.806	601
635.221	584.2
635.637	604.4
636.052	588.4
636.468	593.6
636.883	612.8
637.299	599.8
637.715	580
638.109	589.4
638.525	585
638.941	603
639.357	597.6
639.773	604
640.189	589.4
640.584	588.4
641	599
641.416	589.4
641.832	596.4
642.249	588.6
642.665	589.4
643.06	596.2
643.477	607.4
643.894	582.6
644.31	594.2
644.727	588
645.123	588.2
645.54	582.2
645.957	594
646.374	593.4
646.77	589.2
647.187	619.4
647.604	597.8
648.021	578.2
648.439	583.6
648.835	593.4
649.252	588.4
649.67	591.6
650.088	585.2
650.484	597.4
650.902	599.8
651.32	601.6
651.738	586.8
652.134	596.4
652.552	617.8
652.971	602
653.389	590.6
653.786	606.4
654.204	607.4
654.622	585
655.019	593.2
655.438	600.4
655.857	596.2
656.275	596.8
656.673	592.6
657.091	607.4
657.51	584
657.908	603.4
658.327	598
658.746	586.8
659.144	594.8
659.563	600.4
659.982	591.8
660.38	583
660.8	598.8
661.219	603.8
661.617	593.4
662.037	597.6
662.457	609.6
662.855	582.4
663.275	632
663.695	586.2
664.094	589.4
664.514	593.8
664.934	580
665.333	597.4
665.753	584.6
666.152	573.6
666.572	586.8
666.993	605.4
667.392	580.4
667.812	586.6
668.212	589.2
668.632	595.8
669.053	582.6
669.453	593
669.874	588.6
670.273	597.6
670.694	574.8
671.116	602.6
671.515	601.4
671.937	579.4
672.337	584.2
672.758	590.2
673.158	603.8
673.58	585.2
673.98	580.8
674.402	592.8
674.824	588.6
675.224	586.4
675.646	583.4
676.047	584.2
676.469	595.4
676.869	596.6
677.292	588
677.693	581
678.115	582.2
678.516	593.2
678.939	594.6
679.34	586.2
679.762	592
680.164	591.6
680.586	586.6
680.988	591.8
681.411	607.8
681.812	576.4
682.236	576.6
682.637	583.6
683.061	582.6
683.462	592.6
683.864	585.6
684.288	593
684.69	584.6
685.114	599.6
685.516	599.6
685.94	582
686.342	589.2
686.766	574.4
687.168	594
687.571	606.2
687.995	591
688.398	582.6
688.822	587.4
689.225	601.8
689.628	607.6
690.052	591.4
690.456	596.4
690.88	592.2
691.284	579.4
691.687	598.8
692.112	579.2
692.515	581
692.919	593
693.344	594.4
693.747	590.8
694.173	584
694.577	601.4
694.98	586.2
695.406	584.2
695.81	594.2
696.214	603
696.64	590.4
697.044	596.8
697.448	591.4
697.874	581.2
698.279	588.8
698.684	578.6
699.11	582.2
699.514	577.6
699.919	577.8
700.324	583.6
700.75	583.8
701.156	591
701.561	596.8
701.987	601.8
702.393	596.6
702.798	598.8
703.203	592.4
703.63	579.2
704.036	579.8
704.442	581.4
704.847	570.8
705.274	575.6
705.68	594.8
706.086	592.4
706.492	578
706.92	581.4
707.326	597.4
707.732	584
708.139	590.4
708.545	573.4
708.973	581.2
709.38	590
709.786	577.4
710.193	605.8
710.6	589.2
711.028	576
711.435	585.8
711.842	581.4
712.249	584.8
712.656	577.4
713.064	593.6
713.492	577
713.9	578.8
714.307	592
714.715	595
715.123	591.2
715.53	579.8
715.938	595
716.367	583.8
716.775	581.4
717.184	589.2
717.592	580.4
718	595.2
718.408	620.6
718.816	636
719.225	583.2
719.633	595.8
720.042	579.8
720.472	587.4
720.881	605.8
721.29	596
721.699	577.6
722.108	591
722.517	585.8
722.926	577.6
723.335	596.4
723.744	575.8
724.154	587.4
724.563	584.4
724.973	597
725.382	587.2
725.792	581.4
726.202	574.8
726.612	597.8
727.022	590.2
727.432	581.4
779.813	592.4
780.223	631.2
780.634	583
781.044	577.8
781.454	588.4
781.865	593.4
782.276	572.8
782.686	603.8
783.097	592.2
783.508	584.6
783.919	587
784.33	595.4
784.741	597.6
785.152	587
785.563	573.6
785.974	580.2
786.386	606.4
786.776	585.2
787.188	586.2
787.599	577.4
788.011	588.6
788.423	590.8
788.835	588
789.247	582.8
789.659	579.6
790.071	585.4
790.483	626.6
790.874	583.8
791.286	591.2
791.699	578.8
792.111	582
792.524	585.4
792.937	577.6
793.349	564
793.741	574.6
794.154	582.4
794.567	602.8
794.98	577
795.393	567.8
795.785	603.4
796.198	575.4
796.612	589
797.026	579.8
797.439	568.6
797.831	580.6
798.245	575.4
798.659	581
799.073	581.2
799.487	590.2
799.88	581.4
800.294	586.6
800.708	591
801.123	584
801.516	601.2
801.93	576.4
802.345	570.6
802.76	589.6
803.153	597.2
803.568	597.8
803.983	595.8
804.377	587.2
804.792	576.4
805.207	573
805.601	584.2
806.016	616.2
806.432	583.2
806.826	611
807.242	601.2
807.658	598.2
808.052	587.6
808.468	584.6
808.884	581.4
809.279	583.4
809.695	594.4
810.111	597
810.506	573.8
810.922	602.4
811.339	580.2
811.734	595
812.151	574.4
812.546	586.4
812.963	584.6
813.38	585.4
813.776	583.8
814.193	608.2
814.589	578.4
815.006	582.4
815.402	574.6
815.82	576.6
816.237	584
816.633	580.6
817.051	574.6
817.448	576
817.866	572.6
818.262	601.8
818.68	580.2
819.077	576.6
819.495	577.2
819.892	625
820.311	581
820.708	578.8
821.127	580.2
821.524	591.6
821.943	585.6
822.34	603
822.759	586.8
823.157	583.8
823.576	594.6
823.974	588.6
824.393	634.2
824.791	587.6
825.189	570.8
825.609	578.8
826.007	581.8
826.427	572.8
826.826	584
827.246	574.4
827.644	573.8
828.043	592.4
828.463	577.2
828.862	586
829.261	592.6
829.682	574.8
830.081	591
830.502	574.2
830.901	585.2
831.301	595.2
831.722	576
832.121	578
832.521	570.8
832.943	579.8
833.342	575
833.742	573.8
834.164	578.2
834.564	571.8
834.965	580
835.386	579.6
835.787	576.8
836.188	580.4
836.588	585.8
837.01	582.2
837.411	575
837.812	590.8
838.213	582.8
838.636	583
839.037	641.6
839.438	588.6
839.84	589.4
840.263	589.4
840.664	582.6
841.066	577.6
841.468	580
841.891	574.4
842.293	588.4
842.695	580.4
843.098	599.8
843.5	579.2
843.902	584.6
844.326	592.4
844.729	585.4
845.131	594
845.534	579.2
845.937	597
846.34	597.6
846.764	575.2
847.167	582.6
847.571	577.6
847.974	580.8
848.377	581.2
848.781	623.8
849.184	596.8
849.588	582.2
849.992	579.4
850.396	575.6
850.821	598
851.225	576
851.63	575
852.034	601
852.438	577.4
852.843	605.6
853.247	578
853.652	575.2
854.057	597.6
854.462	583.8
854.867	588.4
855.272	608.4
855.677	586.2
