#lambda/nm	C1
208.295	514.4
208.67	465.6
209.045	421.4
209.419	427.2
209.794	607
210.169	597.6
210.544	708
210.919	619.6
211.295	600
211.67	611.8
212.045	606.6
212.421	612.8
212.796	642.8
213.172	617.2
213.547	602.2
213.923	601
214.299	611.6
214.675	614.4
215.051	621.2
215.427	622
215.803	626.6
216.179	619.4
216.555	603.4
216.932	625
217.308	611.6
217.684	610.6
218.061	619.8
218.438	621.2
218.814	610.8
219.191	620
219.568	607.2
219.945	607.8
220.322	613.4
220.699	617
221.076	614.6
221.453	606.8
221.83	606
222.208	610
222.585	602.2
222.962	620.6
223.34	613.2
223.717	609
224.095	614.4
224.473	616.4
224.851	615.4
225.229	605.8
225.607	631.4
225.985	600.2
226.363	610
226.741	620
227.119	613.2
227.497	612.8
227.876	604.4
228.254	622.8
228.633	621.8
229.011	612.8
229.39	622.6
229.769	616.6
230.148	616.6
230.527	630
230.905	623
231.284	617.4
231.664	609.8
232.043	623.4
232.422	623.2
232.801	607.6
233.181	619.8
233.56	612.8
233.94	617.8
234.319	601
234.699	610
235.079	661.4
235.458	646.6
235.838	629.8
236.218	611.8
236.598	609.4
236.978	604.4
237.358	613.6
237.738	612.2
238.119	624.8
238.499	603.2
238.88	604.4
239.26	637.6
239.641	609
240.021	618.4
240.402	619.6
240.783	610.4
241.163	614.6
241.544	617.8
241.925	619.2
242.306	625
242.687	615.8
243.069	619.6
243.45	612.2
243.831	608.2
244.212	619
244.594	645.4
244.975	618.8
245.357	614.4
245.739	613.4
246.12	618.6
246.502	628
246.884	616.4
247.266	603
247.648	624
248.03	637.8
248.412	616.8
248.794	617.4
249.176	608.2
249.559	624.2
249.941	615.8
250.323	599.2
250.706	615
251.089	620.8
251.471	620.4
251.854	616.2
252.237	612.8
252.62	623.2
253.002	615.8
253.385	615.2
253.769	627
254.152	612.4
254.535	620.6
254.918	602
255.301	610.2
255.685	608.2
256.068	604.2
256.452	634.4
256.835	619.2
257.219	624.2
257.603	622.6
257.986	606
258.37	624.2
258.754	607.6
259.138	614.6
259.522	620.8
259.906	610.2
260.29	623.2
260.675	612.4
261.059	611.6
261.443	603.4
261.828	615.2
262.212	616.2
262.597	603.4
262.981	612
263.366	622
263.751	620.2
264.136	602.4
264.521	616.2
264.906	604.6
265.291	623.2
265.676	607.4
266.061	614
266.446	633
266.831	619
267.217	627.8
267.602	622.8
267.987	620.6
268.373	613.8
268.759	628.2
269.144	622.2
269.53	614
269.916	609.8
270.302	615.2
270.688	617.8
271.074	612.8
271.46	628
271.846	640.4
272.232	616.8
272.618	611
273.004	616
273.391	624.2
273.777	627
274.164	617.6
274.55	627.6
274.937	615
275.324	614
275.71	621
276.097	624.8
276.484	601
276.871	619.4
277.258	610.6
277.645	602.6
278.032	607.8
278.419	602
278.807	621
279.194	609.8
279.581	615.4
279.969	617.6
280.356	612.8
280.744	617
281.131	635
281.519	623.2
281.907	617.2
282.295	620.2
282.682	624.2
283.07	617.2
283.458	623.8
283.846	638
284.235	624
284.623	627
285.011	612.4
285.399	624
285.788	610.2
286.176	604.6
286.565	631.6
286.953	614
287.342	608.2
287.731	612.2
288.119	614.6
288.508	619.4
288.897	615.6
289.286	601.6
289.675	618.4
290.064	618.8
290.453	610.8
290.821	618.8
291.21	639.2
291.599	610
291.989	616
292.378	620.6
292.768	631.8
293.157	626.6
293.547	620.4
293.936	614.2
294.326	610.8
294.716	617.4
295.106	613.8
295.496	624.8
295.886	627.2
296.276	616.2
296.666	617.4
297.056	612.8
297.446	610.6
297.836	633.4
298.227	614.4
298.617	619.8
299.008	628.6
299.398	610
299.789	620.4
300.179	623.4
300.57	626.6
300.961	606.8
301.352	608.2
301.742	626.6
302.133	620.8
302.524	617
302.915	614.4
303.307	607.8
303.698	623.4
304.089	630
304.48	616.6
304.872	621
305.263	618.4
305.655	615.4
306.046	620.6
306.438	610.6
306.829	607.4
307.221	626.8
307.613	618.6
308.005	624.4
308.397	627.4
308.789	631
309.181	640.6
309.573	626
309.965	626
310.357	610
310.749	617.8
311.142	617.2
311.534	613.8
311.926	616
312.319	604.4
312.711	607
313.104	627.2
313.497	613.6
313.889	651.2
314.282	632.8
314.675	640
315.068	618.4
315.461	619.4
315.854	648.6
316.247	620.8
316.64	621.4
317.033	621.8
317.405	624.8
317.798	616.4
318.192	624.2
318.585	609.8
318.979	629.4
319.372	604.4
319.766	614.8
320.16	621.6
320.553	633
320.947	635.8
321.341	609
321.735	616
322.129	604.8
322.523	635
322.917	611.2
323.311	618.2
323.705	620
324.099	618.8
324.494	634.8
324.888	626.6
325.282	614.2
325.677	631.4
326.071	623.2
326.466	634.4
326.861	626
327.255	626.6
327.65	636
328.045	640.8
328.44	627.2
328.835	627
329.23	613.4
329.625	644.2
330.02	613.8
330.415	636.2
330.81	626.2
331.206	625.2
331.601	622.6
331.996	624.4
332.37	637.2
332.766	605.4
333.161	637.6
333.557	607.2
333.953	614.6
334.348	1032
334.744	619.4
335.14	611.4
335.536	610.4
335.932	629.6
336.328	615.8
336.724	623.4
337.12	612.6
337.516	615.8
337.913	617.2
338.309	626
338.705	619.2
339.102	633.2
339.498	610.2
339.895	636.2
340.291	615.6
340.688	629.8
341.085	610.6
341.481	614
341.878	618.6
342.275	638.6
342.672	613.2
343.069	613.6
343.466	602.4
343.842	626.8
344.239	618.8
344.636	617.6
345.033	610.8
345.431	608.2
345.828	610.8
346.225	614
346.623	654
347.02	614
347.418	622.4
347.816	625.8
348.213	607.8
348.611	611.4
349.009	616.8
349.407	632.2
349.805	599.6
350.203	609
350.601	630.6
350.999	611.6
351.397	673.8
351.795	613.8
352.193	616.6
352.57	619.4
352.969	630.2
353.367	606.8
353.766	606.6
354.164	608.4
354.563	626
354.961	611.2
355.36	607
355.759	608.8
356.158	597.8
356.557	600.8
356.956	600.6
357.355	597
357.754	614.6
358.153	608.8
358.552	631.6
358.951	614.8
359.35	619.8
359.75	610.8
360.149	600.2
360.527	603.4
360.926	601.8
361.326	612.4
361.726	608.8
362.125	604.2
362.525	615.2
362.925	615.2
363.325	612.6
363.724	621.2
364.124	607.2
364.524	611.2
364.924	617.4
365.324	623.6
365.725	599
366.125	620.4
366.525	603.6
366.904	603.4
367.304	595.6
367.705	623
368.105	619.8
368.506	604.2
368.906	600.8
369.307	613.8
369.708	613
370.108	601
370.509	607.2
370.91	608.6
371.311	612
371.712	602.4
372.113	609.2
372.514	599.2
372.894	608.8
373.295	608.4
373.696	611
374.097	613.8
374.499	630.8
374.9	608.8
375.301	602
375.703	615.4
376.105	604.6
376.506	618
376.908	613.6
377.309	614.6
377.711	606.6
378.113	607.8
378.493	610.4
378.895	601.2
379.297	619.8
379.699	601.6
380.102	606.4
380.504	610.4
380.906	603.2
381.308	637
381.71	605.4
382.113	612.8
382.515	616.6
382.918	612
383.299	604.4
383.701	611.8
384.104	605.2
384.507	589
384.909	607.6
385.312	594.4
385.715	601.8
386.118	609.6
386.521	598.4
386.924	612.2
387.327	601
387.709	595.4
388.112	593.8
388.515	609.8
388.918	611.8
389.322	614.2
389.725	606
390.129	628.2
390.532	616.2
390.936	606.6
391.339	601.4
391.743	609.4
392.125	605
392.529	626.2
392.933	626.2
393.337	614.6
393.74	602.8
394.144	614.2
394.548	595
394.953	610.4
395.357	608
395.761	596.6
396.144	600.4
396.548	619.8
396.952	604.6
397.357	608
397.761	608.8
398.166	612.2
398.57	604
398.975	591.8
399.379	608.4
399.763	654.6
400.168	605.6
400.572	604.4
400.977	611.8
401.382	633.4
401.787	605.2
402.192	626
402.597	626.4
403.002	597.8
403.386	618.8
403.791	631.8
404.197	596
404.602	600.4
405.007	607.2
405.413	602.6
405.818	605.2
406.224	592.8
406.608	608.4
407.014	596.4
407.42	624.4
407.825	603
408.231	609.6
408.637	604.8
409.043	621
409.449	599.4
409.834	606
410.24	609.4
410.646	617.4
411.052	618.6
411.458	616.4
411.865	614.4
412.271	616
412.677	613.4
413.062	613.8
413.469	604.6
413.875	639.2
414.282	615.6
414.689	615.6
415.095	614.2
415.502	605.4
415.888	603.2
416.294	587
416.701	642.6
417.108	600.4
417.515	613.6
417.923	612
418.33	620.4
418.715	619.6
419.123	605.2
419.53	596.2
419.937	608.2
420.345	627.4
420.752	604.2
421.16	621.2
421.546	604.2
421.953	612
422.361	599.2
422.769	605.2
423.177	603.4
423.585	636
423.992	632.2
424.379	620.8
424.787	617
425.195	630.2
425.603	616.6
426.011	628
426.419	619
426.806	609
427.214	615.4
427.623	627.6
428.031	629.2
428.44	621.6
428.848	626.6
429.235	630.2
429.644	620.6
430.053	622.2
430.461	639.4
430.87	653.6
431.279	643.2
431.666	627.4
432.075	625.8
432.484	633.6
432.893	636
433.302	659.4
433.711	687.4
434.099	659.4
434.508	652.8
434.918	662.2
435.327	674.2
435.737	680.4
436.125	685
436.534	691.8
436.944	699
437.353	699.8
437.763	725
438.173	710.8
438.561	735.4
438.971	720.4
439.381	732.2
439.791	741
440.201	726.2
440.589	754.2
440.999	767.8
441.409	768
441.819	763.4
442.23	781.8
442.619	795.6
443.029	792.2
443.439	793.8
443.85	802.2
444.26	824
444.649	811.2
445.06	822.6
445.471	808
445.881	813.8
446.292	832.6
446.682	840.6
447.092	818.8
447.503	885.4
447.914	848.4
448.325	830.6
448.715	841.8
449.126	825.6
449.537	838.2
449.948	848
450.338	840.8
450.75	862.4
451.161	853.4
451.572	862.2
451.984	835.6
452.374	843.6
452.786	859.8
453.197	863.4
453.609	871
453.999	854.2
454.411	859.6
454.823	871.4
455.235	864.4
455.647	862.2
456.037	851.4
456.449	845.8
456.862	865.4
457.274	854.8
457.665	854.4
458.077	877.2
458.489	894.4
458.902	855.4
459.293	866
459.705	872.4
460.118	858.2
460.53	869.8
460.921	868.4
461.334	877.6
461.747	872
462.16	885.8
462.551	882.8
462.964	873
463.377	864.8
463.79	872.4
464.182	884.2
464.595	873.2
465.008	887
465.421	886
465.813	866.6
466.226	882.6
466.64	877.8
467.053	925.6
467.445	877.4
467.859	891.6
468.272	872
468.686	888.2
469.078	874.8
469.492	861.6
469.906	874.2
470.298	876.2
470.712	876.4
471.126	923.6
471.54	863.2
471.933	861.4
472.347	876.6
472.761	876.2
473.175	859
473.568	864.8
473.982	858.8
474.397	865.4
474.79	860.8
475.204	877.2
475.619	869.2
476.033	867
476.426	862.8
476.841	864.4
477.256	880
477.649	853.6
478.064	849
478.479	851
478.872	855.6
479.287	849.2
479.702	850.2
480.118	847.4
480.511	847.2
480.927	857.4
481.342	855.4
481.736	862
482.151	836.4
482.566	862.6
482.96	846.2
483.376	848
483.792	845.2
484.186	847.6
484.602	835.6
485.017	841.2
485.412	853.8
485.827	840.8
486.243	835.4
486.638	866.6
487.054	851.4
487.47	849.2
487.865	825
488.281	829.6
488.697	826.6
489.092	832
489.508	838.6
489.925	835.6
490.32	814.6
490.736	834.2
491.153	826.4
491.548	817.6
491.964	828.2
492.381	812.2
492.776	821.6
493.193	825
493.61	822.8
494.006	815.4
494.422	816.8
494.84	811.6
495.235	811
495.652	809
496.069	804.8
496.465	798
496.883	805.6
497.3	826
497.696	801
498.113	805.8
498.509	785.2
498.927	787.2
499.344	789.8
499.741	783.4
500.158	796.4
500.576	800.6
500.973	787.4
501.39	788
501.787	777.2
502.205	781.4
502.623	764
503.02	756
503.438	771
503.856	761
504.253	771
504.671	765.4
505.068	760.4
505.486	758.6
505.905	787.8
506.302	766.8
506.72	776.2
507.118	746.2
507.536	752.4
507.955	754.2
508.352	757.4
508.771	756
509.169	749.8
509.587	756.2
510.006	748.8
510.404	745.2
510.823	744.8
511.221	736.6
511.64	739.2
512.038	754.2
512.457	737
512.877	737
513.275	730.6
513.694	726.6
514.092	737.8
514.512	737.4
514.91	739.4
515.33	724.4
515.749	737.6
516.148	729.4
516.568	731.6
516.966	724.8
517.386	728.8
517.785	720.2
518.205	724.2
518.603	720
519.024	717.6
519.444	720.2
519.843	722.2
520.263	725.6
520.662	713.8
521.082	718
521.481	711.2
521.902	722
522.301	711.2
522.722	705.2
523.121	700.2
523.542	697.4
523.963	704.2
524.362	711.4
524.783	707.4
525.183	698.6
525.604	709.6
526.003	688.6
526.425	702.8
526.824	708.4
527.246	709
527.646	710.4
528.067	685.6
528.467	695.6
528.888	702.8
529.289	698
529.71	695
530.11	684.2
530.532	678.2
530.932	680.4
531.354	680
531.755	719.4
532.176	695
532.577	685
532.999	679
533.4	672.4
533.822	693.2
534.223	695.6
534.645	674.4
535.046	681
535.468	671.2
535.869	693.8
536.292	665
536.693	715.8
537.115	687
537.516	670.6
537.939	675.8
538.34	693.6
538.742	692.8
539.165	673.8
539.566	676.4
539.989	671.6
540.391	662.4
540.814	677.6
541.216	670.2
541.639	668.6
542.041	673
542.464	664.6
542.866	655.4
543.268	654.8
543.691	674.2
544.093	668.4
544.517	684
544.919	657
545.343	684.6
545.745	651.6
546.147	666.4
546.571	663.8
546.974	654.4
547.398	663
547.8	671.8
548.224	657.6
548.627	647.6
549.03	657.4
549.454	642.4
549.857	636.4
550.281	656
550.684	644.4
551.087	661.6
551.512	647.8
551.915	664.6
552.34	644.6
552.743	646.8
553.146	652.2
553.571	645
553.975	675.4
554.399	641.4
554.803	690
555.207	640
555.632	634.2
556.036	643.2
556.461	632
556.865	648.8
557.268	639.8
557.694	637.6
558.098	651.8
558.502	643.2
558.927	636.6
559.332	640.4
559.736	633.8
560.162	643.8
560.566	636.2
560.992	646.4
561.396	636
561.801	632.2
562.227	636.6
562.631	637.8
563.036	628.4
563.462	654.2
563.867	632
564.272	625.2
564.698	635.4
565.103	626.6
565.508	647.8
565.935	633
566.34	637.6
566.745	638.8
567.172	627.4
567.577	643.4
567.982	644.4
568.409	640.4
568.815	626.8
569.22	631
569.626	636.6
570.053	624
570.459	627.4
570.865	625.8
571.292	631.2
571.698	635.8
572.104	607.6
572.531	618.8
572.937	632.4
573.343	629.6
573.75	623.4
574.177	621.8
574.583	628
574.99	615.2
575.396	633.2
575.824	617
576.231	627
576.637	612.6
577.065	649.2
577.472	618.2
577.879	616.4
578.286	645
578.714	616.8
579.121	624.8
579.528	621.4
579.935	629.2
580.364	615.8
580.771	605.4
581.178	611
581.585	631.6
582.014	634
582.421	615.6
582.829	622
583.236	623
583.644	608.6
584.073	609.6
584.481	618.8
584.889	610.4
585.296	631.4
585.726	627
586.134	608.2
586.542	613.8
586.95	633
587.358	609.4
587.787	616.8
588.196	626.6
588.604	618.8
589.012	624.6
589.421	607.4
589.851	609
590.259	618.6
590.668	616.8
591.076	655
591.485	604.4
591.894	604.8
592.324	624
592.733	631.8
593.142	603.6
593.551	612
593.96	654.2
594.369	605.8
594.8	603.2
595.209	610.2
595.618	596.8
596.028	617.8
596.437	604.4
596.847	617.8
597.256	618.2
597.687	618.8
598.097	616.6
598.507	596
598.917	612.2
599.327	616.6
599.736	611
600.146	618.2
600.556	616.4
600.988	618.8
601.398	605
601.808	619.6
602.219	596.2
602.629	616
603.039	612.2
603.45	632.6
603.86	611.4
604.271	619
604.703	604.4
605.114	615.8
605.525	614
605.935	621
606.346	638
606.757	613.4
607.168	607.6
607.579	598.4
607.99	614.2
608.402	603.6
608.813	617.6
609.224	609
609.636	592
610.047	604.2
610.48	612.2
610.892	617.4
611.303	624.8
611.715	598
612.127	601
612.539	608.4
612.95	613.8
613.362	601.2
613.774	604.4
614.186	600
614.599	612.6
615.011	620.2
615.423	607
615.835	607.6
616.248	609.6
616.66	619
617.073	607.8
617.485	614
617.898	619
618.311	611
618.723	610
619.136	640.4
619.549	633.6
619.962	635.6
620.375	613.2
620.788	616.2
621.201	621
621.614	626.8
622.028	609.6
622.441	617.8
622.854	628.6
623.268	615.2
623.681	625.6
624.095	623.8
624.509	622.4
624.922	624.8
625.336	613
625.728	623.2
626.142	628.6
626.556	632.2
626.97	631
627.384	611.6
627.799	614.4
628.213	621
628.627	609.6
629.041	615
629.456	611
629.87	618
630.285	630.4
630.699	626
631.093	617.4
631.507	622.4
631.922	616.2
632.337	626.6
632.752	606.2
633.167	613.6
633.582	609
633.997	616
634.412	608
634.806	620.2
635.221	603.8
635.637	619.6
636.052	601.6
636.468	619
636.883	636.8
637.299	611
637.715	602
638.109	617
638.525	603.2
638.941	620.8
639.357	617
639.773	612
640.189	608.4
640.584	608.2
641	613.4
641.416	605
641.832	604.8
642.249	609
642.665	613.6
643.06	612.8
643.477	621.6
643.894	595.2
644.31	610.4
644.727	613.4
645.123	613
645.54	606.4
645.957	608.8
646.374	617.8
646.77	606.4
647.187	635.6
647.604	600
648.021	585.8
648.439	600.6
648.835	609
649.252	606
649.67	608
650.088	605.4
650.484	606.4
650.902	610.4
651.32	614.8
651.738	601
652.134	605.4
652.552	616.4
652.971	607.6
653.389	599
653.786	614
654.204	619.6
654.622	600.2
655.019	607.6
655.438	606
655.857	602.4
656.275	606
656.673	598.6
657.091	612.2
657.51	591.4
657.908	606.2
658.327	621.6
658.746	592.6
659.144	602.6
659.563	611
659.982	604.2
660.38	597
660.8	607.8
661.219	609.8
661.617	600.4
662.037	606.6
662.457	620
662.855	587
663.275	632
663.695	609.4
664.094	597.2
664.514	602.8
664.934	596.8
665.333	603.6
665.753	593.6
666.152	588
666.572	592.8
666.993	610.8
667.392	596.6
667.812	592
668.212	600.6
668.632	616.2
669.053	594.4
669.453	605.6
669.874	610
670.273	598.8
670.694	583.2
671.116	605.6
671.515	605.2
671.937	597
672.337	596.6
672.758	596
673.158	607.4
673.58	594.2
673.98	602
674.402	616.4
674.824	595.2
675.224	592.8
675.646	587.6
676.047	592.6
676.469	592.8
676.869	606
677.292	600.6
677.693	594.4
678.115	595.4
678.516	600.6
678.939	592.6
679.34	597.8
679.762	603.4
680.164	600
680.586	582.4
680.988	594.4
681.411	616.8
681.812	591.4
682.236	594.6
682.637	581.8
683.061	588.4
683.462	594
683.864	602
684.288	614
684.69	593.6
685.114	602
685.516	600.4
685.94	589.6
686.342	596
686.766	582.8
687.168	584.4
687.571	612.6
687.995	597.4
688.398	589
688.822	595.4
689.225	613.8
689.628	607.2
690.052	595.8
690.456	596.4
690.88	599.4
691.284	583.2
691.687	601.2
692.112	583.6
692.515	583
692.919	592.2
693.344	592.2
693.747	587.6
694.173	585.6
694.577	598.6
694.98	587.4
695.406	588.8
695.81	599.2
696.214	591
696.64	590.8
697.044	587.8
697.448	593.2
697.874	586.2
698.279	589.8
698.684	574.4
699.11	577.6
699.514	586.6
699.919	589
700.324	573.6
700.75	588.6
701.156	586.6
701.561	593.8
701.987	594.2
702.393	600.8
702.798	593
703.203	581
703.63	578.8
704.036	578
704.442	592
704.847	578.8
705.274	590.2
705.68	587.8
706.086	594.4
706.492	571.8
706.92	580.6
707.326	595.6
707.732	587.2
708.139	581.4
708.545	577
708.973	588.4
709.38	585.8
709.786	577.2
710.193	610.6
710.6	589.8
711.028	575.8
711.435	587.4
711.842	594.4
712.249	578.6
712.656	584.6
713.064	599.4
713.492	588.6
713.9	585
714.307	591
714.715	589
715.123	590.8
715.53	587.2
715.938	589
716.367	584.2
716.775	589.6
717.184	584.8
717.592	583.8
718	601.8
718.408	618.2
718.816	624.4
719.225	593
719.633	591.2
720.042	584.8
720.472	591.6
720.881	610.6
721.29	598.8
721.699	574.8
722.108	592.4
722.517	584
722.926	584.6
723.335	595.2
723.744	593.8
724.154	581.4
724.563	587.4
724.973	590.2
725.382	593
725.792	585.8
726.202	587.4
726.612	611.2
727.022	581.4
727.432	589.4
779.813	579
780.223	633.8
780.634	586.8
781.044	585.8
781.454	588.4
781.865	597.4
782.276	579.8
782.686	592
783.097	586.6
783.508	586.8
783.919	589.6
784.33	604.2
784.741	596.8
785.152	583.6
785.563	573.8
785.974	586.8
786.386	596.8
786.776	585
787.188	586
787.599	588.4
788.011	593.8
788.423	592.2
788.835	585.4
789.247	576.2
789.659	580.6
790.071	586.2
790.483	627.4
790.874	586
791.286	589.6
791.699	576.6
792.111	586.2
792.524	595.4
792.937	581.8
793.349	582
793.741	581.4
794.154	581.6
794.567	602.6
794.98	581.4
795.393	571.6
795.785	602.6
796.198	579.6
796.612	585.4
797.026	579.8
797.439	572.8
797.831	583.8
798.245	575
798.659	575.4
799.073	583.4
799.487	572.4
799.88	581.4
800.294	597.4
800.708	596.6
801.123	586.6
801.516	609.2
801.93	576.6
802.345	572.6
802.76	579.4
803.153	603.8
803.568	600.2
803.983	595.4
804.377	587.4
804.792	573.8
805.207	576
805.601	586
806.016	613.6
806.432	582
806.826	607.4
807.242	587.2
807.658	590.6
808.052	580.6
808.468	570.8
808.884	568.8
809.279	584.2
809.695	595.8
810.111	605.6
810.506	589.2
810.922	604.8
811.339	574.4
811.734	592.8
812.151	584.6
812.546	576.2
812.963	586.8
813.38	587.8
813.776	587.6
814.193	605
814.589	580.8
815.006	582
815.402	581.8
815.82	582.2
816.237	582.2
816.633	592
817.051	581
817.448	587.4
817.866	577
818.262	599.2
818.68	579.8
819.077	591.2
819.495	581.4
819.892	616.2
820.311	584.6
820.708	580.8
821.127	576.8
821.524	596.2
821.943	590.6
822.34	607
822.759	586.2
823.157	591.2
823.576	589.6
823.974	589.8
824.393	604.6
824.791	571.8
825.189	580.2
825.609	585.2
826.007	586
826.427	572.4
826.826	585.6
827.246	594.4
827.644	573.4
828.043	593.2
828.463	586
828.862	593.2
829.261	589.4
829.682	576.4
830.081	589.8
830.502	567
830.901	581
831.301	599.6
831.722	577.2
832.121	585.6
832.521	580.4
832.943	586.6
833.342	579.8
833.742	573.6
834.164	569
834.564	576.2
834.965	585
835.386	577
835.787	577
836.188	577.8
836.588	579.2
837.01	584.8
837.411	574.2
837.812	585.6
838.213	584.8
838.636	570.4
839.037	652
839.438	589.4
839.84	584.2
840.263	583.4
840.664	589.8
841.066	581.2
841.468	579.6
841.891	584
842.293	599.6
842.695	587
843.098	596.6
843.5	585
843.902	585.2
844.326	587.8
844.729	581.4
845.131	584.6
845.534	575.2
845.937	590.8
846.34	601.4
846.764	581.8
847.167	576.2
847.571	572.4
847.974	574
848.377	577
848.781	619
849.184	577.6
849.588	586.6
849.992	571.8
850.396	585.2
850.821	593.2
851.225	581.2
851.63	569.8
852.034	588.2
852.438	576.6
852.843	642
853.247	566.8
853.652	576.4
854.057	593.4
854.462	585.6
854.867	587.4
855.272	606.4
855.677	585.6
856.082	575
856.487	568
856.893	585.4
857.298	577.8
