#lambda/nm	C1
208.295	508.4
208.67	458.4
209.045	427
209.419	434.2
209.794	613.4
210.169	595.2
210.544	717
210.919	611.8
211.295	602.8
211.67	610.2
212.045	612.6
212.421	607.8
212.796	650.2
213.172	606.8
213.547	610.2
213.923	608
214.299	610
214.675	614.8
215.051	624.6
215.427	616
215.803	631.2
216.179	617
216.555	608.8
216.932	617.8
217.308	615.2
217.684	611.8
218.061	616
218.438	614
218.814	611
219.191	620.8
219.568	611.2
219.945	621.4
220.322	625.2
220.699	621
221.076	627.8
221.453	623.4
221.83	605.8
222.208	617
222.585	612
222.962	619.2
223.34	624.4
223.717	628
224.095	615.2
224.473	617.6
224.851	607.8
225.229	598.2
225.607	626.8
225.985	611.8
226.363	614.2
226.741	622.4
227.119	614.8
227.497	630.2
227.876	610
228.254	609.4
228.633	627.6
229.011	621
229.39	626.8
229.769	628
230.148	626.4
230.527	640.6
230.905	624.8
231.284	629
231.664	614.8
232.043	633.6
232.422	627
232.801	618.6
233.181	625.6
233.56	623
233.94	614.8
234.319	599
234.699	616.8
235.079	663
235.458	657
235.838	633.2
236.218	608.2
236.598	605
236.978	612
237.358	612.8
237.738	609.4
238.119	630.8
238.499	603.2
238.88	617.2
239.26	639.6
239.641	609
240.021	619.4
240.402	615.8
240.783	621.2
241.163	624.2
241.544	623.6
241.925	617.6
242.306	633
242.687	629.2
243.069	618.4
243.45	625.8
243.831	607
244.212	618.4
244.594	657.6
244.975	622.4
245.357	623.6
245.739	610.4
246.12	616.2
246.502	623.8
246.884	606.2
247.266	629.6
247.648	622.4
248.03	643.8
248.412	620.2
248.794	612.4
249.176	616.6
249.559	625.4
249.941	608.4
250.323	602.4
250.706	614.2
251.089	621.2
251.471	620
251.854	620
252.237	609.8
252.62	633.8
253.002	611.2
253.385	620.2
253.769	623.2
254.152	613.4
254.535	624.4
254.918	606.4
255.301	603.2
255.685	614.8
256.068	609.2
256.452	638.8
256.835	619
257.219	623.2
257.603	619.4
257.986	612
258.37	623.8
258.754	608.8
259.138	623.8
259.522	623.6
259.906	605.6
260.29	615.4
260.675	612.2
261.059	614.6
261.443	603.4
261.828	607.4
262.212	617.8
262.597	610.4
262.981	606.8
263.366	620
263.751	611.2
264.136	614
264.521	610.4
264.906	605.6
265.291	623.6
265.676	615.4
266.061	621
266.446	637
266.831	613.2
267.217	638.8
267.602	619.2
267.987	621.2
268.373	613.4
268.759	627.6
269.144	618.6
269.53	611.2
269.916	617.2
270.302	609.8
270.688	622.6
271.074	620.2
271.46	629.8
271.846	645.2
272.232	619.4
272.618	611.4
273.004	611.6
273.391	628.4
273.777	639
274.164	622
274.55	636.8
274.937	625.4
275.324	609.6
275.71	617
276.097	620.4
276.484	609.6
276.871	620.8
277.258	626.4
277.645	607.2
278.032	615.4
278.419	611.8
278.807	620.8
279.194	606
279.581	612.6
279.969	619.6
280.356	617.4
280.744	625.6
281.131	646.6
281.519	627.4
281.907	608.4
282.295	614.4
282.682	623.8
283.07	624
283.458	625
283.846	628.8
284.235	631.4
284.623	630
285.011	610.2
285.399	627.2
285.788	613.4
286.176	612.2
286.565	626.8
286.953	608
287.342	613.8
287.731	609.8
288.119	610
288.508	611.2
288.897	612
289.286	607.8
289.675	617.6
290.064	625.4
290.453	619.6
290.821	619
291.21	629.4
291.599	613.6
291.989	623.8
292.378	616.6
292.768	642.6
293.157	623.6
293.547	624.8
293.936	621
294.326	610.4
294.716	621.6
295.106	610.2
295.496	625
295.886	626
296.276	617.6
296.666	603.2
297.056	608.8
297.446	608.4
297.836	637.2
298.227	616
298.617	627.6
299.008	633.8
299.398	610.6
299.789	606.2
300.179	622.4
300.57	635.6
300.961	610
301.352	620.8
301.742	625.6
302.133	624.6
302.524	614.2
302.915	618.2
303.307	608
303.698	633.2
304.089	623.8
304.48	616.8
304.872	621.4
305.263	620.4
305.655	611.6
306.046	623.4
306.438	617.8
306.829	610.6
307.221	629.4
307.613	625.4
308.005	627.8
308.397	624
308.789	639.8
309.181	635.4
309.573	635
309.965	625.8
310.357	617.4
310.749	628.4
311.142	601.4
311.534	605.2
311.926	613.2
312.319	610
312.711	608.8
313.104	623.8
313.497	609.6
313.889	654.2
314.282	636.8
314.675	637.6
315.068	623.4
315.461	626.6
315.854	655
316.247	617
316.64	621
317.033	613.2
317.405	620.8
317.798	623.4
318.192	627
318.585	614.8
318.979	614.6
319.372	613.8
319.766	621.4
320.16	627
320.553	630.2
320.947	642.6
321.341	617.4
321.735	615.4
322.129	608
322.523	642.6
322.917	608.8
323.311	638
323.705	623.2
324.099	614.4
324.494	621.2
324.888	629.2
325.282	628
325.677	635
326.071	639.8
326.466	630.6
326.861	617.6
327.255	634.2
327.65	628.6
328.045	633
328.44	620
328.835	621.2
329.23	612
329.625	643
330.02	614.2
330.415	641.8
330.81	622.2
331.206	619.2
331.601	630.8
331.996	635
332.37	646.8
332.766	605.6
333.161	640.8
333.557	614.2
333.953	614
334.348	908.6
334.744	624
335.14	615.6
335.536	618.4
335.932	633.6
336.328	617
336.724	621.2
337.12	618.6
337.516	621.8
337.913	608.2
338.309	634
338.705	614.4
339.102	625.2
339.498	615.2
339.895	634.4
340.291	611.2
340.688	630.6
341.085	612.2
341.481	618.6
341.878	618.8
342.275	643.4
342.672	609.4
343.069	605.4
343.466	600.6
343.842	634.4
344.239	610.4
344.636	616.2
345.033	606.8
345.431	608.4
345.828	621
346.225	619
346.623	650.8
347.02	617
347.418	627.6
347.816	632
348.213	611
348.611	622
349.009	611.4
349.407	623.8
349.805	603
350.203	610.2
350.601	627.2
350.999	614.2
351.397	673
351.795	609.6
352.193	619.6
352.57	624.2
352.969	625.8
353.367	601
353.766	603.8
354.164	605
354.563	621.4
354.961	618.8
355.36	607.6
355.759	618.8
356.158	607.2
356.557	599.2
356.956	603.6
357.355	612
357.754	619.2
358.153	610.6
358.552	635.4
358.951	615.2
359.35	630.6
359.75	607.2
360.149	600.6
360.527	593.6
360.926	603.2
361.326	615
361.726	614.4
362.125	605.8
362.525	615.8
362.925	610.8
363.325	609.4
363.724	617
364.124	608.2
364.524	597.8
364.924	606.2
365.324	615.6
365.725	606.4
366.125	613.6
366.525	605
366.904	607.6
367.304	598.6
367.705	636.8
368.105	629.4
368.506	613.2
368.906	612.4
369.307	614.2
369.708	618
370.108	594.6
370.509	618
370.91	608
371.311	612.6
371.712	615.8
372.113	612.6
372.514	597.8
372.894	610
373.295	602.6
373.696	627.2
374.097	626.6
374.499	646.2
374.9	608.2
375.301	602.2
375.703	613.2
376.105	597.6
376.506	607.4
376.908	616.6
377.309	609
377.711	607.4
378.113	604.6
378.493	613.2
378.895	596.8
379.297	624
379.699	596.4
380.102	612.6
380.504	612.4
380.906	611.6
381.308	630
381.71	607.2
382.113	617.6
382.515	609
382.918	618.4
383.299	608.6
383.701	612.8
384.104	612.8
384.507	592.4
384.909	609.8
385.312	601
385.715	602.4
386.118	611.2
386.521	600.8
386.924	623.4
387.327	601.6
387.709	588.4
388.112	595
388.515	609.6
388.918	607
389.322	608.4
389.725	606
390.129	627.4
390.532	611.6
390.936	602.2
391.339	605
391.743	625.2
392.125	604.2
392.529	618.6
392.933	620.4
393.337	607.4
393.74	609
394.144	613.8
394.548	597
394.953	608.8
395.357	619
395.761	604.6
396.144	608.8
396.548	606.8
396.952	618.6
397.357	614.6
397.761	607.4
398.166	606.2
398.57	610
398.975	603.4
399.379	614.2
399.763	656
400.168	605.8
400.572	614.2
400.977	608.6
401.382	637.8
401.787	616.8
402.192	634.2
402.597	618.4
403.002	601.8
403.386	622.6
403.791	618.6
404.197	604
404.602	611.6
405.007	604.6
405.413	608
405.818	607
406.224	598
406.608	608.4
407.014	596.8
407.42	620.8
407.825	602.4
408.231	611.8
408.637	608.4
409.043	617.8
409.449	602
409.834	596
410.24	605.4
410.646	621
411.052	619.2
411.458	616.2
411.865	611.4
412.271	621
412.677	623
413.062	613.6
413.469	591.6
413.875	630
414.282	624.4
414.689	607.2
415.095	607.4
415.502	612.2
415.888	604.8
416.294	602.8
416.701	652.8
417.108	604.6
417.515	613.8
417.923	605
418.33	633.2
418.715	616.4
419.123	615
419.53	611.2
419.937	612.8
420.345	633.2
420.752	607.4
421.16	618
421.546	616.8
421.953	619.4
422.361	605.4
422.769	609.8
423.177	607.2
423.585	630.2
423.992	629.6
424.379	630.6
424.787	628
425.195	638.6
425.603	609.6
426.011	626.6
426.419	620.4
426.806	620.2
427.214	620.4
427.623	614.4
428.031	631.8
428.44	612.6
428.848	630.2
429.235	626.8
429.644	619.8
430.053	608.8
430.461	632.6
430.87	647.2
431.279	625.8
431.666	623.6
432.075	624.8
432.484	630.2
432.893	624.4
433.302	653.2
433.711	679.6
434.099	643.4
434.508	643
434.918	641.2
435.327	658
435.737	662.2
436.125	672
436.534	675.6
436.944	679.6
437.353	687.6
437.763	706.4
438.173	690.8
438.561	712
438.971	696.6
439.381	725.2
439.791	743
440.201	704.2
440.589	740.6
440.999	755.8
441.409	763
441.819	754.6
442.23	776.2
442.619	772
443.029	778.6
443.439	775
443.85	792
444.26	799.6
444.649	806
445.06	786
445.471	800.8
445.881	806.6
446.292	829.2
446.682	834.2
447.092	797.4
447.503	870
447.914	826.4
448.325	824.4
448.715	827
449.126	831.4
449.537	825.4
449.948	840.8
450.338	845.8
450.75	848.6
451.161	851.8
451.572	846.4
451.984	833.6
452.374	837.8
452.786	846.6
453.197	858.4
453.609	862.2
453.999	837.8
454.411	849.6
454.823	867.8
455.235	866
455.647	848.2
456.037	864.2
456.449	855.4
456.862	857.8
457.274	858.6
457.665	859.8
458.077	865
458.489	894
458.902	851
459.293	862.6
459.705	866.8
460.118	865.6
460.53	884.2
460.921	880
461.334	886.4
461.747	876.4
462.16	886.2
462.551	883.4
462.964	877.8
463.377	865.2
463.79	873.6
464.182	886.8
464.595	868.2
465.008	885
465.421	890.6
465.813	892.8
466.226	897.6
466.64	891.6
467.053	944.8
467.445	896.4
467.859	907.4
468.272	900.4
468.686	895.6
469.078	892.8
469.492	880
469.906	901
470.298	896.2
470.712	889.4
471.126	948.8
471.54	870.6
471.933	885.6
472.347	900.2
472.761	894.4
473.175	878.4
473.568	888.4
473.982	880.4
474.397	896
474.79	890.2
475.204	895
475.619	887.4
476.033	882
476.426	878
476.841	877.8
477.256	892.4
477.649	877.8
478.064	869
478.479	876.4
478.872	865.8
479.287	855
479.702	874
480.118	871.6
480.511	873.6
480.927	878.2
481.342	863
481.736	869.2
482.151	872.6
482.566	873.8
482.96	862.2
483.376	867.8
483.792	857.6
484.186	867
484.602	861.8
485.017	856.2
485.412	865.6
485.827	862
486.243	854.4
486.638	878.4
487.054	859.4
487.47	876.4
487.865	847.4
488.281	846.4
488.697	839
489.092	850.2
489.508	842.4
489.925	857.8
490.32	839.4
490.736	853.4
491.153	837.4
491.548	840.8
491.964	842.8
492.381	821.2
492.776	833.2
493.193	830.6
493.61	846.2
494.006	836.4
494.422	833.8
494.84	816.4
495.235	828.2
495.652	823.6
496.069	813.2
496.465	801
496.883	810
497.3	841.8
497.696	803.4
498.113	826.6
498.509	805.4
498.927	791.8
499.344	797
499.741	797.8
500.158	807.8
500.576	811
500.973	798.6
501.39	784
501.787	799.6
502.205	789.8
502.623	776.8
503.02	773.2
503.438	779.6
503.856	782.6
504.253	795.4
504.671	793
505.068	775.4
505.486	782
505.905	796
506.302	776
506.72	783.8
507.118	758.8
507.536	781.4
507.955	754.8
508.352	778
508.771	787
509.169	769.6
509.587	759.2
510.006	761
510.404	756.6
510.823	756.8
511.221	752.2
511.64	763.8
512.038	766.2
512.457	753.4
512.877	761.2
513.275	752
513.694	746.4
514.092	747.4
514.512	748.6
514.91	759.8
515.33	756
515.749	733.4
516.148	739.6
516.568	739.4
516.966	737.2
517.386	723.8
517.785	724.8
518.205	730.6
518.603	728.6
519.024	725.2
519.444	726.8
519.843	746.6
520.263	738.4
520.662	731.8
521.082	716.8
521.481	724.4
521.902	727.6
522.301	728.8
522.722	722.2
523.121	722.4
523.542	712.2
523.963	714.4
524.362	717.6
524.783	720.8
525.183	716
525.604	718.6
526.003	709
526.425	693.2
526.824	710.6
527.246	712
527.646	718
528.067	703.8
528.467	698.2
528.888	713
529.289	701
529.71	699.8
530.11	695.4
530.532	698.2
530.932	682.4
531.354	684.4
531.755	724.6
532.176	702
532.577	683.8
532.999	694.6
533.4	692.6
533.822	700.6
534.223	701
534.645	684.6
535.046	680.2
535.468	691.6
535.869	710.8
536.292	675.6
536.693	713.6
537.115	679
537.516	690
537.939	681.4
538.34	707.2
538.742	684.8
539.165	681
539.566	684.8
539.989	670
540.391	676.2
540.814	681.6
541.216	676.6
541.639	673
542.041	684.4
542.464	672.6
542.866	656.8
543.268	662.2
543.691	677.4
544.093	667.8
544.517	686.4
544.919	655.4
545.343	685.8
545.745	656.6
546.147	669.2
546.571	660.4
546.974	652.8
547.398	663.8
547.8	671.8
548.224	650.4
548.627	656.4
549.03	668.2
549.454	664.4
549.857	641.8
550.281	648.8
550.684	645.2
551.087	666
551.512	655.2
551.915	653
552.34	650.8
552.743	646.6
553.146	657.8
553.571	655
553.975	682.8
554.399	640.6
554.803	693
555.207	641.6
555.632	644
556.036	655
556.461	640.8
556.865	648
557.268	640
557.694	648.8
558.098	648
558.502	651.8
558.927	643.8
559.332	643
559.736	638.6
560.162	654.6
560.566	640.2
560.992	647.6
561.396	648
561.801	634.4
562.227	639
562.631	641.8
563.036	644
563.462	642.6
563.867	634.8
564.272	628
564.698	644.2
565.103	629.4
565.508	656.8
565.935	629.4
566.34	631.2
566.745	643.4
567.172	633.6
567.577	646.2
567.982	646.2
568.409	636
568.815	631.6
569.22	632.4
569.626	640.4
570.053	620.4
570.459	631.8
570.865	635.4
571.292	636.2
571.698	630.6
572.104	614.4
572.531	623
572.937	639.2
573.343	625.2
573.75	619
574.177	630.4
574.583	629.6
574.99	622.8
575.396	621
575.824	623.6
576.231	641.2
576.637	616.2
577.065	647
577.472	619.8
577.879	623
578.286	630.6
578.714	619.6
579.121	620
579.528	620.6
579.935	627.4
580.364	626.6
580.771	607.2
581.178	609.2
581.585	620.2
582.014	628
582.421	617.4
582.829	613.4
583.236	618.2
583.644	613.4
584.073	607.2
584.481	632.6
584.889	612.8
585.296	628.6
585.726	614
586.134	605.2
586.542	611.8
586.95	628.6
587.358	609.4
587.787	620.2
588.196	616.2
588.604	604.6
589.012	617.2
589.421	607.6
589.851	609.6
590.259	617.2
590.668	612.8
591.076	646.2
591.485	600.2
591.894	611.4
592.324	632.2
592.733	624.8
593.142	610.6
593.551	609.6
593.96	644.2
594.369	603.2
594.8	614.6
595.209	610.6
595.618	592.2
596.028	600
596.437	605.6
596.847	603.4
597.256	610.2
597.687	614
598.097	599
598.507	595.8
598.917	601.2
599.327	605
599.736	602.8
600.146	610.6
600.556	605
600.988	607.2
601.398	600
601.808	603.4
602.219	585.6
602.629	604.8
603.039	606.8
603.45	625.8
603.86	597.2
604.271	621.2
604.703	603.2
605.114	600
605.525	600.4
605.935	603.2
606.346	620
606.757	601.4
607.168	604.2
607.579	597.6
607.99	620
608.402	603.8
608.813	607.8
609.224	595.8
609.636	596.4
610.047	608
610.48	605.4
610.892	614.4
611.303	610.2
611.715	600.2
612.127	592.2
612.539	603.4
612.95	595.2
613.362	593.4
613.774	591.4
614.186	593.2
614.599	601
615.011	608.2
615.423	596
615.835	603.2
616.248	588.2
616.66	604.4
617.073	595.4
617.485	607.4
617.898	610.2
618.311	607
618.723	596.2
619.136	627.4
619.549	615.2
619.962	624.2
620.375	591.4
620.788	603.4
621.201	595.6
621.614	605.6
622.028	594.8
622.441	603.8
622.854	611.8
623.268	597.4
623.681	595.4
624.095	595
624.509	610.2
624.922	610
625.336	594.2
625.728	602
626.142	605.4
626.556	617
626.97	604.6
627.384	598
627.799	601
628.213	609.4
628.627	605
629.041	595.8
629.456	598
629.87	600.2
630.285	606.8
630.699	600
631.093	595.2
631.507	596.2
631.922	595.4
632.337	614.6
632.752	596.8
633.167	596.8
633.582	601.4
633.997	597.2
634.412	598.8
634.806	605.2
635.221	582.4
635.637	607.4
636.052	589
636.468	596
636.883	625.8
637.299	605.4
637.715	584.4
638.109	599
638.525	585.8
638.941	609.6
639.357	596.6
639.773	607.4
640.189	588.4
640.584	593.2
641	590.2
641.416	575.4
641.832	591.4
642.249	586
642.665	598.8
643.06	593.8
643.477	599.6
643.894	578.2
644.31	593.2
644.727	591.4
645.123	590.8
645.54	576
645.957	598.6
646.374	606.2
646.77	596.8
647.187	634
647.604	587.6
648.021	583
648.439	590.2
648.835	598.6
649.252	595.8
649.67	589.4
650.088	596.8
650.484	591
650.902	597.8
651.32	598.4
651.738	585.2
652.134	600.8
652.552	610
652.971	598.6
653.389	592
653.786	605
654.204	612.8
654.622	589.2
655.019	589.6
655.438	596.8
655.857	604.2
656.275	599
656.673	594.6
657.091	597.8
657.51	589.8
657.908	603
658.327	608.8
658.746	587
659.144	585.8
659.563	607.8
659.982	601.4
660.38	590.2
660.8	593
661.219	601.2
661.617	597.6
662.037	596.4
662.457	608.8
662.855	576.2
663.275	630
663.695	586.4
664.094	596.2
664.514	589.6
664.934	585.2
665.333	599.8
665.753	591
666.152	591
666.572	586.4
666.993	611.2
667.392	596
667.812	583.8
668.212	596.2
668.632	605.4
669.053	591.2
669.453	597.6
669.874	605
670.273	601
670.694	581.8
671.116	608.2
671.515	597.8
671.937	589.4
672.337	583.6
672.758	601
673.158	606.8
673.58	587.6
673.98	591.8
674.402	606.6
674.824	588.6
675.224	584
675.646	580
676.047	593.2
676.469	595.6
676.869	590
677.292	595
677.693	588.4
678.115	574.4
678.516	598.6
678.939	600.2
679.34	590.4
679.762	609.8
680.164	594
680.586	590
680.988	602.4
681.411	612.6
681.812	591.4
682.236	584
682.637	579.6
683.061	585
683.462	596.8
683.864	585.8
684.288	592.8
684.69	587.8
685.114	597.8
685.516	604.2
685.94	592.8
686.342	599.8
686.766	585.2
687.168	587
687.571	609.2
687.995	596.4
688.398	581
688.822	581
689.225	611.2
689.628	611.2
690.052	581.4
690.456	595
690.88	590.6
691.284	583.4
691.687	592.4
692.112	585.2
692.515	583.4
692.919	586.6
693.344	591.4
693.747	585.8
694.173	580.8
694.577	604.6
694.98	584
695.406	585.2
695.81	586.2
696.214	592.4
696.64	583.8
697.044	582.6
697.448	595.4
697.874	585.6
698.279	583.2
698.684	579.2
699.11	585.6
699.514	587.4
699.919	583
700.324	580.6
700.75	584.4
701.156	586.8
701.561	598.4
701.987	589
702.393	593.8
702.798	605.2
703.203	583
703.63	588.8
704.036	589.4
704.442	592.4
704.847	576.8
705.274	577.8
705.68	584.6
706.086	596.4
706.492	586.4
706.92	592.8
707.326	595
707.732	586.4
708.139	586.6
708.545	585.2
708.973	580
709.38	588.2
709.786	583.2
710.193	604.8
710.6	591
711.028	582
711.435	582.8
711.842	587.8
712.249	585.2
712.656	581.8
713.064	603.2
713.492	583.8
713.9	583.8
714.307	602
714.715	583.6
715.123	594
715.53	596.6
715.938	601.2
716.367	586.8
716.775	584.4
717.184	583
717.592	590.6
718	596
718.408	623.6
718.816	624.6
719.225	591.8
719.633	587.2
720.042	573.8
720.472	579.2
720.881	602.6
721.29	595.6
721.699	582.4
722.108	595.2
722.517	596.8
722.926	593.4
723.335	594.2
723.744	580
724.154	584.6
724.563	590.8
724.973	595
725.382	583.2
725.792	583.4
726.202	583.8
726.612	612.4
727.022	586.8
727.432	576.2
779.813	584
780.223	623
780.634	592.4
781.044	581.4
781.454	584.6
781.865	601.4
782.276	586.8
782.686	589.2
783.097	582.4
783.508	585.8
783.919	593.4
784.33	601.6
784.741	595.8
785.152	582.6
785.563	574.4
785.974	578
786.386	594
786.776	585
787.188	593.2
787.599	578.2
788.011	595.4
788.423	584.8
788.835	584.4
789.247	572.8
789.659	579.8
790.071	569
790.483	616.4
790.874	575
791.286	594.8
791.699	584.6
792.111	582.6
792.524	577.6
792.937	572.6
793.349	579.4
793.741	570.6
794.154	576.8
794.567	602.2
794.98	590.6
795.393	573.6
795.785	601.2
796.198	578.4
796.612	580.4
797.026	581
797.439	562.4
797.831	581.6
798.245	575
798.659	579
799.073	575.8
799.487	576.4
799.88	582.8
800.294	586.4
800.708	586.6
801.123	590.4
801.516	603
801.93	574.6
802.345	577.4
802.76	576
803.153	602.6
803.568	600.6
803.983	592.8
804.377	595.4
804.792	577
805.207	570.6
805.601	590
806.016	615
806.432	577.8
806.826	612.8
807.242	609
807.658	592.6
808.052	591.6
808.468	585.8
808.884	581.2
809.279	583
809.695	602.4
810.111	606.8
810.506	590.2
810.922	604
811.339	581.6
811.734	597.2
812.151	578.6
812.546	587
812.963	579.2
813.38	592.2
813.776	585.4
814.193	606
814.589	573
815.006	583.4
815.402	585.8
815.82	589.8
816.237	584
816.633	591.8
817.051	580.2
817.448	597.2
817.866	578.4
818.262	602
818.68	579.2
819.077	581.2
819.495	589.8
819.892	628.4
820.311	587.6
820.708	587.8
821.127	574.8
821.524	602.8
821.943	599
822.34	596.2
822.759	590.8
823.157	585.6
823.576	596.4
823.974	587.2
824.393	612.4
824.791	588.4
825.189	578
825.609	578.6
826.007	581.6
826.427	577.4
826.826	582.6
827.246	580.2
827.644	578
828.043	594.8
828.463	583.6
828.862	586.6
829.261	599
829.682	580.8
830.081	588.4
830.502	580.8
830.901	592.2
831.301	602.2
831.722	573.6
832.121	586
832.521	582.4
832.943	582.6
833.342	580.6
833.742	577.4
834.164	584.6
834.564	576.2
834.965	583.8
835.386	584
835.787	583.2
836.188	575.4
836.588	579.4
837.01	592
837.411	574.2
837.812	585.8
838.213	596.8
838.636	574.2
839.037	650.2
839.438	581
839.84	580.8
840.263	578.2
840.664	582.2
841.066	578.6
841.468	582.2
841.891	567.6
842.293	597.8
842.695	587.4
843.098	581.8
843.5	580.6
843.902	579.6
844.326	576.8
844.729	580.4
845.131	591.2
845.534	575
845.937	589.8
846.34	594.4
846.764	578.8
847.167	585
847.571	574.8
847.974	572.4
848.377	569.4
848.781	634
849.184	592.6
849.588	575.8
849.992	581.2
850.396	581.2
850.821	607.6
851.225	586.8
851.63	583.2
852.034	588.2
852.438	586
852.843	614.4
853.247	575.4
853.652	573.2
854.057	590.6
854.462	591.2
854.867	588.8
855.272	620
855.677	588
856.082	570.8
856.487	570.4
856.893	586.6
857.298	587.8
