#lambda/nm	C1
208.295	508.2
208.67	466.4
209.045	422.2
209.419	429.8
209.794	607
210.169	589.6
210.544	714.8
210.919	613.4
211.295	611.2
211.67	611.6
212.045	619
212.421	617.4
212.796	648.4
213.172	609.8
213.547	612.6
213.923	600
214.299	605.2
214.675	628.8
215.051	619.8
215.427	609
215.803	630.4
216.179	619.4
216.555	609.4
216.932	620.2
217.308	615.2
217.684	613
218.061	616.6
218.438	619
218.814	607
219.191	621.8
219.568	607.6
219.945	606.4
220.322	619
220.699	627
221.076	621
221.453	619.6
221.83	600.2
222.208	612.4
222.585	614.2
222.962	606.6
223.34	617.4
223.717	615.6
224.095	617.8
224.473	619
224.851	609.6
225.229	604.6
225.607	629
225.985	611
226.363	610.8
226.741	611.4
227.119	613.8
227.497	630
227.876	601.8
228.254	630.6
228.633	625.2
229.011	616
229.39	627.2
229.769	613.2
230.148	621.8
230.527	638.8
230.905	610.4
231.284	627.8
231.664	616.4
232.043	630.2
232.422	619.8
232.801	611
233.181	619
233.56	608.6
233.94	618.6
234.319	598.8
234.699	615
235.079	656.6
235.458	659.2
235.838	630.2
236.218	615.2
236.598	607.8
236.978	609.6
237.358	611
237.738	610.6
238.119	629.4
238.499	605.6
238.88	618.4
239.26	640.8
239.641	604.6
240.021	618.6
240.402	615.6
240.783	608.4
241.163	610.4
241.544	618
241.925	617.4
242.306	624.6
242.687	613
243.069	618.4
243.45	623.4
243.831	615
244.212	605
244.594	657
244.975	620.8
245.357	618.2
245.739	615.4
246.12	624.2
246.502	629.8
246.884	624
247.266	620
247.648	617.8
248.03	638.8
248.412	616.2
248.794	625.8
249.176	617.2
249.559	627.8
249.941	609.6
250.323	609.2
250.706	608
251.089	624.2
251.471	612.8
251.854	617.4
252.237	612
252.62	630.4
253.002	611.2
253.385	611.8
253.769	629.6
254.152	619.8
254.535	617
254.918	613
255.301	604.8
255.685	613.6
256.068	613.6
256.452	644.8
256.835	628
257.219	619.6
257.603	625.2
257.986	610
258.37	626.4
258.754	605
259.138	622.6
259.522	628
259.906	614.2
260.29	624.4
260.675	614.2
261.059	618.2
261.443	604.8
261.828	625.6
262.212	626
262.597	609.2
262.981	612
263.366	615
263.751	617.6
264.136	616.6
264.521	614
264.906	603.4
265.291	628.8
265.676	611
266.061	619.8
266.446	635.2
266.831	620.8
267.217	632.6
267.602	621.6
267.987	623.8
268.373	607
268.759	632.4
269.144	628.6
269.53	617
269.916	609.4
270.302	613.6
270.688	623.4
271.074	614
271.46	632.6
271.846	647.8
272.232	631
272.618	604.6
273.004	619.6
273.391	629.6
273.777	629.6
274.164	615.8
274.55	639.2
274.937	615.2
275.324	612.4
275.71	621.6
276.097	618.6
276.484	614.2
276.871	626
277.258	623.6
277.645	612.6
278.032	620.2
278.419	625.8
278.807	625.6
279.194	610.2
279.581	606.6
279.969	628
280.356	626.2
280.744	623.6
281.131	631.6
281.519	624.6
281.907	613.2
282.295	610.8
282.682	630.2
283.07	621.4
283.458	624
283.846	632.6
284.235	621.2
284.623	623
285.011	606.8
285.399	614.2
285.788	617
286.176	605.6
286.565	624.4
286.953	609.4
287.342	609.4
287.731	613.6
288.119	603.2
288.508	611.8
288.897	617.2
289.286	604
289.675	614.8
290.064	627.6
290.453	612.2
290.821	616.8
291.21	629.6
291.599	609.8
291.989	617.2
292.378	624.6
292.768	640.8
293.157	622.8
293.547	628.6
293.936	617
294.326	606.2
294.716	616.4
295.106	617.8
295.496	613.6
295.886	626.4
296.276	621
296.666	605.4
297.056	611.4
297.446	609.6
297.836	634.2
298.227	621.6
298.617	621.8
299.008	635.8
299.398	619.8
299.789	608.8
300.179	622.6
300.57	629.6
300.961	621.4
301.352	612.6
301.742	621
302.133	623.4
302.524	623
302.915	624.2
303.307	602.4
303.698	629.8
304.089	618.4
304.48	619.2
304.872	617.8
305.263	614.8
305.655	609.6
306.046	625.4
306.438	625.6
306.829	609.8
307.221	627.2
307.613	625.8
308.005	628.6
308.397	630
308.789	632.2
309.181	640.8
309.573	630
309.965	627.8
310.357	623.4
310.749	635.8
311.142	607.2
311.534	619
311.926	622
312.319	618.2
312.711	606.8
313.104	627.4
313.497	620.2
313.889	651.2
314.282	646.2
314.675	642
315.068	616.8
315.461	630
315.854	647
316.247	627.2
316.64	617
317.033	617.8
317.405	630.2
317.798	619
318.192	615.2
318.585	607.4
318.979	624.2
319.372	616.4
319.766	607.2
320.16	629.2
320.553	636
320.947	638.2
321.341	615.4
321.735	615.8
322.129	603.6
322.523	633
322.917	606.4
323.311	624.2
323.705	614.4
324.099	625.6
324.494	628.8
324.888	630.6
325.282	615.8
325.677	633.8
326.071	621
326.466	628.8
326.861	621.2
327.255	630.8
327.65	628.4
328.045	631.4
328.44	621.2
328.835	614.8
329.23	610
329.625	642.8
330.02	613.4
330.415	627.8
330.81	618.6
331.206	616.6
331.601	617
331.996	622.2
332.37	641
332.766	616.6
333.161	640.4
333.557	616.6
333.953	620.6
334.348	955.6
334.744	615
335.14	613.2
335.536	611
335.932	627
336.328	622
336.724	629.6
337.12	616.4
337.516	616.4
337.913	623.2
338.309	629.4
338.705	611
339.102	623.8
339.498	624.4
339.895	639.6
340.291	613.8
340.688	624.2
341.085	606.4
341.481	620
341.878	610
342.275	640.4
342.672	611.6
343.069	605.8
343.466	598.8
343.842	620.6
344.239	604.2
344.636	613.4
345.033	603.8
345.431	616
345.828	615.2
346.225	612.4
346.623	653.2
347.02	613.8
347.418	624.8
347.816	626.6
348.213	605
348.611	622.8
349.009	605.2
349.407	628.4
349.805	609.4
350.203	604.6
350.601	627.4
350.999	611.4
351.397	662.4
351.795	610.2
352.193	620.4
352.57	620.6
352.969	628.4
353.367	603.2
353.766	606.2
354.164	614.2
354.563	619.6
354.961	610.6
355.36	617.2
355.759	615.4
356.158	601.8
356.557	608
356.956	601.4
357.355	607.8
357.754	618
358.153	615
358.552	637.8
358.951	607.2
359.35	624.4
359.75	602.4
360.149	602.2
360.527	599.8
360.926	600
361.326	620.8
361.726	611.6
362.125	616.6
362.525	615.6
362.925	614.2
363.325	607.2
363.724	608.8
364.124	608
364.524	609
364.924	614
365.324	627.2
365.725	598.8
366.125	617.6
366.525	605
366.904	604.6
367.304	594.2
367.705	631
368.105	623.8
368.506	608
368.906	611
369.307	611.8
369.708	621
370.108	599.2
370.509	619.4
370.91	608.6
371.311	613.4
371.712	610.4
372.113	607.6
372.514	602.2
372.894	614.6
373.295	606
373.696	618.8
374.097	613.2
374.499	638.2
374.9	617.2
375.301	602.4
375.703	613.8
376.105	604.8
376.506	611.6
376.908	625.4
377.309	607
377.711	615.6
378.113	599.8
378.493	605
378.895	606.8
379.297	619.2
379.699	603.4
380.102	618.2
380.504	610
380.906	602.2
381.308	631.4
381.71	614
382.113	612.8
382.515	611.4
382.918	612
383.299	607
383.701	617
384.104	614.4
384.507	594.2
384.909	599.8
385.312	595.8
385.715	597.2
386.118	608.2
386.521	598.2
386.924	617
387.327	599.4
387.709	588.4
388.112	591.4
388.515	602
388.918	613.4
389.322	615.2
389.725	602.2
390.129	626.2
390.532	610.2
390.936	605.2
391.339	601.4
391.743	612
392.125	594.4
392.529	627.6
392.933	623.8
393.337	605.8
393.74	606.8
394.144	608.2
394.548	603.6
394.953	598.6
395.357	614.2
395.761	606.6
396.144	614.8
396.548	607
396.952	607.6
397.357	613.6
397.761	603.4
398.166	607.2
398.57	605
398.975	604.2
399.379	611.6
399.763	658
400.168	609.2
400.572	604.4
400.977	608.4
401.382	625
401.787	620
402.192	626
402.597	627.4
403.002	598.4
403.386	622.2
403.791	621
404.197	600.2
404.602	598.4
405.007	620.2
405.413	603.6
405.818	606.8
406.224	604.6
406.608	613.4
407.014	598.8
407.42	623.4
407.825	600.4
408.231	621.6
408.637	613.4
409.043	626
409.449	601.2
409.834	602.6
410.24	610.8
410.646	612.2
411.052	611
411.458	615.8
411.865	613
412.271	610.4
412.677	605.6
413.062	611.8
413.469	595.6
413.875	636
414.282	622.2
414.689	612.2
415.095	629
415.502	600.4
415.888	607.8
416.294	597.2
416.701	656.2
417.108	603.2
417.515	618.2
417.923	599.6
418.33	631.4
418.715	617.2
419.123	604.8
419.53	601.6
419.937	610.8
420.345	625
420.752	605
421.16	614.2
421.546	611.2
421.953	622.2
422.361	604.2
422.769	613.4
423.177	610.6
423.585	627.6
423.992	634.8
424.379	628
424.787	612.6
425.195	630.4
425.603	610.4
426.011	626.6
426.419	630.6
426.806	617.4
427.214	611.4
427.623	622
428.031	625.4
428.44	625.8
428.848	626
429.235	632.2
429.644	619
430.053	606
430.461	623.2
430.87	638
431.279	624
431.666	617.2
432.075	613.8
432.484	627.6
432.893	619.2
433.302	640.2
433.711	657.2
434.099	626
434.508	630.4
434.918	621.6
435.327	638.4
435.737	641.6
436.125	642.6
436.534	642.4
436.944	648
437.353	662
437.763	672.8
438.173	653.6
438.561	674
438.971	653.6
439.381	668
439.791	687.4
440.201	659.2
440.589	690.8
440.999	696.6
441.409	689.8
441.819	693
442.23	705.2
442.619	719.8
443.029	715
443.439	720.6
443.85	733
444.26	739.2
444.649	733.2
445.06	722.4
445.471	723.6
445.881	734.8
446.292	753.2
446.682	764.2
447.092	733.4
447.503	789.2
447.914	760.8
448.325	751.8
448.715	761.2
449.126	747.4
449.537	748.4
449.948	750.4
450.338	750.6
450.75	767.8
451.161	763
451.572	773.4
451.984	763
452.374	752.6
452.786	768.2
453.197	775.4
453.609	774.2
453.999	767.6
454.411	773.8
454.823	786.2
455.235	774.2
455.647	776
456.037	779.4
456.449	757.8
456.862	776
457.274	779
457.665	775.4
458.077	792.6
458.489	823.2
458.902	783.4
459.293	788.8
459.705	786
460.118	790.4
460.53	788.2
460.921	782.8
461.334	798.2
461.747	793
462.16	812.4
462.551	813
462.964	803.2
463.377	793.4
463.79	798.4
464.182	812
464.595	805.8
465.008	798.6
465.421	814
465.813	796
466.226	806.6
466.64	802.2
467.053	845.6
467.445	813.4
467.859	813.6
468.272	811.6
468.686	819.6
469.078	810.8
469.492	790.8
469.906	814.8
470.298	811.4
470.712	799.4
471.126	857.2
471.54	795.4
471.933	808.8
472.347	811.6
472.761	816.6
473.175	804.8
473.568	821.2
473.982	792.6
474.397	808
474.79	813.6
475.204	810.4
475.619	811
476.033	806.4
476.426	805.4
476.841	800.8
477.256	828
477.649	796.2
478.064	799.4
478.479	794.6
478.872	787.8
479.287	778
479.702	793.2
480.118	792.6
480.511	804.6
480.927	803.6
481.342	782.6
481.736	795.4
482.151	794
482.566	813.6
482.96	797
483.376	800.6
483.792	788.4
484.186	791.8
484.602	796.2
485.017	789.4
485.412	800.8
485.827	792.4
486.243	794
486.638	819.4
487.054	801.4
487.47	803.8
487.865	783.6
488.281	774.4
488.697	780.6
489.092	782.4
489.508	766.2
489.925	787
490.32	770.4
490.736	793.8
491.153	775.2
491.548	776
491.964	782.4
492.381	764.2
492.776	777.6
493.193	775.8
493.61	776.2
494.006	774.2
494.422	789.2
494.84	765.6
495.235	773.2
495.652	768.6
496.069	774.4
496.465	747.4
496.883	772.2
497.3	789.6
497.696	755.4
498.113	768.4
498.509	754.8
498.927	753.2
499.344	745
499.741	752.2
500.158	758.8
500.576	760.8
500.973	751.4
501.39	744.8
501.787	736.6
502.205	754.2
502.623	739
503.02	729.6
503.438	738.2
503.856	744.8
504.253	737
504.671	740.8
505.068	738
505.486	730.4
505.905	753.4
506.302	735.6
506.72	734
507.118	728
507.536	722.8
507.955	728.6
508.352	729.4
508.771	741.4
509.169	733.2
509.587	713.8
510.006	720.8
510.404	713
510.823	708.4
511.221	718.4
511.64	716.2
512.038	735
512.457	710
512.877	712.4
513.275	709
513.694	711.8
514.092	707.4
514.512	705.6
514.91	709.4
515.33	716
515.749	708.2
516.148	713.2
516.568	713.4
516.966	700.4
517.386	687.8
517.785	697.2
518.205	694
518.603	683.8
519.024	695.8
519.444	697
519.843	702.8
520.263	708.4
520.662	704.2
521.082	692.8
521.481	684.8
521.902	685.8
522.301	693.6
522.722	688.2
523.121	695.2
523.542	680.6
523.963	682.4
524.362	695.8
524.783	679.6
525.183	684
525.604	683
526.003	671.6
526.425	678.4
526.824	688
527.246	687.8
527.646	683.2
528.067	677.4
528.467	673
528.888	670.8
529.289	674.6
529.71	669.4
530.11	666.4
530.532	663.8
530.932	671.4
531.354	665.4
531.755	708
532.176	679.8
532.577	663.6
532.999	667.4
533.4	664.2
533.822	677.4
534.223	678
534.645	662
535.046	657.8
535.468	656.2
535.869	671.4
536.292	660.4
536.693	701.2
537.115	667.8
537.516	658.6
537.939	657.2
538.34	682.8
538.742	666.8
539.165	665.2
539.566	656.4
539.989	655.4
540.391	656.2
540.814	667.4
541.216	660.8
541.639	657.2
542.041	664.2
542.464	653.8
542.866	652.6
543.268	647.6
543.691	658.2
544.093	659.8
544.517	675.6
544.919	659
545.343	669
545.745	645.6
546.147	653
546.571	648.2
546.974	643
547.398	645.6
547.8	664.8
548.224	645.4
548.627	632.4
549.03	645.4
549.454	643.6
549.857	633.8
550.281	643.2
550.684	644
551.087	654.6
551.512	647.2
551.915	649.4
552.34	646
552.743	644
553.146	644.8
553.571	636.8
553.975	665.6
554.399	627.8
554.803	687.8
555.207	632.6
555.632	633.8
556.036	638
556.461	625.6
556.865	638
557.268	638.8
557.694	638.6
558.098	638.4
558.502	631.6
558.927	638.4
559.332	633.8
559.736	636.2
560.162	633.2
560.566	628.4
560.992	634.6
561.396	633.4
561.801	629.2
562.227	627.6
562.631	626.6
563.036	637.8
563.462	639.6
563.867	636.6
564.272	622
564.698	634.2
565.103	625.2
565.508	653
565.935	631.4
566.34	629.8
566.745	639.4
567.172	622.8
567.577	641.8
567.982	635.8
568.409	635.2
568.815	615.4
569.22	621
569.626	633
570.053	623
570.459	628.8
570.865	629
571.292	626.8
571.698	623.4
572.104	616.4
572.531	617.8
572.937	627
573.343	615
573.75	620.2
574.177	624
574.583	618.6
574.99	617
575.396	617
575.824	608
576.231	626
576.637	611
577.065	635.4
577.472	622
577.879	616.2
578.286	627
578.714	608.4
579.121	608.2
579.528	610.8
579.935	625.6
580.364	614.2
580.771	600.8
581.178	609.6
581.585	612.8
582.014	622.2
582.421	610.4
582.829	614.8
583.236	617.4
583.644	610.6
584.073	618.4
584.481	620
584.889	608.6
585.296	623
585.726	610
586.134	605.8
586.542	613.8
586.95	632.4
587.358	605.6
587.787	611.6
588.196	619.6
588.604	613.4
589.012	609.6
589.421	598
589.851	606
590.259	615
590.668	605.8
591.076	647
591.485	597.6
591.894	604.2
592.324	615.2
592.733	613.8
593.142	602.2
593.551	600.2
593.96	642.8
594.369	594.2
594.8	597.6
595.209	609.4
595.618	593.4
596.028	601.8
596.437	602.2
596.847	606
597.256	612.4
597.687	609.8
598.097	607
598.507	593.2
598.917	605
599.327	600.4
599.736	599
600.146	613.2
600.556	604.6
600.988	615.4
601.398	595.8
601.808	620.6
602.219	590.6
602.629	604
603.039	600.6
603.45	620.2
603.86	605.4
604.271	612
604.703	595.2
605.114	599.6
605.525	598.6
605.935	609.6
606.346	620.6
606.757	606.6
607.168	599.6
607.579	599
607.99	607.8
608.402	601.4
608.813	601.6
609.224	595.4
609.636	592.2
610.047	594.4
610.48	597.8
610.892	608.8
611.303	609.2
611.715	602.2
612.127	580.6
612.539	585.2
612.95	594.2
613.362	584.4
613.774	588.4
614.186	588.8
614.599	598
615.011	603.8
615.423	594.4
615.835	591.6
616.248	589.8
616.66	608.2
617.073	589.4
617.485	598.8
617.898	605.2
618.311	596
618.723	596.4
619.136	632.6
619.549	614.6
619.962	626.6
620.375	595.6
620.788	608.4
621.201	602.6
621.614	611
622.028	596.8
622.441	602.4
622.854	603.4
623.268	591
623.681	603.2
624.095	602.8
624.509	608
624.922	610
625.336	599.2
625.728	600.6
626.142	607.8
626.556	621.2
626.97	606
627.384	593
627.799	598.4
628.213	610.4
628.627	587.8
629.041	592.4
629.456	600
629.87	593.6
630.285	611.4
630.699	608.8
631.093	599.2
631.507	603.6
631.922	598.6
632.337	610.2
632.752	584.4
633.167	599
633.582	599.6
633.997	594.6
634.412	588.4
634.806	583.6
635.221	584.2
635.637	600.8
636.052	590
636.468	595.4
636.883	617.6
637.299	598.2
637.715	587.6
638.109	594.2
638.525	583.4
638.941	608
639.357	595.6
639.773	604.6
640.189	585.4
640.584	597.2
641	594.8
641.416	591.6
641.832	597.4
642.249	590.2
642.665	595.6
643.06	598.4
643.477	602.6
643.894	580.6
644.31	589.2
644.727	588
645.123	595.4
645.54	582.4
645.957	603.2
646.374	613.8
646.77	597.6
647.187	628.2
647.604	595.6
648.021	585.2
648.439	597
648.835	602
649.252	597.4
649.67	601.4
650.088	589.4
650.484	597.8
650.902	605
651.32	605.2
651.738	589.6
652.134	601.4
652.552	610.2
652.971	608
653.389	592
653.786	608
654.204	610.6
654.622	587.2
655.019	596.8
655.438	595.2
655.857	592.2
656.275	599.6
656.673	592
657.091	606
657.51	591.8
657.908	603.6
658.327	611
658.746	576.8
659.144	592.6
659.563	601.4
659.982	599.6
660.38	585.2
660.8	600.8
661.219	598.6
661.617	601.6
662.037	594.2
662.457	607.4
662.855	580.6
663.275	631.2
663.695	591.2
664.094	593
664.514	599.6
664.934	589.4
665.333	599.8
665.753	585.8
666.152	582.4
666.572	580.8
666.993	599.6
667.392	591
667.812	591.2
668.212	591.4
668.632	605.8
669.053	587.4
669.453	598
669.874	591.2
670.273	589.2
670.694	588.2
671.116	596
671.515	588.2
671.937	592
672.337	591.8
672.758	593.6
673.158	606
673.58	579.4
673.98	587.6
674.402	606.4
674.824	591.2
675.224	588
675.646	580.6
676.047	585.4
676.469	593.8
676.869	595.6
677.292	590
677.693	579
678.115	581.2
678.516	599
678.939	592.8
679.34	600.2
679.762	609.8
680.164	600.2
680.586	583.4
680.988	594.4
681.411	614.4
681.812	589.2
682.236	586
682.637	584.8
683.061	589.2
683.462	594.8
683.864	586.2
684.288	598.6
684.69	585.8
685.114	603
685.516	605.4
685.94	584.8
686.342	601
686.766	580
687.168	589.8
687.571	607.2
687.995	595.2
688.398	581.2
688.822	592.4
689.225	604.6
689.628	609.6
690.052	593.8
690.456	596.4
690.88	587
691.284	586.6
691.687	599
692.112	574.6
692.515	586.8
692.919	594
693.344	591
693.747	593.4
694.173	574.4
694.577	598
694.98	588.6
695.406	589.2
695.81	590.2
696.214	586
696.64	589.4
697.044	584.6
697.448	600.6
697.874	586
698.279	587.8
698.684	576.6
699.11	583.4
699.514	588.4
699.919	576.6
700.324	579.4
700.75	588.6
701.156	590.4
701.561	590.2
701.987	590.8
702.393	596.8
702.798	593.6
703.203	593.2
703.63	580.2
704.036	580.4
704.442	593
704.847	575.2
705.274	588
705.68	594.8
706.086	602
706.492	581.4
706.92	589
707.326	594.8
707.732	579
708.139	581.8
708.545	580.8
708.973	583.4
709.38	583.8
709.786	569
710.193	603.2
710.6	587.6
711.028	570.4
711.435	590.4
711.842	582.6
712.249	579.8
712.656	580.6
713.064	593.2
713.492	572.8
713.9	582.8
714.307	599
714.715	587.4
715.123	587.2
715.53	592.4
715.938	601.4
716.367	591.6
716.775	581
717.184	575.2
717.592	587.8
718	599
718.408	612.6
718.816	630.8
719.225	592.8
719.633	593.8
720.042	581.4
720.472	584.4
720.881	605
721.29	593.6
721.699	576.6
722.108	596.4
722.517	584
722.926	575.4
723.335	590
723.744	589
724.154	584.6
724.563	598
724.973	592
725.382	591.8
725.792	591.4
726.202	574.4
726.612	609.2
727.022	588.8
727.432	579.6
779.813	589.4
780.223	630.2
780.634	589.8
781.044	577.4
781.454	581
781.865	603.8
782.276	563.8
782.686	591.2
783.097	571.8
783.508	585.6
783.919	591.6
784.33	603.4
784.741	597.6
785.152	586.4
785.563	576.2
785.974	578.6
786.386	591
786.776	581.6
787.188	592.2
787.599	575.4
788.011	588
788.423	584.2
788.835	581
789.247	581.2
789.659	578
790.071	577.6
790.483	626
790.874	583.6
791.286	582
791.699	585.8
792.111	585.6
792.524	587.6
792.937	585.2
793.349	571.2
793.741	582.4
794.154	580.8
794.567	596
794.98	582.4
795.393	579.6
795.785	605.8
796.198	585.6
796.612	584.4
797.026	578.8
797.439	574.2
797.831	579.8
798.245	568.4
798.659	582
799.073	587.8
799.487	577
799.88	582.4
800.294	581.4
800.708	585.2
801.123	590
801.516	599.8
801.93	576.4
802.345	575.4
802.76	585.2
803.153	607.8
803.568	602.6
803.983	596.6
804.377	599.4
804.792	581.6
805.207	577.2
805.601	586.8
806.016	613.4
806.432	578
806.826	619.6
807.242	600.2
807.658	592.6
808.052	584.8
808.468	581
808.884	575
809.279	580.4
809.695	601.4
810.111	609.2
810.506	587.6
810.922	604.2
811.339	579.6
811.734	589.6
812.151	588.6
812.546	572.4
812.963	574.2
813.38	590.2
813.776	583.8
814.193	604.2
814.589	578.2
815.006	576.6
815.402	578.6
815.82	575
816.237	590
816.633	591.6
817.051	575.6
817.448	592.4
817.866	574.8
818.262	601.2
818.68	581.2
819.077	575
819.495	587.2
819.892	618.8
820.311	572
820.708	574.2
821.127	586.4
821.524	588
821.943	582.8
822.34	598.6
822.759	583.2
823.157	577.2
823.576	598.6
823.974	585.6
824.393	613
824.791	571.4
825.189	575.2
825.609	585.2
826.007	583.6
826.427	578.2
826.826	588.2
827.246	587.8
827.644	571.2
828.043	598
828.463	577.2
828.862	596.4
829.261	592.6
829.682	572.2
830.081	586.8
830.502	570
830.901	585
831.301	609.4
831.722	573
832.121	589.2
832.521	573.8
832.943	586.2
833.342	579.4
833.742	570.6
834.164	578.6
834.564	567.8
834.965	588.8
835.386	583
835.787	580
836.188	579.6
836.588	585
837.01	580
837.411	573
837.812	591.4
838.213	585.8
838.636	580.2
839.037	654
839.438	586
839.84	575.6
840.263	581.4
840.664	578
841.066	579.4
841.468	586.2
841.891	576.4
842.293	591.4
842.695	580.8
843.098	585.8
843.5	581.4
843.902	585.6
844.326	586.8
844.729	586.8
845.131	588.6
845.534	578.4
845.937	595.2
846.34	597.8
846.764	579
847.167	584.2
847.571	570.2
847.974	579.6
848.377	576.8
848.781	621.8
849.184	594.2
849.588	578.4
849.992	580.6
850.396	587.2
850.821	607.8
851.225	593.6
851.63	579.8
852.034	599
852.438	577.4
852.843	658
853.247	572.8
853.652	576.4
854.057	599.6
854.462	592
854.867	587.4
855.272	614.6
855.677	580.2
856.082	576.4
856.487	563.6
856.893	592.2
