#lambda/nm	C1
208.295	511.2
208.67	467.4
209.045	429.4
209.419	431.2
209.794	617.4
210.169	594.2
210.544	712.4
210.919	614.4
211.295	610
211.67	616.8
212.045	625.8
212.421	617.8
212.796	656.6
213.172	618
213.547	614.4
213.923	614.4
214.299	614
214.675	616.2
215.051	621.2
215.427	631
215.803	638.8
216.179	621.8
216.555	608.2
216.932	620
217.308	609.6
217.684	625.8
218.061	618.8
218.438	618
218.814	613.2
219.191	621
219.568	607.8
219.945	605.4
220.322	613.6
220.699	615.6
221.076	622.4
221.453	620.4
221.83	608.2
222.208	625.8
222.585	612.8
222.962	618
223.34	619.8
223.717	614.2
224.095	608.2
224.473	613.8
224.851	614
225.229	602.6
225.607	621
225.985	610
226.363	614.4
226.741	611.8
227.119	617.8
227.497	628.2
227.876	608.6
228.254	627.2
228.633	621.2
229.011	616.6
229.39	628
229.769	614.4
230.148	621.4
230.527	635.8
230.905	615.8
231.284	615.8
231.664	608.2
232.043	630
232.422	623.6
232.801	611.6
233.181	619.2
233.56	616.2
233.94	615.2
234.319	607.6
234.699	604.6
235.079	656.8
235.458	651.2
235.838	632.4
236.218	603
236.598	607.6
236.978	608
237.358	612
237.738	612.6
238.119	621.6
238.499	604.8
238.88	623.4
239.26	637.8
239.641	604.8
240.021	616.6
240.402	609.8
240.783	610
241.163	615.8
241.544	621.4
241.925	624.2
242.306	636.2
242.687	606.4
243.069	627.2
243.45	626.8
243.831	614.2
244.212	612
244.594	650
244.975	630.2
245.357	613.6
245.739	612.4
246.12	612
246.502	627.2
246.884	612.6
247.266	615
247.648	618
248.03	632.6
248.412	622.8
248.794	615
249.176	608.6
249.559	628.4
249.941	613.4
250.323	611.6
250.706	608.6
251.089	619.6
251.471	620.2
251.854	619
252.237	626.6
252.62	625.6
253.002	615.4
253.385	611.8
253.769	629.8
254.152	618.4
254.535	616.2
254.918	604.4
255.301	610.2
255.685	610.4
256.068	607.6
256.452	634
256.835	628.8
257.219	620.6
257.603	633
257.986	607
258.37	619.4
258.754	610
259.138	611
259.522	626.2
259.906	615.4
260.29	622.6
260.675	622.2
261.059	611.6
261.443	611
261.828	617.8
262.212	624.4
262.597	604.4
262.981	618.8
263.366	623.4
263.751	618.8
264.136	623.4
264.521	615.4
264.906	613.4
265.291	627.8
265.676	606.6
266.061	620.4
266.446	638.8
266.831	609.8
267.217	626.6
267.602	610.4
267.987	620.6
268.373	609.8
268.759	620.6
269.144	616.8
269.53	617
269.916	612.2
270.302	604.6
270.688	616.4
271.074	619.8
271.46	624.6
271.846	648.6
272.232	614.2
272.618	611.8
273.004	614.8
273.391	625.2
273.777	631
274.164	626
274.55	626.8
274.937	618.8
275.324	608.6
275.71	627.6
276.097	624
276.484	616.2
276.871	619.6
277.258	623.6
277.645	609.4
278.032	617
278.419	611.8
278.807	614.6
279.194	604.2
279.581	613
279.969	618.6
280.356	613
280.744	624
281.131	636.4
281.519	618.4
281.907	611.4
282.295	612.2
282.682	622.4
283.07	616
283.458	623.4
283.846	630.2
284.235	627.2
284.623	624.6
285.011	610.6
285.399	618.8
285.788	612.4
286.176	600.8
286.565	629.8
286.953	609
287.342	611.2
287.731	611.8
288.119	602
288.508	605.2
288.897	620.8
289.286	602
289.675	610.8
290.064	631.8
290.453	605.2
290.821	620.2
291.21	627.8
291.599	606
291.989	620
292.378	620.6
292.768	629.2
293.157	619.2
293.547	622.8
293.936	610.8
294.326	608.4
294.716	621.2
295.106	610
295.496	624.4
295.886	623.6
296.276	612.4
296.666	609.2
297.056	609.6
297.446	610.4
297.836	638.8
298.227	610.4
298.617	620.2
299.008	618.4
299.398	610.8
299.789	612.4
300.179	623.6
300.57	626.2
300.961	611.8
301.352	612.4
301.742	623.4
302.133	612.6
302.524	617.2
302.915	618.4
303.307	606.4
303.698	630.2
304.089	616.4
304.48	618.2
304.872	611.8
305.263	617.4
305.655	613.2
306.046	627.8
306.438	623.6
306.829	612.4
307.221	623
307.613	615.2
308.005	626.4
308.397	629.8
308.789	639.6
309.181	648.6
309.573	631.4
309.965	631
310.357	615.4
310.749	637.4
311.142	606.4
311.534	614.8
311.926	631.4
312.319	622.4
312.711	623
313.104	632.4
313.497	616
313.889	647.6
314.282	637
314.675	645.6
315.068	622.2
315.461	627.8
315.854	646.4
316.247	625
316.64	614.4
317.033	618.4
317.405	626
317.798	627.4
318.192	619
318.585	610.2
318.979	619.8
319.372	605
319.766	609
320.16	625.2
320.553	632.2
320.947	639.6
321.341	613.4
321.735	617.6
322.129	601
322.523	645.6
322.917	611.4
323.311	623.8
323.705	615.6
324.099	628.6
324.494	631.8
324.888	627.6
325.282	612
325.677	632
326.071	624.2
326.466	631.2
326.861	623.2
327.255	636.6
327.65	634
328.045	641
328.44	629.8
328.835	615.2
329.23	612.6
329.625	640
330.02	615
330.415	635
330.81	619
331.206	623.2
331.601	615.8
331.996	613.2
332.37	643.4
332.766	606.2
333.161	638.6
333.557	614.6
333.953	617
334.348	1038.6
334.744	622.6
335.14	608.8
335.536	619.4
335.932	633.8
336.328	612.4
336.724	629.6
337.12	613.8
337.516	619.4
337.913	627.2
338.309	627.8
338.705	620.8
339.102	630.8
339.498	614.8
339.895	636.8
340.291	611.6
340.688	623.4
341.085	615.8
341.481	617.8
341.878	620.4
342.275	635.6
342.672	610.4
343.069	612
343.466	604.4
343.842	626.2
344.239	613.2
344.636	620.6
345.033	608
345.431	611
345.828	617.6
346.225	610.8
346.623	648.8
347.02	613.6
347.418	619.8
347.816	623.6
348.213	609
348.611	617.4
349.009	602.8
349.407	625.4
349.805	606.4
350.203	608.4
350.601	633.8
350.999	609
351.397	672.4
351.795	617.4
352.193	626.2
352.57	626.6
352.969	630
353.367	609.4
353.766	617.8
354.164	615.8
354.563	629.2
354.961	617.2
355.36	610.8
355.759	615
356.158	606.4
356.557	608.2
356.956	611.4
357.355	606.2
357.754	621.6
358.153	620.6
358.552	627.6
358.951	618.2
359.35	627.2
359.75	610.4
360.149	602.4
360.527	596.4
360.926	601.6
361.326	615
361.726	607.4
362.125	613.2
362.525	618.8
362.925	602.8
363.325	609.2
363.724	611.4
364.124	597.2
364.524	612.6
364.924	612.2
365.324	625.2
365.725	593.2
366.125	614
366.525	603.2
366.904	606.8
367.304	596.4
367.705	626.6
368.105	623.2
368.506	603.2
368.906	615
369.307	609.6
369.708	609.6
370.108	595
370.509	615.4
370.91	602.8
371.311	608.2
371.712	609
372.113	615.2
372.514	602.8
372.894	603.6
373.295	603.2
373.696	628.4
374.097	623.6
374.499	634.4
374.9	612.8
375.301	598.2
375.703	615.6
376.105	603.4
376.506	606.8
376.908	621.2
377.309	609.6
377.711	608.2
378.113	600.4
378.493	603.2
378.895	603
379.297	616.4
379.699	599.4
380.102	611.8
380.504	614
380.906	603.2
381.308	635.4
381.71	599.2
382.113	617.4
382.515	611
382.918	615.2
383.299	608.2
383.701	618
384.104	609.8
384.507	597.2
384.909	611.2
385.312	595.8
385.715	607.4
386.118	613.8
386.521	600.2
386.924	606.8
387.327	598.4
387.709	600
388.112	598.8
388.515	600.8
388.918	603
389.322	609.6
389.725	598.2
390.129	623.4
390.532	618.2
390.936	606.8
391.339	593.2
391.743	607.2
392.125	606.2
392.529	609.6
392.933	619.4
393.337	610.6
393.74	612.2
394.144	614.6
394.548	598.2
394.953	604
395.357	621
395.761	613.4
396.144	611.4
396.548	609.6
396.952	611.4
397.357	614.6
397.761	601.2
398.166	609.6
398.57	602
398.975	600.8
399.379	617.2
399.763	654
400.168	609.4
400.572	609
400.977	608.2
401.382	621.6
401.787	614.4
402.192	623.2
402.597	614.6
403.002	596.2
403.386	614.6
403.791	629.4
404.197	603.2
404.602	612.4
405.007	610
405.413	606.4
405.818	613.8
406.224	601.6
406.608	614
407.014	600.4
407.42	630.2
407.825	607.4
408.231	617.2
408.637	609.6
409.043	629
409.449	602.8
409.834	592.8
410.24	613.8
410.646	613
411.052	620.2
411.458	616.8
411.865	615.6
412.271	622
412.677	613.6
413.062	617
413.469	603.8
413.875	636.4
414.282	617
414.689	609
415.095	616.4
415.502	600.2
415.888	601.4
416.294	599
416.701	644
417.108	597.8
417.515	621.4
417.923	604
418.33	625
418.715	621.4
419.123	609
419.53	607.2
419.937	613
420.345	628.8
420.752	607
421.16	623.4
421.546	610.2
421.953	620.6
422.361	595.6
422.769	612.8
423.177	598.4
423.585	639
423.992	626.4
424.379	623.8
424.787	620.8
425.195	632
425.603	609
426.011	624.2
426.419	631
426.806	616.8
427.214	621.8
427.623	628.4
428.031	641.2
428.44	627.8
428.848	631.2
429.235	646.4
429.644	631
430.053	635.8
430.461	644.6
430.87	664
431.279	649.4
431.666	648.8
432.075	652.4
432.484	664.6
432.893	670
433.302	693.8
433.711	720.4
434.099	704.4
434.508	701.6
434.918	704.2
435.327	733.6
435.737	744.4
436.125	748.6
436.534	745.8
436.944	764.6
437.353	777.4
437.763	812.4
438.173	792.8
438.561	814
438.971	799.4
439.381	827.4
439.791	830
440.201	816.8
440.589	843.2
440.999	866
441.409	881.8
441.819	860.6
442.23	879.8
442.619	896.6
443.029	896.2
443.439	897.8
443.85	917.6
444.26	919.4
444.649	911.4
445.06	909.8
445.471	921.2
445.881	921.4
446.292	948
446.682	953.4
447.092	935
447.503	984.6
447.914	951.2
448.325	935.6
448.715	966.4
449.126	954.8
449.537	962.6
449.948	958.6
450.338	970.8
450.75	958.2
451.161	947.6
451.572	973
451.984	959
452.374	958.4
452.786	974.8
453.197	985
453.609	988
453.999	971.8
454.411	973.6
454.823	998.4
455.235	981.6
455.647	993.2
456.037	991.2
456.449	977.4
456.862	988.2
457.274	994
457.665	976.8
458.077	981.6
458.489	1027.4
458.902	985.2
459.293	995
459.705	983.4
460.118	988
460.53	984.6
460.921	994.6
461.334	996.6
461.747	988.8
462.16	993.8
462.551	1002.4
462.964	989
463.377	969.6
463.79	993
464.182	1003.4
464.595	986.8
465.008	992
465.421	987.2
465.813	982.8
466.226	991.8
466.64	977.8
467.053	1023.2
467.445	995
467.859	1007.4
468.272	1005.8
468.686	1003.8
469.078	994.8
469.492	977.8
469.906	986.4
470.298	994.8
470.712	976.2
471.126	1050.4
471.54	973.8
471.933	982
472.347	981.2
472.761	982.4
473.175	975.2
473.568	969.8
473.982	968
474.397	970.6
474.79	977
475.204	978.8
475.619	975.8
476.033	966.6
476.426	972
476.841	971.4
477.256	990.6
477.649	956.4
478.064	962.2
478.479	949.2
478.872	946
479.287	947.2
479.702	932.2
480.118	947.8
480.511	946.4
480.927	940.4
481.342	946
481.736	949.6
482.151	933
482.566	948.2
482.96	937.8
483.376	946.2
483.792	930.6
484.186	942.4
484.602	933.2
485.017	932.4
485.412	934.4
485.827	931.4
486.243	928.4
486.638	947.6
487.054	933.6
487.47	946.2
487.865	907.6
488.281	918.2
488.697	912.4
489.092	908.2
489.508	897.8
489.925	910.4
490.32	902.4
490.736	906.4
491.153	904.8
491.548	894.6
491.964	903.8
492.381	883.8
492.776	896.2
493.193	883.6
493.61	889.8
494.006	881.8
494.422	902.4
494.84	875.6
495.235	890.4
495.652	876.4
496.069	873
496.465	866.6
496.883	878.6
497.3	904.2
497.696	864
498.113	876
498.509	857.4
498.927	842
499.344	854
499.741	843
500.158	860.4
500.576	854.6
500.973	837
501.39	836.4
501.787	830.2
502.205	838.2
502.623	840.2
503.02	816.8
503.438	816.8
503.856	831.6
504.253	832.4
504.671	825.4
505.068	822.6
505.486	817.4
505.905	838.8
506.302	818
506.72	821
507.118	808.2
507.536	812
507.955	805
508.352	810.2
508.771	801.4
509.169	812.8
509.587	797.2
510.006	800.8
510.404	795.2
510.823	790.8
511.221	787.6
511.64	784.4
512.038	797
512.457	783.2
512.877	790.8
513.275	769.8
513.694	776.2
514.092	767.8
514.512	780.6
514.91	781.6
515.33	773.4
515.749	773.4
516.148	776
516.568	774
516.966	771.8
517.386	765.6
517.785	766.8
518.205	763.6
518.603	758.6
519.024	756.4
519.444	751.2
519.843	756.2
520.263	758.4
520.662	753.2
521.082	745.8
521.481	748.8
521.902	745.2
522.301	750.4
522.722	750
523.121	736.8
523.542	738.4
523.963	741
524.362	729.6
524.783	742
525.183	739.8
525.604	725.4
526.003	722.6
526.425	727
526.824	727
527.246	741.4
527.646	735.4
528.067	729.2
528.467	721
528.888	728.8
529.289	720.4
529.71	709
530.11	715.6
530.532	714.6
530.932	708.2
531.354	704
531.755	739
532.176	718.2
532.577	711
532.999	702.6
533.4	694
533.822	713.8
534.223	711.8
534.645	697.4
535.046	701.6
535.468	697
535.869	726.8
536.292	694.2
536.693	735.4
537.115	699.4
537.516	699
537.939	692.6
538.34	713.8
538.742	701.2
539.165	690.2
539.566	694.2
539.989	680.6
540.391	686.4
540.814	696.2
541.216	681
541.639	695.4
542.041	701.2
542.464	680.6
542.866	681.6
543.268	670.6
543.691	692
544.093	679
544.517	705.4
544.919	676.8
545.343	702.6
545.745	673
546.147	685
546.571	671.4
546.974	664.4
547.398	681.8
547.8	678.2
548.224	674.2
548.627	660.2
549.03	677.4
549.454	665.8
549.857	657.8
550.281	663.4
550.684	659
551.087	679
551.512	668.2
551.915	674.6
552.34	665.4
552.743	661.6
553.146	667.4
553.571	661
553.975	692
554.399	654.2
554.803	706.8
555.207	652
555.632	651
556.036	669.6
556.461	649.4
556.865	653
557.268	652.4
557.694	651.4
558.098	652.6
558.502	654.8
558.927	645.6
559.332	652.4
559.736	644.4
560.162	655.2
560.566	637.6
560.992	652
561.396	649.6
561.801	637.2
562.227	647.6
562.631	646.6
563.036	644.6
563.462	659.6
563.867	651.2
564.272	637
564.698	648.8
565.103	639.4
565.508	664.4
565.935	644.8
566.34	634.6
566.745	652.8
567.172	638.8
567.577	660.6
567.982	668.6
568.409	643.8
568.815	624
569.22	642
569.626	649.8
570.053	617
570.459	648.2
570.865	643.6
571.292	649.8
571.698	632
572.104	633.8
572.531	629.4
572.937	641.2
573.343	629.4
573.75	628
574.177	632.2
574.583	641.4
574.99	631.4
575.396	640.8
575.824	632.2
576.231	629.6
576.637	624.4
577.065	660
577.472	625
577.879	621
578.286	639.2
578.714	620.4
579.121	618
579.528	623
579.935	630.6
580.364	625.2
580.771	612.6
581.178	616.6
581.585	621.2
582.014	628
582.421	619.6
582.829	609
583.236	622.6
583.644	611.2
584.073	617.6
584.481	613.8
584.889	612.4
585.296	626.6
585.726	620.8
586.134	605.8
586.542	614.2
586.95	635
587.358	613.2
587.787	613.8
588.196	626.6
588.604	618
589.012	616
589.421	610.8
589.851	611.4
590.259	616.2
590.668	610
591.076	643
591.485	612
591.894	608.8
592.324	623
592.733	627.6
593.142	594.8
593.551	610.2
593.96	616.6
594.369	599
594.8	599.4
595.209	608.2
595.618	591.4
596.028	604.2
596.437	603.6
596.847	613
597.256	617.6
597.687	609.4
598.097	607.4
598.507	607.4
598.917	610.8
599.327	612.4
599.736	614.6
600.146	616
600.556	600.2
600.988	621.2
601.398	601.6
601.808	615.8
602.219	589.8
602.629	603.8
603.039	610.4
603.45	635.2
603.86	602
604.271	618
604.703	613.6
605.114	602.6
605.525	611.2
605.935	608.2
606.346	625.8
606.757	611.6
607.168	601.8
607.579	604.4
607.99	612.4
608.402	610.2
608.813	604.6
609.224	600.4
609.636	600.2
610.047	603.6
610.48	604.6
610.892	609.4
611.303	614.2
611.715	600
612.127	597.8
612.539	613.4
612.95	604.8
613.362	590.8
613.774	598.6
614.186	596.6
614.599	597
615.011	611.4
615.423	607.2
615.835	593
616.248	592.4
616.66	607.4
617.073	598
617.485	605.4
617.898	608
618.311	602.4
618.723	607.6
619.136	630.2
619.549	626.2
619.962	630.8
620.375	600.4
620.788	607.4
621.201	597
621.614	600.8
622.028	606
622.441	614.8
622.854	607
623.268	594.4
623.681	604
624.095	607.8
624.509	613.8
624.922	608.6
625.336	592.8
625.728	589.8
626.142	603.6
626.556	618
626.97	605.6
627.384	597.8
627.799	608.4
628.213	611
628.627	591
629.041	599.6
629.456	601.8
629.87	603.8
630.285	605
630.699	612.8
631.093	598
631.507	606.8
631.922	604.8
632.337	615
632.752	590.6
633.167	604.6
633.582	603
633.997	599.8
634.412	589
634.806	605.4
635.221	597.4
635.637	616
636.052	592.6
636.468	603
636.883	616.8
637.299	599.4
637.715	589.6
638.109	608.6
638.525	586.4
638.941	613.2
639.357	598
639.773	611
640.189	596.6
640.584	598.4
641	597.6
641.416	590.8
641.832	587.6
642.249	595.8
642.665	598.6
643.06	604.4
643.477	605.6
643.894	587.6
644.31	600.8
644.727	596.2
645.123	602.2
645.54	588.6
645.957	607
646.374	617.8
646.77	594.2
647.187	632.6
647.604	588.6
648.021	585.2
648.439	588.6
648.835	600
649.252	601.6
649.67	593.2
650.088	601.4
650.484	604.4
650.902	609.2
651.32	597
651.738	591.6
652.134	593
652.552	606.8
652.971	594.4
653.389	600.6
653.786	606
654.204	616.4
654.622	589.8
655.019	599.6
655.438	603.8
655.857	592.2
656.275	603
656.673	595.2
657.091	603.4
657.51	587.4
657.908	596.4
658.327	608.2
658.746	591.2
659.144	595.8
659.563	602.6
659.982	602.4
660.38	578.8
660.8	591.4
661.219	605.8
661.617	598.6
662.037	595.6
662.457	611.6
662.855	576.4
663.275	624
663.695	587.6
664.094	586.6
664.514	595.8
664.934	585.4
665.333	592.2
665.753	588.8
666.152	589.6
666.572	589.2
666.993	598.4
667.392	589.8
667.812	584.4
668.212	595.2
668.632	612.6
669.053	591.6
669.453	594.2
669.874	592.4
670.273	601
670.694	585.4
671.116	604.8
671.515	599.8
671.937	595
672.337	588
672.758	587
673.158	598.4
673.58	584.6
673.98	594.4
674.402	603.8
674.824	587
675.224	585.2
675.646	586
676.047	583.4
676.469	588
676.869	594
677.292	599.4
677.693	591.6
678.115	585.8
678.516	584.2
678.939	588.6
679.34	588.6
679.762	602.8
680.164	593.6
680.586	586.6
680.988	587
681.411	608.4
681.812	589.8
682.236	572.4
682.637	576.4
683.061	582
683.462	590
683.864	596
684.288	590.4
684.69	576.2
685.114	607
685.516	601
685.94	584
686.342	600
686.766	587.6
687.168	584
687.571	609.8
687.995	589.8
688.398	575
688.822	589.4
689.225	605.4
689.628	608.8
690.052	572.4
690.456	598.8
690.88	580.6
691.284	569
691.687	604.4
692.112	584.8
692.515	586
692.919	591.4
693.344	597.8
693.747	587.8
694.173	587.6
694.577	596
694.98	581.8
695.406	588.4
695.81	591.4
696.214	606.4
696.64	587
697.044	593.4
697.448	598.2
697.874	588.8
698.279	588.4
698.684	586.8
699.11	588.6
699.514	577.4
699.919	585.6
700.324	577.8
700.75	591.4
701.156	590.6
701.561	593.4
701.987	599.6
702.393	591
702.798	594.4
703.203	594.2
703.63	589.6
704.036	586.6
704.442	586.2
704.847	578.2
705.274	580.4
705.68	585.2
706.086	584.8
706.492	582
706.92	579.6
707.326	594.4
707.732	577.6
708.139	578.8
708.545	577.2
708.973	574.4
709.38	589.4
709.786	582.2
710.193	598
710.6	586.8
711.028	582.2
711.435	586.2
711.842	593.6
712.249	580
712.656	587.2
713.064	597.6
713.492	581.4
713.9	582.6
714.307	587.8
714.715	586.4
715.123	597.8
715.53	597
715.938	598.6
716.367	582.2
716.775	589.2
717.184	578
717.592	595.6
718	600
718.408	619.6
718.816	622
719.225	591
719.633	584.6
720.042	572.8
720.472	577.6
720.881	606.8
721.29	588.6
721.699	574.4
722.108	595.8
722.517	587.4
722.926	581
723.335	595
723.744	579.4
724.154	582
724.563	592.2
724.973	592
725.382	593.4
725.792	590
726.202	581.6
726.612	609.4
727.022	586.6
727.432	587
779.813	582
780.223	634.6
780.634	584
781.044	580.6
781.454	582.2
781.865	589.8
782.276	581
782.686	599.2
783.097	588.2
783.508	576.4
783.919	595
784.33	599.6
784.741	604.6
785.152	588.4
785.563	568.8
785.974	580.8
786.386	588
786.776	578.6
787.188	587.2
787.599	589.4
788.011	591.2
788.423	586.4
788.835	574
789.247	574.6
789.659	575.6
790.071	582.2
790.483	629.8
790.874	586.2
791.286	590.4
791.699	583.6
792.111	593.2
792.524	592.2
792.937	576.2
793.349	570.6
793.741	585.4
794.154	577.6
794.567	599.4
794.98	578.8
795.393	573.6
795.785	599.2
796.198	579
796.612	581.8
797.026	587.8
797.439	570
797.831	586
798.245	577
798.659	577.2
799.073	582
799.487	574.6
799.88	583.8
800.294	585.8
800.708	585.4
801.123	586.8
801.516	606.2
801.93	577.6
802.345	572.4
802.76	581.6
803.153	597.4
803.568	593
803.983	600.2
804.377	587.2
804.792	569.4
805.207	571.6
805.601	585.2
806.016	621.2
806.432	578.2
806.826	617.4
807.242	601.8
807.658	590.2
808.052	578.6
808.468	582
808.884	588.2
809.279	583.4
809.695	599.6
810.111	608.4
810.506	592.4
810.922	599.4
811.339	590.2
811.734	595.6
812.151	582.4
812.546	575
812.963	584.4
813.38	596.4
813.776	592
814.193	606.4
814.589	583.8
815.006	581.8
815.402	584.6
815.82	577
816.237	590.8
816.633	588.4
817.051	578
817.448	587
817.866	575.6
818.262	603.8
818.68	583.8
819.077	581.2
819.495	581.4
819.892	625.4
820.311	577.6
820.708	579.4
821.127	578.2
821.524	590.4
821.943	584.6
822.34	599
822.759	580.4
823.157	589.2
823.576	593.8
823.974	587.2
824.393	634.4
824.791	577.6
825.189	569.2
825.609	579.6
826.007	581.4
826.427	576.8
826.826	580.6
827.246	591
827.644	563.2
828.043	589.4
828.463	580
828.862	590.8
829.261	588.4
829.682	568.6
830.081	599.6
830.502	578
830.901	581.8
831.301	597.4
831.722	570.2
832.121	582.8
832.521	579.2
832.943	576.4
833.342	587.2
833.742	570.4
834.164	568.6
834.564	578.2
834.965	576.4
835.386	571
835.787	578.2
836.188	584.6
836.588	580.6
837.01	584
837.411	582.6
837.812	583.2
838.213	582.4
838.636	577.2
839.037	650.8
839.438	588
839.84	581.8
840.263	584.2
840.664	588.4
841.066	583
841.468	579.8
841.891	580.2
842.293	586.4
842.695	586
843.098	595.2
843.5	583.6
843.902	597.6
844.326	588.4
844.729	587.8
845.131	593.2
845.534	585.8
845.937	593.2
846.34	608.8
846.764	576.4
847.167	591.4
847.571	578.2
847.974	580.4
848.377	579.6
848.781	630.8
849.184	598.4
849.588	573
849.992	590.4
850.396	589.8
850.821	597
851.225	578.8
851.63	574.6
852.034	587
852.438	585.8
852.843	663.2
853.247	567
853.652	577.2
854.057	600.4
854.462	586.4
854.867	588.2
855.272	606.2
855.677	585.8
856.082	573.8
