#lambda/nm	C1
208.295	513.6
208.67	464.6
209.045	428
209.419	430.8
209.794	605.6
210.169	595.4
210.544	715.6
210.919	616.8
211.295	604.8
211.67	615.6
212.045	605
212.421	618.8
212.796	643.4
213.172	613
213.547	607.8
213.923	605.8
214.299	606.6
214.675	613.2
215.051	618.2
215.427	616.4
215.803	626.8
216.179	616.2
216.555	606.4
216.932	620.2
217.308	611.2
217.684	606.2
218.061	619.8
218.438	621.2
218.814	609.4
219.191	624.2
219.568	607
219.945	609.4
220.322	621.2
220.699	611.2
221.076	615.8
221.453	619
221.83	610.6
222.208	606.4
222.585	608.6
222.962	620.4
223.34	621
223.717	608.8
224.095	619.2
224.473	616
224.851	608.4
225.229	607.6
225.607	636.2
225.985	608.2
226.363	610
226.741	621.6
227.119	619.2
227.497	622.6
227.876	597.8
228.254	614
228.633	620.8
229.011	613.4
229.39	618.6
229.769	616.6
230.148	615.4
230.527	622.4
230.905	611.8
231.284	609.4
231.664	608.4
232.043	616.8
232.422	613
232.801	605.8
233.181	624
233.56	601.6
233.94	614.6
234.319	604.4
234.699	614.2
235.079	655.2
235.458	653
235.838	626.8
236.218	613.6
236.598	604
236.978	606.6
237.358	605
237.738	602.8
238.119	613.2
238.499	600.4
238.88	617.4
239.26	631
239.641	602
240.021	614.2
240.402	614.6
240.783	611
241.163	618.8
241.544	617.8
241.925	617
242.306	615.2
242.687	615.2
243.069	617
243.45	621.8
243.831	611.2
244.212	608.6
244.594	653.2
244.975	618.6
245.357	615.6
245.739	606.4
246.12	616
246.502	620.6
246.884	614.4
247.266	606.8
247.648	623
248.03	640.6
248.412	615.8
248.794	618.8
249.176	619.2
249.559	619.2
249.941	597.2
250.323	601.4
250.706	610.4
251.089	609.6
251.471	622
251.854	611.2
252.237	611.4
252.62	626.2
253.002	605.8
253.385	618.2
253.769	629.2
254.152	618.2
254.535	614.6
254.918	609.4
255.301	616.8
255.685	612.2
256.068	606.6
256.452	635.2
256.835	624
257.219	618.8
257.603	629.2
257.986	605.2
258.37	614.6
258.754	598.6
259.138	614.4
259.522	623
259.906	607.8
260.29	621
260.675	615.2
261.059	623.4
261.443	594.4
261.828	619.4
262.212	613.2
262.597	597.6
262.981	605.6
263.366	613.6
263.751	618.2
264.136	605.4
264.521	612.6
264.906	604
265.291	623.6
265.676	608.6
266.061	617.8
266.446	630.2
266.831	603.2
267.217	637.2
267.602	615.2
267.987	613.2
268.373	610.6
268.759	631.4
269.144	619.2
269.53	615.8
269.916	604.8
270.302	605.6
270.688	620.6
271.074	620
271.46	622.2
271.846	637.4
272.232	615.2
272.618	613.8
273.004	613.4
273.391	635.2
273.777	636.2
274.164	613.2
274.55	632.6
274.937	611.8
275.324	613.8
275.71	617
276.097	621.4
276.484	613.6
276.871	622.8
277.258	621.8
277.645	606
278.032	612.6
278.419	604.8
278.807	622.8
279.194	614.8
279.581	605.6
279.969	622.8
280.356	614.6
280.744	616
281.131	635.6
281.519	621.6
281.907	620.6
282.295	609.4
282.682	620.6
283.07	618.2
283.458	623.2
283.846	629.8
284.235	630.4
284.623	632.6
285.011	609
285.399	620
285.788	616.2
286.176	601
286.565	624.8
286.953	621.4
287.342	613.2
287.731	604
288.119	606.6
288.508	616.8
288.897	615
289.286	593.8
289.675	613.8
290.064	623
290.453	609
290.821	622.6
291.21	631.4
291.599	613.8
291.989	621.6
292.378	619.6
292.768	631.8
293.157	622
293.547	627
293.936	610
294.326	597.8
294.716	619.4
295.106	614
295.496	626.4
295.886	617.2
296.276	612
296.666	616.4
297.056	608
297.446	602.6
297.836	632.6
298.227	613
298.617	615.2
299.008	625.2
299.398	611.6
299.789	610.4
300.179	615.2
300.57	626.2
300.961	608.6
301.352	613
301.742	616
302.133	618.4
302.524	613.6
302.915	612
303.307	604.2
303.698	629.4
304.089	612
304.48	614.2
304.872	616.6
305.263	612.6
305.655	612.6
306.046	621.8
306.438	619.2
306.829	617.4
307.221	629
307.613	625
308.005	624
308.397	635.4
308.789	635
309.181	643.4
309.573	628.6
309.965	635.8
310.357	622
310.749	626.6
311.142	605.6
311.534	609
311.926	626.4
312.319	616.4
312.711	611.6
313.104	628
313.497	615.4
313.889	663.6
314.282	629.8
314.675	638.4
315.068	618
315.461	620.6
315.854	641.4
316.247	627.6
316.64	611.6
317.033	610.8
317.405	620.2
317.798	618.2
318.192	622.8
318.585	611.2
318.979	621.2
319.372	614.8
319.766	612.4
320.16	621.2
320.553	631.2
320.947	640
321.341	611.6
321.735	613.8
322.129	609.6
322.523	640.8
322.917	611.4
323.311	630.2
323.705	616.4
324.099	627.8
324.494	627.8
324.888	627.6
325.282	617
325.677	624.6
326.071	622
326.466	628.4
326.861	620.8
327.255	640.6
327.65	625.2
328.045	631.6
328.44	614.6
328.835	606.6
329.23	607.6
329.625	637.6
330.02	606.4
330.415	637.6
330.81	623.4
331.206	618.4
331.601	610.6
331.996	627.2
332.37	634.2
332.766	610.6
333.161	642.6
333.557	614.6
333.953	611.8
334.348	981.6
334.744	620.2
335.14	608
335.536	613.2
335.932	631
336.328	608.6
336.724	628.8
337.12	611.2
337.516	616.4
337.913	612
338.309	630.8
338.705	611.6
339.102	624.6
339.498	610
339.895	625.4
340.291	609.4
340.688	627.6
341.085	614
341.481	614.4
341.878	609.6
342.275	644.8
342.672	606.8
343.069	610.6
343.466	607.4
343.842	615.2
344.239	607.4
344.636	605.4
345.033	602
345.431	609.4
345.828	618.8
346.225	613.8
346.623	649.6
347.02	607.4
347.418	627
347.816	633.8
348.213	602.6
348.611	623
349.009	607
349.407	620.4
349.805	596.4
350.203	608.4
350.601	626.6
350.999	611.8
351.397	670.2
351.795	609
352.193	624.2
352.57	618.6
352.969	617.4
353.367	595.6
353.766	606.8
354.164	606.8
354.563	623.2
354.961	611.4
355.36	607.2
355.759	602.6
356.158	608.4
356.557	607
356.956	601.2
357.355	597.4
357.754	612.4
358.153	611
358.552	633.2
358.951	601.6
359.35	623
359.75	604.8
360.149	609.6
360.527	601.4
360.926	607.6
361.326	618.2
361.726	610
362.125	606.8
362.525	614
362.925	608
363.325	602
363.724	604.8
364.124	603.8
364.524	604.2
364.924	610
365.324	613.4
365.725	590.2
366.125	615
366.525	618.8
366.904	595.4
367.304	590.8
367.705	621.8
368.105	619.8
368.506	605.2
368.906	616.2
369.307	609.8
369.708	617.4
370.108	601.2
370.509	606.4
370.91	600.6
371.311	604.8
371.712	613.2
372.113	611.6
372.514	599
372.894	611.8
373.295	600.8
373.696	628
374.097	613.2
374.499	640.2
374.9	607.6
375.301	606.6
375.703	605
376.105	605.8
376.506	615.6
376.908	614
377.309	611
377.711	609.2
378.113	607.8
378.493	607.4
378.895	605.4
379.297	615.2
379.699	590.8
380.102	617
380.504	607
380.906	603.8
381.308	624.2
381.71	608.6
382.113	625.6
382.515	604.2
382.918	605.2
383.299	599.4
383.701	610.8
384.104	609.2
384.507	590.2
384.909	597
385.312	591.4
385.715	598.6
386.118	604.6
386.521	597
386.924	609.2
387.327	595.2
387.709	599.4
388.112	594.4
388.515	599.4
388.918	604.6
389.322	611.4
389.725	602.8
390.129	633.2
390.532	615.6
390.936	603.2
391.339	602.8
391.743	610.8
392.125	593.8
392.529	607.6
392.933	624
393.337	611.2
393.74	601.6
394.144	618.2
394.548	603.4
394.953	607
395.357	614.2
395.761	606.8
396.144	609
396.548	610.8
396.952	610.2
397.357	609
397.761	604.4
398.166	599.8
398.57	605.6
398.975	600.8
399.379	611.2
399.763	665.4
400.168	611.8
400.572	611.8
400.977	607
401.382	624.2
401.787	615.8
402.192	621.4
402.597	625.4
403.002	595.4
403.386	620.6
403.791	624.2
404.197	605
404.602	614.6
405.007	606.2
405.413	599.2
405.818	603.4
406.224	605.6
406.608	604.4
407.014	600.2
407.42	623.8
407.825	604.4
408.231	621.8
408.637	609.8
409.043	627.4
409.449	604.4
409.834	602.2
410.24	614.8
410.646	610.8
411.052	619.6
411.458	612.6
411.865	606.4
412.271	614
412.677	611.8
413.062	606.8
413.469	596
413.875	627.8
414.282	617
414.689	609.2
415.095	611.2
415.502	593.4
415.888	609.2
416.294	596.2
416.701	649.4
417.108	601.6
417.515	615.2
417.923	603.8
418.33	629.6
418.715	620.2
419.123	612.4
419.53	606.6
419.937	610.8
420.345	619
420.752	609.2
421.16	625.4
421.546	607.2
421.953	622.4
422.361	606.6
422.769	606.2
423.177	605.4
423.585	632.4
423.992	621
424.379	622.8
424.787	616.6
425.195	634.8
425.603	610
426.011	627.2
426.419	622
426.806	610.8
427.214	612.6
427.623	618
428.031	622.6
428.44	615.4
428.848	617.4
429.235	628.4
429.644	611
430.053	618.4
430.461	636.4
430.87	642.6
431.279	627.2
431.666	611
432.075	623.4
432.484	640.6
432.893	625.2
433.302	655.6
433.711	666.2
434.099	644.4
434.508	647
434.918	640.6
435.327	660.4
435.737	673.8
436.125	671.8
436.534	673.8
436.944	680
437.353	682.2
437.763	711
438.173	695.6
438.561	717
438.971	698.2
439.381	712.8
439.791	719
440.201	711.4
440.589	726.4
440.999	747.8
441.409	738.2
441.819	736
442.23	763.6
442.619	758.4
443.029	759.4
443.439	775.4
443.85	776
444.26	788.2
444.649	790
445.06	788.8
445.471	790.4
445.881	802.2
446.292	815.6
446.682	824.6
447.092	786.2
447.503	848.4
447.914	811.4
448.325	808.8
448.715	813.6
449.126	805.2
449.537	819.4
449.948	814
450.338	814.4
450.75	838.8
451.161	816.6
451.572	823.2
451.984	836.6
452.374	803.8
452.786	823
453.197	831.2
453.609	834.2
453.999	818.8
454.411	828.6
454.823	843.2
455.235	831.6
455.647	829.4
456.037	825.2
456.449	819
456.862	832.2
457.274	834
457.665	824.8
458.077	830.8
458.489	853.4
458.902	826.8
459.293	837.6
459.705	831.6
460.118	825
460.53	833.4
460.921	826
461.334	837.2
461.747	846
462.16	860.6
462.551	848
462.964	838.2
463.377	825
463.79	833.4
464.182	851.2
464.595	831.4
465.008	849.4
465.421	846.6
465.813	835.4
466.226	842.4
466.64	845.4
467.053	887.2
467.445	847.6
467.859	856.8
468.272	837.4
468.686	839.8
469.078	831.2
469.492	826.8
469.906	838.6
470.298	841.8
470.712	832.8
471.126	877.4
471.54	826.4
471.933	824.2
472.347	827.6
472.761	827.6
473.175	814.4
473.568	823.4
473.982	812.2
474.397	834.4
474.79	823
475.204	832.6
475.619	819.6
476.033	825.8
476.426	827.6
476.841	824.6
477.256	845.6
477.649	819.4
478.064	815.2
478.479	812.2
478.872	805.8
479.287	809.6
479.702	809
480.118	818.2
480.511	808
480.927	804
481.342	807.8
481.736	811.2
482.151	802.6
482.566	813.2
482.96	806.2
483.376	813.2
483.792	811.2
484.186	809.8
484.602	806
485.017	795.6
485.412	801.8
485.827	803.4
486.243	808.8
486.638	823.8
487.054	812.6
487.47	803
487.865	788.4
488.281	787.8
488.697	780.6
489.092	797.4
489.508	785.8
489.925	801.6
490.32	776.4
490.736	797.6
491.153	779.8
491.548	783.8
491.964	795.2
492.381	772.8
492.776	784.6
493.193	769.4
493.61	791.6
494.006	775.2
494.422	783.2
494.84	765
495.235	781.6
495.652	762.6
496.069	780
496.465	765.4
496.883	763.4
497.3	795.8
497.696	763.8
498.113	773
498.509	758.6
498.927	746
499.344	752.2
499.741	751
500.158	767.6
500.576	765.4
500.973	757.4
501.39	741.4
501.787	755.4
502.205	746.2
502.623	742.4
503.02	736.8
503.438	745
503.856	742
504.253	748
504.671	740.2
505.068	734.2
505.486	742.2
505.905	761.6
506.302	736.6
506.72	750.6
507.118	744.2
507.536	733
507.955	724.4
508.352	736.4
508.771	731.4
509.169	735
509.587	724.6
510.006	728.4
510.404	704.4
510.823	711.8
511.221	718.4
511.64	714.4
512.038	734.2
512.457	709
512.877	712.6
513.275	711.6
513.694	706
514.092	700
514.512	710.2
514.91	717.6
515.33	709.8
515.749	706.6
516.148	709.2
516.568	706.6
516.966	705.8
517.386	702
517.785	705.2
518.205	700.8
518.603	692.4
519.024	693.4
519.444	697.8
519.843	708.6
520.263	718.2
520.662	697
521.082	685.4
521.481	697.2
521.902	688.6
522.301	698
522.722	690.2
523.121	678.6
523.542	690.4
523.963	677.8
524.362	687.6
524.783	689.8
525.183	684.6
525.604	684.6
526.003	681.8
526.425	672.6
526.824	681.2
527.246	694.6
527.646	689.6
528.067	683.4
528.467	669.4
528.888	670.4
529.289	674.4
529.71	674.2
530.11	665.4
530.532	673.8
530.932	670.8
531.354	659
531.755	707.8
532.176	678.8
532.577	676.8
532.999	666
533.4	659.6
533.822	677.4
534.223	677.4
534.645	657.8
535.046	653
535.468	664.6
535.869	673.4
536.292	665.6
536.693	690.2
537.115	666.2
537.516	651.2
537.939	653.2
538.34	674.8
538.742	673
539.165	656
539.566	661.2
539.989	651
540.391	654.6
540.814	664.2
541.216	652
541.639	654.4
542.041	664.2
542.464	654.2
542.866	639
543.268	649.8
543.691	650.4
544.093	659.2
544.517	681.8
544.919	646
545.343	675.2
545.745	641
546.147	650
546.571	642
546.974	633.8
547.398	653.6
547.8	659.8
548.224	649.2
548.627	637.2
549.03	651.6
549.454	638.8
549.857	635.4
550.281	637.6
550.684	639.8
551.087	654.8
551.512	646
551.915	649
552.34	643
552.743	636.6
553.146	645
553.571	638.4
553.975	659.6
554.399	631.8
554.803	680.2
555.207	636.2
555.632	635.8
556.036	649.8
556.461	618.4
556.865	638.8
557.268	638.6
557.694	636.4
558.098	652.8
558.502	650.4
558.927	630.6
559.332	627
559.736	637.8
560.162	632.6
560.566	636.6
560.992	636
561.396	634.8
561.801	629.2
562.227	629.4
562.631	636.2
563.036	635
563.462	638
563.867	637
564.272	620.4
564.698	635.6
565.103	613.4
565.508	643.4
565.935	628.8
566.34	630.6
566.745	640.8
567.172	625
567.577	642
567.982	634.2
568.409	626.6
568.815	628
569.22	629.4
569.626	634.4
570.053	615.8
570.459	627.4
570.865	631.4
571.292	623.4
571.698	630.2
572.104	612.4
572.531	620
572.937	634.6
573.343	618.2
573.75	609
574.177	621
574.583	623
574.99	615.2
575.396	632
575.824	617.6
576.231	627.4
576.637	614.2
577.065	639
577.472	618.8
577.879	613
578.286	636.6
578.714	615.4
579.121	619.8
579.528	616.6
579.935	621.6
580.364	612.6
580.771	601.6
581.178	608
581.585	613.6
582.014	620.4
582.421	614.4
582.829	612.6
583.236	618.8
583.644	609.8
584.073	611.6
584.481	612.4
584.889	609.6
585.296	619.2
585.726	617
586.134	602.6
586.542	596.6
586.95	629.4
587.358	605.6
587.787	615.4
588.196	625
588.604	613.6
589.012	606.8
589.421	601
589.851	609.6
590.259	608
590.668	608.4
591.076	651
591.485	605
591.894	605.4
592.324	624.2
592.733	616.6
593.142	595
593.551	599.2
593.96	641
594.369	595.6
594.8	596.4
595.209	605.8
595.618	598.4
596.028	604
596.437	599.2
596.847	617.2
597.256	603.2
597.687	602.6
598.097	606.8
598.507	592.8
598.917	605
599.327	611
599.736	605
600.146	602
600.556	603.8
600.988	616.6
601.398	599.4
601.808	610
602.219	592.2
602.629	610
603.039	607.2
603.45	630
603.86	603
604.271	615
604.703	600.8
605.114	602.4
605.525	609.2
605.935	603.2
606.346	617.2
606.757	602.4
607.168	602.4
607.579	598.4
607.99	610.4
608.402	600.6
608.813	600.2
609.224	600
609.636	591.6
610.047	607
610.48	609.8
610.892	600.2
611.303	603.8
611.715	599.4
612.127	588.6
612.539	589.2
612.95	613.2
613.362	592.4
613.774	595.4
614.186	593.2
614.599	588.6
615.011	604.2
615.423	604.2
615.835	592.4
616.248	587.4
616.66	595.2
617.073	588.8
617.485	586.8
617.898	597.2
618.311	593.8
618.723	594.4
619.136	628.6
619.549	605.2
619.962	621.4
620.375	589.2
620.788	596.6
621.201	593.2
621.614	602
622.028	591.6
622.441	599.6
622.854	600.8
623.268	586
623.681	598
624.095	595.2
624.509	605
624.922	598.6
625.336	583.8
625.728	586
626.142	602.4
626.556	603.6
626.97	606.2
627.384	596
627.799	591.8
628.213	602.4
628.627	594
629.041	598.4
629.456	589.4
629.87	589.4
630.285	597.4
630.699	605
631.093	605.8
631.507	593
631.922	605.8
632.337	606.8
632.752	583.4
633.167	595.2
633.582	595.8
633.997	597.2
634.412	589.6
634.806	602.2
635.221	586.2
635.637	602.6
636.052	589.8
636.468	588.6
636.883	612.2
637.299	593.4
637.715	580.4
638.109	594
638.525	589.4
638.941	605.2
639.357	584.4
639.773	603
640.189	583
640.584	587
641	590
641.416	575.8
641.832	588.4
642.249	586.6
642.665	593.8
643.06	590
643.477	601.8
643.894	585
644.31	590
644.727	588.2
645.123	595
645.54	584.2
645.957	592.8
646.374	602.6
646.77	593.2
647.187	617.8
647.604	586.2
648.021	574.4
648.439	582
648.835	597.8
649.252	589.8
649.67	590
650.088	583
650.484	595.4
650.902	594.2
651.32	606.4
651.738	584.6
652.134	599
652.552	607.4
652.971	600
653.389	590.8
653.786	602.2
654.204	615.6
654.622	584.4
655.019	594.8
655.438	598.4
655.857	596.4
656.275	602.8
656.673	582
657.091	600
657.51	582
657.908	598.8
658.327	609.8
658.746	587.8
659.144	592.8
659.563	606
659.982	594.6
660.38	584.6
660.8	593.6
661.219	601.8
661.617	594.6
662.037	596.8
662.457	601.6
662.855	575
663.275	619.8
663.695	586.2
664.094	589.4
664.514	599.4
664.934	587.4
665.333	602.8
665.753	584.4
666.152	579.4
666.572	584
666.993	598.8
667.392	579.4
667.812	595
668.212	589.2
668.632	605.2
669.053	592.4
669.453	601.2
669.874	590.2
670.273	590
670.694	579
671.116	597.8
671.515	598.4
671.937	579.8
672.337	582.6
672.758	579.8
673.158	593.2
673.58	578.8
673.98	591.8
674.402	603.6
674.824	583
675.224	581
675.646	579.2
676.047	584.2
676.469	593.8
676.869	596.4
677.292	593.4
677.693	587.2
678.115	577.4
678.516	591
678.939	594.4
679.34	584.8
679.762	596.6
680.164	592.8
680.586	581
680.988	592
681.411	615.4
681.812	582.4
682.236	579.2
682.637	590
683.061	582.2
683.462	595
683.864	587.6
684.288	591.2
684.69	578.8
685.114	593.6
685.516	596.2
685.94	585.6
686.342	602.2
686.766	577
687.168	583.4
687.571	604.4
687.995	592.6
688.398	576.6
688.822	590.8
689.225	603.2
689.628	605.6
690.052	589.8
690.456	592
690.88	588.2
691.284	578.4
691.687	592.8
692.112	577.6
692.515	576
692.919	584.6
693.344	591.4
693.747	589.4
694.173	578.2
694.577	602.4
694.98	583.6
695.406	590.6
695.81	591.6
696.214	589.6
696.64	591.2
697.044	588
697.448	595
697.874	588.2
698.279	590.2
698.684	570.6
699.11	585.8
699.514	580
699.919	581.2
700.324	577.8
700.75	591.4
701.156	582.6
701.561	599.4
701.987	590.2
702.393	596.2
702.798	594.8
703.203	592.4
703.63	579.2
704.036	586.8
704.442	599.8
704.847	583.8
705.274	592.2
705.68	583
706.086	598.4
706.492	577
706.92	586.8
707.326	601.6
707.732	582.8
708.139	582.8
708.545	580.6
708.973	579.6
709.38	584.2
709.786	576.4
710.193	599.6
710.6	583.2
711.028	583.4
711.435	583.4
711.842	588.2
712.249	580.6
712.656	581
713.064	590.8
713.492	576.2
713.9	583.8
714.307	588.6
714.715	587
715.123	597.6
715.53	587.8
715.938	589.8
716.367	589.4
716.775	586.8
717.184	575.8
717.592	573.4
718	601.8
718.408	617.2
718.816	626.6
719.225	585
719.633	584
720.042	578.4
720.472	576.6
720.881	600.8
721.29	590.6
721.699	572.2
722.108	580.8
722.517	580
722.926	578
723.335	590.4
723.744	582.8
724.154	584
724.563	579.6
724.973	590.2
725.382	595.2
725.792	586.6
726.202	568.2
726.612	603.2
727.022	578.8
727.432	580.2
779.813	584.6
780.223	628.4
780.634	584.8
781.044	580.4
781.454	584.2
781.865	597
782.276	578.4
782.686	595
783.097	578.8
783.508	579.4
783.919	577
784.33	586.6
784.741	598
785.152	575
785.563	569.2
785.974	574.4
786.386	595.2
786.776	583.4
787.188	577.4
787.599	572.6
788.011	591.2
788.423	579.6
788.835	575.4
789.247	569.8
789.659	574.6
790.071	579.8
790.483	628.2
790.874	575.4
791.286	596.4
791.699	578.8
792.111	584.2
792.524	581.4
792.937	583.6
793.349	569.4
793.741	576.6
794.154	578.4
794.567	595.6
794.98	587.2
795.393	577
795.785	590
796.198	578.2
796.612	587.6
797.026	573.6
797.439	566.6
797.831	577.2
798.245	567.4
798.659	579.8
799.073	576.8
799.487	569.2
799.88	588.4
800.294	580.2
800.708	578.2
801.123	584
801.516	603.4
801.93	580
802.345	570.6
802.76	577
803.153	597.4
803.568	591
803.983	584.4
804.377	587.2
804.792	572.2
805.207	570.2
805.601	585
806.016	619.8
806.432	575.8
806.826	610.4
807.242	586.6
807.658	582.6
808.052	582
808.468	579.4
808.884	581.6
809.279	584.2
809.695	596
810.111	606
810.506	590.8
810.922	590.8
811.339	571.8
811.734	589
812.151	584.4
812.546	575.8
812.963	579.4
813.38	589
813.776	587.8
814.193	606.2
814.589	576.6
815.006	584.8
815.402	578
815.82	581.2
816.237	588.4
816.633	593.4
817.051	576.4
817.448	583.2
817.866	569
818.262	597.4
818.68	571.6
819.077	576.4
819.495	572.8
819.892	618.4
820.311	572.6
820.708	579.6
821.127	568.4
821.524	597.8
821.943	573
822.34	596.6
822.759	582.4
823.157	586
823.576	592.6
823.974	584.2
824.393	633.2
824.791	572.4
825.189	578.2
825.609	576.6
826.007	588
826.427	565.8
826.826	573
827.246	584.2
827.644	572
828.043	594.2
828.463	576.4
828.862	590.2
829.261	591
829.682	570
830.081	592.8
830.502	569.4
830.901	588.8
831.301	584.8
831.722	574
832.121	579.6
832.521	574.8
832.943	585.6
833.342	579.2
833.742	579.6
834.164	581.8
834.564	568.4
834.965	570.8
835.386	583.2
835.787	579.8
836.188	578.6
836.588	585.4
837.01	583.8
837.411	566.8
837.812	592.4
838.213	587.8
838.636	583.8
839.037	648.2
839.438	585
839.84	578.4
840.263	583.8
840.664	579.6
841.066	586
841.468	580.4
841.891	574
842.293	598.4
842.695	586.6
843.098	581.4
843.5	578.2
843.902	580.8
844.326	585
844.729	585
845.131	592.2
845.534	584
845.937	600.6
846.34	598.4
846.764	579
847.167	587.6
847.571	573.8
847.974	583.6
848.377	584.4
848.781	633.6
849.184	590.6
849.588	570
849.992	590.4
850.396	583.8
850.821	601.2
851.225	591.2
851.63	571.4
852.034	596.8
852.438	589.4
852.843	659.6
853.247	579
853.652	579.4
854.057	593.4
854.462	578.2
854.867	586
855.272	612.4
855.677	583.2
856.082	567.4
