#lambda/nm	C1
208.295	505.8
208.67	469
209.045	422.4
209.419	430.6
209.794	615.2
210.169	599.4
210.544	721.2
210.919	621.2
211.295	611.8
211.67	617.4
212.045	603.6
212.421	610.8
212.796	657.6
213.172	608.6
213.547	615.6
213.923	605
214.299	609.2
214.675	618.4
215.051	625
215.427	624.6
215.803	639
216.179	622.2
216.555	611.8
216.932	618.2
217.308	615.4
217.684	606
218.061	618
218.438	618.8
218.814	611.6
219.191	619.8
219.568	608
219.945	603.6
220.322	624
220.699	615.6
221.076	624.4
221.453	613.4
221.83	616.8
222.208	612.4
222.585	616
222.962	619.2
223.34	621.4
223.717	621
224.095	608.4
224.473	622.2
224.851	611.6
225.229	605.4
225.607	630.4
225.985	601.6
226.363	624.4
226.741	609.2
227.119	609
227.497	634.2
227.876	603.8
228.254	632
228.633	622.2
229.011	611.8
229.39	621.2
229.769	622.2
230.148	622.6
230.527	630
230.905	614.6
231.284	618
231.664	612.8
232.043	630.4
232.422	623.2
232.801	612.4
233.181	621.2
233.56	609
233.94	622.4
234.319	612
234.699	606.4
235.079	656.2
235.458	657
235.838	648.8
236.218	604.8
236.598	600.6
236.978	621.8
237.358	619
237.738	604.2
238.119	628.6
238.499	607.2
238.88	618.2
239.26	630
239.641	612.4
240.021	608.4
240.402	612.2
240.783	614.8
241.163	614.2
241.544	618.2
241.925	615.6
242.306	626.2
242.687	623.6
243.069	611.4
243.45	621.4
243.831	603
244.212	617.8
244.594	651.2
244.975	625.8
245.357	615.6
245.739	614.4
246.12	618.4
246.502	631.4
246.884	611.6
247.266	612.4
247.648	615.4
248.03	641
248.412	615.6
248.794	615.6
249.176	603.8
249.559	620.2
249.941	617.8
250.323	597
250.706	608.8
251.089	612
251.471	618.8
251.854	615.2
252.237	612.2
252.62	628.2
253.002	614.6
253.385	618.2
253.769	631.4
254.152	617.6
254.535	624.4
254.918	607.8
255.301	606.6
255.685	615.4
256.068	604
256.452	639.4
256.835	620.4
257.219	621.6
257.603	633.8
257.986	613.6
258.37	625.4
258.754	607.2
259.138	626.8
259.522	626.2
259.906	612.4
260.29	629
260.675	610.6
261.059	612.2
261.443	609.4
261.828	613.8
262.212	622.8
262.597	601.2
262.981	610
263.366	630.6
263.751	615.6
264.136	611.8
264.521	598.4
264.906	602
265.291	618.2
265.676	614.8
266.061	624
266.446	627.6
266.831	614.6
267.217	636.8
267.602	615.4
267.987	620
268.373	606.8
268.759	630.8
269.144	620
269.53	613.2
269.916	613.8
270.302	610.2
270.688	621.2
271.074	615.6
271.46	626
271.846	652.4
272.232	627.2
272.618	608.2
273.004	610.2
273.391	633.8
273.777	633.6
274.164	621
274.55	626.2
274.937	619.4
275.324	615.4
275.71	622.8
276.097	628.4
276.484	602
276.871	616.8
277.258	629.4
277.645	609
278.032	613.4
278.419	611
278.807	619
279.194	599.8
279.581	613.8
279.969	617.2
280.356	624.8
280.744	612.4
281.131	640.4
281.519	624.4
281.907	610.4
282.295	616.6
282.682	624.2
283.07	624.2
283.458	629.6
283.846	624.2
284.235	631.4
284.623	621.2
285.011	609.2
285.399	619.8
285.788	614.4
286.176	608.6
286.565	626.4
286.953	611.6
287.342	623.8
287.731	610.8
288.119	614.6
288.508	621.2
288.897	619
289.286	609.8
289.675	612
290.064	635
290.453	613.6
290.821	620.6
291.21	637
291.599	617.2
291.989	624
292.378	621
292.768	639.8
293.157	624.8
293.547	629
293.936	611.4
294.326	612.6
294.716	620.8
295.106	603.8
295.496	619.8
295.886	616
296.276	612.6
296.666	613
297.056	615.2
297.446	610.2
297.836	626.4
298.227	606.2
298.617	612.6
299.008	633.8
299.398	611
299.789	610
300.179	614.8
300.57	628.6
300.961	619.8
301.352	617.8
301.742	618.8
302.133	614.6
302.524	619.2
302.915	615.2
303.307	611.6
303.698	626
304.089	622.6
304.48	612.2
304.872	621.6
305.263	619.2
305.655	615
306.046	621.6
306.438	614.8
306.829	609.6
307.221	622
307.613	623.2
308.005	630.6
308.397	631
308.789	637.2
309.181	639.6
309.573	635.6
309.965	631.8
310.357	618.2
310.749	632.4
311.142	607.6
311.534	611
311.926	626.8
312.319	620.8
312.711	610.4
313.104	630.4
313.497	613.8
313.889	655
314.282	640.2
314.675	640.8
315.068	625.8
315.461	621
315.854	650
316.247	624.6
316.64	611.6
317.033	615.8
317.405	630.2
317.798	620.4
318.192	623.8
318.585	608.8
318.979	618.2
319.372	611.2
319.766	616
320.16	624
320.553	638
320.947	639
321.341	618.2
321.735	613
322.129	613
322.523	649.8
322.917	615.4
323.311	630.8
323.705	623.6
324.099	628.8
324.494	638.8
324.888	634.6
325.282	612
325.677	631
326.071	626.6
326.466	626.4
326.861	619.8
327.255	627.4
327.65	628.2
328.045	647.8
328.44	619.4
328.835	622.8
329.23	615.4
329.625	654.4
330.02	610.8
330.415	642.8
330.81	615.2
331.206	629
331.601	621.4
331.996	624.8
332.37	640.6
332.766	612
333.161	644.2
333.557	609.8
333.953	615.2
334.348	963.6
334.744	617
335.14	619.2
335.536	610.6
335.932	628.2
336.328	621.2
336.724	626.6
337.12	617.4
337.516	619.2
337.913	620.2
338.309	631.2
338.705	615.8
339.102	630
339.498	614.2
339.895	637.6
340.291	621.4
340.688	636.6
341.085	611
341.481	612
341.878	612.2
342.275	639.6
342.672	612.8
343.069	612.2
343.466	607.4
343.842	627
344.239	610.2
344.636	615.4
345.033	600.8
345.431	613
345.828	614.4
346.225	616.4
346.623	642.6
347.02	611.6
347.418	619.8
347.816	624
348.213	605
348.611	622.2
349.009	610.8
349.407	623.2
349.805	601.6
350.203	605
350.601	625.6
350.999	619
351.397	658
351.795	623.6
352.193	629.8
352.57	622.2
352.969	628.8
353.367	607.6
353.766	609.8
354.164	620
354.563	628.4
354.961	616.4
355.36	610.6
355.759	616.2
356.158	605
356.557	604.2
356.956	608.8
357.355	608.4
357.754	610.2
358.153	616
358.552	634.2
358.951	613.6
359.35	625.6
359.75	606.8
360.149	599.4
360.527	601
360.926	599.6
361.326	620.6
361.726	609.6
362.125	610.2
362.525	611.2
362.925	607
363.325	617
363.724	610.2
364.124	610.2
364.524	609
364.924	613.8
365.324	623.6
365.725	597
366.125	618.4
366.525	608.8
366.904	598.2
367.304	591.6
367.705	630
368.105	621.4
368.506	609.8
368.906	620.2
369.307	608.2
369.708	619.6
370.108	604.4
370.509	616.6
370.91	607.4
371.311	617.2
371.712	613.2
372.113	606.2
372.514	609.2
372.894	609.4
373.295	612.8
373.696	619.6
374.097	614.2
374.499	638.2
374.9	606.6
375.301	601.2
375.703	612
376.105	611.2
376.506	606.6
376.908	624.8
377.309	616.8
377.711	609.2
378.113	609.6
378.493	611.8
378.895	610.6
379.297	612.4
379.699	597
380.102	613.2
380.504	597.4
380.906	604.8
381.308	637.6
381.71	610.2
382.113	613.8
382.515	602.4
382.918	605
383.299	606.2
383.701	622.4
384.104	604.8
384.507	594
384.909	607.6
385.312	595.6
385.715	601.4
386.118	609.6
386.521	596.2
386.924	622.8
387.327	605.4
387.709	600
388.112	599.8
388.515	604.2
388.918	606
389.322	612.6
389.725	610
390.129	624.2
390.532	617.6
390.936	607.2
391.339	604.6
391.743	613.4
392.125	599.4
392.529	616.8
392.933	624.2
393.337	615.8
393.74	603
394.144	611.4
394.548	601
394.953	610.4
395.357	611.6
395.761	614.4
396.144	611.6
396.548	610.6
396.952	607.2
397.357	611.2
397.761	599.8
398.166	601.2
398.57	600
398.975	609.4
399.379	610.2
399.763	660
400.168	615
400.572	611.2
400.977	601.8
401.382	634
401.787	619
402.192	622.8
402.597	622.2
403.002	591.6
403.386	620
403.791	630
404.197	598
404.602	603.6
405.007	610.6
405.413	607
405.818	600.4
406.224	597.4
406.608	601.8
407.014	598.6
407.42	624.8
407.825	607
408.231	619
408.637	606.6
409.043	620.4
409.449	603.2
409.834	595.8
410.24	616.4
410.646	627.4
411.052	620.4
411.458	616.4
411.865	615
412.271	623.6
412.677	610.4
413.062	611.2
413.469	610.6
413.875	634.6
414.282	623.6
414.689	613.6
415.095	620
415.502	604.8
415.888	613.8
416.294	598.2
416.701	657
417.108	603
417.515	620.4
417.923	613.8
418.33	629.6
418.715	624
419.123	609.4
419.53	610.8
419.937	615.6
420.345	618.4
420.752	611.2
421.16	625
421.546	620.6
421.953	612.4
422.361	604
422.769	615.2
423.177	603.8
423.585	635.2
423.992	629.4
424.379	628.6
424.787	621.8
425.195	630.6
425.603	610.4
426.011	627.4
426.419	628.6
426.806	611.6
427.214	613
427.623	620.6
428.031	634.6
428.44	617.4
428.848	622
429.235	633.8
429.644	613.8
430.053	616.2
430.461	637.4
430.87	642.4
431.279	625.2
431.666	622.8
432.075	623.6
432.484	630.2
432.893	615.2
433.302	649.2
433.711	673.4
434.099	642.6
434.508	637.8
434.918	638.4
435.327	660.4
435.737	649.2
436.125	662.6
436.534	668.6
436.944	679
437.353	680
437.763	708
438.173	675
438.561	709.2
438.971	685
439.381	707.4
439.791	717.6
440.201	700.4
440.589	730
440.999	738
441.409	733.8
441.819	723
442.23	751
442.619	756.8
443.029	770.4
443.439	766.2
443.85	779.8
444.26	791.4
444.649	783
445.06	774.4
445.471	778.8
445.881	795.6
446.292	808
446.682	826.4
447.092	789.4
447.503	852.8
447.914	816.6
448.325	801.2
448.715	805.2
449.126	808
449.537	813
449.948	820.8
450.338	832.8
450.75	827.4
451.161	840.8
451.572	839.2
451.984	825.6
452.374	819.8
452.786	830.2
453.197	841.6
453.609	841.6
453.999	825.8
454.411	834.8
454.823	853
455.235	847.6
455.647	857.2
456.037	845
456.449	823.4
456.862	848.2
457.274	857.4
457.665	840.4
458.077	849.2
458.489	889.4
458.902	852.2
459.293	858.2
459.705	858.4
460.118	857
460.53	863
460.921	853
461.334	858.8
461.747	859.2
462.16	870.4
462.551	872.4
462.964	873.2
463.377	850.2
463.79	855.8
464.182	876
464.595	857.8
465.008	873
465.421	875.4
465.813	860
466.226	878.6
466.64	875.6
467.053	914.8
467.445	875.8
467.859	896.4
468.272	881.8
468.686	885.4
469.078	874.8
469.492	857.4
469.906	882.8
470.298	880.2
470.712	874
471.126	923
471.54	859.6
471.933	869.2
472.347	878.2
472.761	859.6
473.175	846.4
473.568	864.4
473.982	870.4
474.397	875.4
474.79	869.4
475.204	873.8
475.619	860.8
476.033	865.6
476.426	860.4
476.841	860.2
477.256	880.6
477.649	862.2
478.064	856.4
478.479	856.4
478.872	858.4
479.287	837.2
479.702	849
480.118	855.8
480.511	850.2
480.927	840.2
481.342	848.4
481.736	841.8
482.151	855
482.566	863
482.96	849.2
483.376	868.2
483.792	845.4
484.186	854.6
484.602	841.4
485.017	845.6
485.412	836.2
485.827	849.8
486.243	837.6
486.638	860
487.054	852.8
487.47	843.4
487.865	831.6
488.281	827
488.697	820
489.092	822.4
489.508	822.6
489.925	842
490.32	816.4
490.736	832.2
491.153	824.8
491.548	826
491.964	842.8
492.381	813.6
492.776	820.4
493.193	817.2
493.61	820.4
494.006	821.8
494.422	815
494.84	788.8
495.235	819.2
495.652	803.4
496.069	813.8
496.465	800.6
496.883	801
497.3	814.8
497.696	799
498.113	809.4
498.509	793.2
498.927	779.8
499.344	786.4
499.741	785
500.158	794
500.576	802.6
500.973	792
501.39	784
501.787	778.4
502.205	794.8
502.623	772.6
503.02	767.4
503.438	780.2
503.856	780.6
504.253	779.4
504.671	771.6
505.068	768.2
505.486	759.6
505.905	787.4
506.302	775.2
506.72	777
507.118	766
507.536	760
507.955	760.8
508.352	759.4
508.771	761
509.169	760
509.587	751.4
510.006	755.6
510.404	743.8
510.823	744.6
511.221	751
511.64	741.2
512.038	756.8
512.457	745
512.877	738.4
513.275	735.6
513.694	742.4
514.092	739
514.512	737.4
514.91	742.2
515.33	733.2
515.749	725.6
516.148	742.8
516.568	744.6
516.966	727.2
517.386	730.2
517.785	720.8
518.205	726.6
518.603	720.4
519.024	712.6
519.444	722.4
519.843	729.2
520.263	728.8
520.662	727.2
521.082	714
521.481	719
521.902	720.4
522.301	714.6
522.722	703.6
523.121	705
523.542	709.2
523.963	711.4
524.362	714.4
524.783	701.8
525.183	698.6
525.604	709.4
526.003	686.2
526.425	693.8
526.824	711.2
527.246	715.6
527.646	706.6
528.067	693.4
528.467	700.2
528.888	697.4
529.289	697.6
529.71	686.4
530.11	691
530.532	691.2
530.932	681.4
531.354	688
531.755	725.8
532.176	691
532.577	688.2
532.999	687.4
533.4	680.6
533.822	690.4
534.223	680.4
534.645	674.4
535.046	675.4
535.468	674
535.869	678.6
536.292	671.2
536.693	709
537.115	671
537.516	674.2
537.939	662.6
538.34	694
538.742	686.4
539.165	669
539.566	669.4
539.989	659.8
540.391	665.8
540.814	664.8
541.216	672.6
541.639	663.6
542.041	684
542.464	656.8
542.866	661.8
543.268	659
543.691	673
544.093	660.2
544.517	689.6
544.919	656
545.343	690.8
545.745	655.4
546.147	670
546.571	658.2
546.974	645.6
547.398	655.8
547.8	672.4
548.224	658.4
548.627	648.8
549.03	667.2
549.454	646.8
549.857	646.6
550.281	656.2
550.684	643.4
551.087	670.2
551.512	661.4
551.915	651
552.34	640.4
552.743	647
553.146	644.4
553.571	644.6
553.975	664
554.399	639.6
554.803	692
555.207	638.2
555.632	635.8
556.036	644.4
556.461	639.8
556.865	646
557.268	636.8
557.694	639.2
558.098	640
558.502	648.4
558.927	644.4
559.332	647.2
559.736	634
560.162	653.2
560.566	634.6
560.992	636.4
561.396	639
561.801	630.2
562.227	639.8
562.631	633
563.036	633.2
563.462	638
563.867	638.6
564.272	622.2
564.698	635.6
565.103	622.2
565.508	657
565.935	638.4
566.34	635.2
566.745	650.8
567.172	627.8
567.577	649.8
567.982	635.6
568.409	635.8
568.815	626
569.22	633.4
569.626	633.8
570.053	608.6
570.459	626.2
570.865	628
571.292	627.4
571.698	625
572.104	612.6
572.531	620.8
572.937	627.4
573.343	623
573.75	620.6
574.177	622.4
574.583	624
574.99	615.4
575.396	627
575.824	611.4
576.231	635.4
576.637	618.6
577.065	647.8
577.472	611.6
577.879	620.8
578.286	630.8
578.714	610.6
579.121	618.2
579.528	622.4
579.935	637.6
580.364	622
580.771	608.8
581.178	609.8
581.585	624.8
582.014	627
582.421	612.2
582.829	614.2
583.236	625.6
583.644	608.4
584.073	611.4
584.481	615.4
584.889	607.6
585.296	624.4
585.726	613.8
586.134	597.6
586.542	609
586.95	625.4
587.358	602.4
587.787	616.4
588.196	619
588.604	612
589.012	610.8
589.421	606.2
589.851	602.4
590.259	606.2
590.668	603.8
591.076	646.4
591.485	607
591.894	613
592.324	627.2
592.733	631.6
593.142	600.4
593.551	615.4
593.96	613.2
594.369	596
594.8	603.2
595.209	606.2
595.618	597.2
596.028	596.6
596.437	598
596.847	612.6
597.256	605.2
597.687	611.2
598.097	603.4
598.507	594.8
598.917	613
599.327	607.8
599.736	607.4
600.146	617.8
600.556	598.4
600.988	617.2
601.398	604.8
601.808	615.6
602.219	595.2
602.629	608
603.039	603.8
603.45	630.6
603.86	609.2
604.271	610.4
604.703	609
605.114	598.2
605.525	603.6
605.935	609.4
606.346	620.4
606.757	607.8
607.168	584.6
607.579	604.4
607.99	614
608.402	608.8
608.813	606.2
609.224	591.8
609.636	594
610.047	595.4
610.48	600.2
610.892	615.6
611.303	615
611.715	602.6
612.127	594.2
612.539	594
612.95	605.4
613.362	590
613.774	596.2
614.186	598.4
614.599	585.4
615.011	608.4
615.423	598.6
615.835	598.6
616.248	585
616.66	598
617.073	585
617.485	599.2
617.898	606.6
618.311	601.2
618.723	602.4
619.136	632.2
619.549	613.8
619.962	623
620.375	600.4
620.788	599
621.201	595.6
621.614	611
622.028	592.6
622.441	603.4
622.854	620.2
623.268	594.4
623.681	604.4
624.095	611
624.509	606.4
624.922	608
625.336	592.8
625.728	602
626.142	613
626.556	617.2
626.97	602.4
627.384	597.4
627.799	598.2
628.213	609.4
628.627	597.2
629.041	600.2
629.456	602.8
629.87	600.4
630.285	599.4
630.699	606.8
631.093	596
631.507	599.8
631.922	600.2
632.337	602.6
632.752	587.2
633.167	603
633.582	587.2
633.997	593.2
634.412	588.4
634.806	589.4
635.221	590.4
635.637	603.2
636.052	580
636.468	592
636.883	617
637.299	592
637.715	576.6
638.109	595.4
638.525	584
638.941	601.8
639.357	597.8
639.773	603
640.189	586.6
640.584	596.8
641	595
641.416	580.8
641.832	591.8
642.249	587.2
642.665	598.8
643.06	605.6
643.477	603.6
643.894	592.4
644.31	593
644.727	590.4
645.123	590.2
645.54	590.6
645.957	597.4
646.374	612.2
646.77	588.8
647.187	626.6
647.604	589.6
648.021	583
648.439	596.2
648.835	592.6
649.252	590.6
649.67	589
650.088	589.8
650.484	598.6
650.902	599.6
651.32	593.8
651.738	583.4
652.134	594.4
652.552	614.6
652.971	599
653.389	594.4
653.786	607.8
654.204	612.2
654.622	593.2
655.019	591.6
655.438	597
655.857	588.2
656.275	598
656.673	585.4
657.091	604.2
657.51	585.4
657.908	601
658.327	602.4
658.746	577.8
659.144	592
659.563	596.8
659.982	588.6
660.38	586.8
660.8	595.4
661.219	599.6
661.617	597.2
662.037	594.8
662.457	600.2
662.855	588.2
663.275	634
663.695	597.6
664.094	590.6
664.514	594.6
664.934	583.6
665.333	598
665.753	588.6
666.152	578.2
666.572	584.4
666.993	604.4
667.392	590.8
667.812	587.4
668.212	585.8
668.632	602
669.053	583.4
669.453	593.2
669.874	585.4
670.273	600.2
670.694	579
671.116	598.6
671.515	590.8
671.937	588.2
672.337	582.4
672.758	590.4
673.158	599.2
673.58	588.4
673.98	594.8
674.402	598.6
674.824	590.4
675.224	582
675.646	588.6
676.047	588
676.469	591.4
676.869	594.8
677.292	588.6
677.693	583.8
678.115	590.4
678.516	598.4
678.939	592.2
679.34	591.8
679.762	596
680.164	593.8
680.586	592.6
680.988	593.2
681.411	612.4
681.812	589
682.236	589
682.637	570.8
683.061	573.4
683.462	593
683.864	597.8
684.288	598.2
684.69	582.4
685.114	598.6
685.516	595.2
685.94	584
686.342	595.8
686.766	582.4
687.168	580.8
687.571	601.4
687.995	587
688.398	579.8
688.822	591
689.225	602.8
689.628	612
690.052	587
690.456	596.8
690.88	594.4
691.284	582.4
691.687	600.6
692.112	577.4
692.515	583.8
692.919	590.4
693.344	587.8
693.747	588.4
694.173	588
694.577	595
694.98	579.4
695.406	579.6
695.81	603.2
696.214	595.6
696.64	592.2
697.044	592
697.448	595.8
697.874	581.8
698.279	585.6
698.684	579
699.11	577
699.514	586.4
699.919	588.2
700.324	585
700.75	592.4
701.156	584.8
701.561	596.2
701.987	588.4
702.393	609
702.798	599
703.203	581.8
703.63	579.8
704.036	586.4
704.442	586.4
704.847	589.6
705.274	584.2
705.68	595
706.086	594.2
706.492	579.8
706.92	579.8
707.326	601.4
707.732	589.2
708.139	577.8
708.545	575.4
708.973	582.2
709.38	589.2
709.786	570.4
710.193	589.6
710.6	587.4
711.028	586.6
711.435	589.8
711.842	591.8
712.249	584.4
712.656	590.8
713.064	597.4
713.492	584.6
713.9	587.8
714.307	593.2
714.715	585.2
715.123	586.2
715.53	596.8
715.938	597.4
716.367	581.6
716.775	589.8
717.184	587.2
717.592	579.2
718	604
718.408	622.2
718.816	632
719.225	592.4
719.633	592.4
720.042	576.6
720.472	585.8
720.881	608
721.29	590.8
721.699	588.6
722.108	592.4
722.517	587.8
722.926	583
723.335	599.2
723.744	586
724.154	587.8
724.563	599.6
724.973	587.6
725.382	585.6
725.792	594
726.202	589
726.612	604.4
727.022	589
727.432	583.2
779.813	584.2
780.223	636.8
780.634	581.2
781.044	582.8
781.454	589.4
781.865	599.8
782.276	567.8
782.686	594.2
783.097	584.8
783.508	572.6
783.919	585.6
784.33	594.8
784.741	596.4
785.152	583.4
785.563	567.8
785.974	588.2
786.386	586.8
786.776	588.4
787.188	583
787.599	576.2
788.011	586.8
788.423	587.6
788.835	576.6
789.247	571.4
789.659	583.2
790.071	578.8
790.483	632
790.874	586.4
791.286	588.8
791.699	579
792.111	588.6
792.524	587.2
792.937	585.8
793.349	582.8
793.741	581.6
794.154	572.6
794.567	596
794.98	582.4
795.393	572.2
795.785	597.6
796.198	580.2
796.612	580.4
797.026	577
797.439	565.6
797.831	583.2
798.245	575.4
798.659	586.2
799.073	576.8
799.487	580.2
799.88	583.8
800.294	584.4
800.708	589.2
801.123	583.8
801.516	603.4
801.93	578.4
802.345	575.6
802.76	585
803.153	599
803.568	596.8
803.983	595.8
804.377	595.2
804.792	574.4
805.207	572.2
805.601	586
806.016	623
806.432	576
806.826	614.4
807.242	604.8
807.658	592
808.052	578.4
808.468	584.4
808.884	579.6
809.279	586.2
809.695	595.2
810.111	613
810.506	591.2
810.922	600.2
811.339	584.2
811.734	598.8
812.151	578.6
812.546	581.8
812.963	574.2
813.38	586
813.776	582.8
814.193	603.6
814.589	581.6
815.006	579
815.402	577.6
815.82	574.6
816.237	588.2
816.633	579.6
817.051	576.2
817.448	583.8
817.866	573.2
818.262	604
818.68	582
819.077	576.6
819.495	588.8
819.892	627.6
820.311	580.4
820.708	584.4
821.127	586.8
821.524	595.6
821.943	584.2
822.34	609.4
822.759	586
823.157	590.2
823.576	593.4
823.974	588.6
824.393	607.8
824.791	578.4
825.189	579.8
825.609	588.4
826.007	584.2
826.427	571.6
826.826	581.6
827.246	589.4
827.644	573
828.043	595
828.463	577.2
828.862	588.8
829.261	585.6
829.682	568.8
830.081	584
830.502	580
830.901	583.4
831.301	599.6
831.722	568.8
832.121	582.2
832.521	573.2
832.943	580
833.342	580
833.742	568.2
834.164	580.2
834.564	576.2
834.965	572.2
835.386	580.4
835.787	578.8
836.188	586.2
836.588	583.6
837.01	586.6
837.411	582.4
837.812	587.8
838.213	586
838.636	574.2
839.037	643
839.438	588
839.84	588.8
840.263	595.2
840.664	587.8
841.066	581.6
841.468	580.8
841.891	578
842.293	595
842.695	585
843.098	594.8
843.5	576
843.902	584.2
844.326	583.8
844.729	585.2
845.131	594.2
845.534	584.6
845.937	593.6
846.34	603
846.764	574.8
847.167	587.4
847.571	574
847.974	582.8
848.377	582.2
848.781	629.2
849.184	603
849.588	573.2
849.992	579.4
850.396	580.8
850.821	606.4
851.225	587
851.63	582.6
852.034	595.4
852.438	581
852.843	659
853.247	582.6
853.652	573.2
854.057	598.8
854.462	587
854.867	589.8
855.272	613.6
855.677	583
856.082	576.8
856.487	574.2
856.893	585.2
857.298	569.2
