#lambda/nm	C1
208.295	507.8
208.67	462.2
209.045	424.6
209.419	431
209.794	614.4
210.169	598.4
210.544	717.2
210.919	618.4
211.295	607.4
211.67	626.4
212.045	613.6
212.421	618.6
212.796	647.4
213.172	610
213.547	602.8
213.923	614.8
214.299	608
214.675	615.2
215.051	618.8
215.427	616.2
215.803	629.2
216.179	617.8
216.555	613.6
216.932	621.2
217.308	613.2
217.684	609.2
218.061	619.8
218.438	620
218.814	606
219.191	617.6
219.568	601.8
219.945	597.8
220.322	614.6
220.699	609.6
221.076	617.4
221.453	617.4
221.83	612.2
222.208	609
222.585	611.8
222.962	614
223.34	611.8
223.717	612.8
224.095	609.2
224.473	611.6
224.851	606
225.229	607.2
225.607	633.2
225.985	600
226.363	620.8
226.741	616.2
227.119	608.8
227.497	620.4
227.876	595.8
228.254	618.2
228.633	617.6
229.011	616.6
229.39	623.6
229.769	621.2
230.148	623.4
230.527	639.4
230.905	616
231.284	618.2
231.664	608.8
232.043	619.6
232.422	621.6
232.801	609.2
233.181	621.6
233.56	608.4
233.94	619
234.319	602.4
234.699	613.2
235.079	649
235.458	664.2
235.838	628.4
236.218	603.4
236.598	601.2
236.978	604.8
237.358	609
237.738	618.8
238.119	616.6
238.499	604
238.88	611.2
239.26	633.2
239.641	601.6
240.021	616.8
240.402	615.4
240.783	614.8
241.163	611.4
241.544	615
241.925	610.2
242.306	630.6
242.687	622
243.069	611.2
243.45	622.8
243.831	616.2
244.212	619.4
244.594	658.2
244.975	634.2
245.357	618.6
245.739	616.2
246.12	616.6
246.502	627.2
246.884	615.6
247.266	611
247.648	621.4
248.03	640.6
248.412	615.2
248.794	622.6
249.176	613.2
249.559	621.6
249.941	615.4
250.323	612.2
250.706	609.8
251.089	612.8
251.471	619.8
251.854	621.6
252.237	614.8
252.62	635.2
253.002	615.4
253.385	614.2
253.769	634
254.152	615.2
254.535	628
254.918	617
255.301	604.6
255.685	607.4
256.068	607.2
256.452	646
256.835	625.2
257.219	618.4
257.603	624.2
257.986	610.2
258.37	617.6
258.754	607.8
259.138	612
259.522	619.4
259.906	619
260.29	623.4
260.675	619
261.059	617.2
261.443	611.4
261.828	625
262.212	620.2
262.597	604
262.981	610
263.366	625
263.751	616.4
264.136	615.4
264.521	617.4
264.906	615.6
265.291	623
265.676	614.4
266.061	623
266.446	630
266.831	614.2
267.217	637.2
267.602	621
267.987	613.4
268.373	605.6
268.759	629.2
269.144	618.4
269.53	619
269.916	617
270.302	611.4
270.688	616.2
271.074	612.2
271.46	631.4
271.846	643.8
272.232	620.6
272.618	603.2
273.004	614.2
273.391	633.6
273.777	623.4
274.164	621.8
274.55	628.8
274.937	613.4
275.324	624.2
275.71	618.2
276.097	614.2
276.484	598.4
276.871	618
277.258	620.2
277.645	604
278.032	617.8
278.419	605.6
278.807	621.8
279.194	608.2
279.581	608
279.969	623.8
280.356	616.2
280.744	617.8
281.131	647.4
281.519	633.2
281.907	614.6
282.295	614.4
282.682	635
283.07	623.2
283.458	622.2
283.846	621.6
284.235	628.4
284.623	628.6
285.011	615.2
285.399	625.8
285.788	620.4
286.176	604.6
286.565	627.8
286.953	611
287.342	615.4
287.731	608.8
288.119	612
288.508	617.8
288.897	614.6
289.286	609.2
289.675	616
290.064	619
290.453	616.6
290.821	619.2
291.21	632.8
291.599	615.6
291.989	617
292.378	618
292.768	640.4
293.157	621
293.547	627.2
293.936	617.8
294.326	627.2
294.716	624.6
295.106	609.4
295.496	620.2
295.886	623.6
296.276	619.2
296.666	613
297.056	611.6
297.446	609.2
297.836	636.4
298.227	621.2
298.617	620.2
299.008	629.4
299.398	617
299.789	609
300.179	625.8
300.57	620.4
300.961	613.6
301.352	616
301.742	618.4
302.133	626.2
302.524	611.4
302.915	625
303.307	608.2
303.698	631.4
304.089	618.2
304.48	617.2
304.872	612.8
305.263	611.4
305.655	605
306.046	620.8
306.438	621.8
306.829	609
307.221	624.8
307.613	623.6
308.005	627.8
308.397	632.4
308.789	634
309.181	637.8
309.573	630.4
309.965	632.4
310.357	612.2
310.749	633.2
311.142	610.2
311.534	610.8
311.926	620.2
312.319	613.2
312.711	612
313.104	627.2
313.497	619.8
313.889	653.8
314.282	627.6
314.675	640.2
315.068	622.2
315.461	615
315.854	642.6
316.247	622.6
316.64	608.6
317.033	612.2
317.405	630
317.798	605.2
318.192	615.6
318.585	605
318.979	614.8
319.372	608.6
319.766	611
320.16	622.4
320.553	634.8
320.947	624.8
321.341	614.8
321.735	607.6
322.129	594
322.523	641
322.917	599.2
323.311	624.8
323.705	620
324.099	611.6
324.494	627.4
324.888	628.2
325.282	611.8
325.677	628.6
326.071	622.2
326.466	628.2
326.861	620.8
327.255	630
327.65	631.8
328.045	640.6
328.44	628
328.835	617.8
329.23	607.2
329.625	637.8
330.02	613.6
330.415	633
330.81	618.2
331.206	621.4
331.601	616.6
331.996	636.8
332.37	638.4
332.766	606.8
333.161	643.2
333.557	617.4
333.953	614
334.348	928
334.744	616.8
335.14	618.2
335.536	608.8
335.932	622.8
336.328	625.4
336.724	636.8
337.12	619.2
337.516	618
337.913	618.6
338.309	634.2
338.705	619.6
339.102	634.4
339.498	610.2
339.895	634
340.291	616.6
340.688	625.2
341.085	604.4
341.481	613
341.878	613.6
342.275	634.6
342.672	607.6
343.069	614
343.466	600
343.842	628.8
344.239	614.2
344.636	623.8
345.033	606.4
345.431	602.8
345.828	613.8
346.225	616.2
346.623	647.4
347.02	609.2
347.418	630.2
347.816	624.8
348.213	604.4
348.611	625.8
349.009	612.2
349.407	625.2
349.805	603
350.203	601
350.601	634.6
350.999	612.4
351.397	663
351.795	612.8
352.193	624.2
352.57	619.4
352.969	619.6
353.367	602.4
353.766	605.2
354.164	613
354.563	629.8
354.961	610.2
355.36	613
355.759	612.6
356.158	605.2
356.557	606.8
356.956	608.2
357.355	602.6
357.754	621.2
358.153	630.6
358.552	639.4
358.951	611.8
359.35	624
359.75	609.4
360.149	604.4
360.527	593.2
360.926	609.8
361.326	618.6
361.726	614.4
362.125	612.4
362.525	622.6
362.925	611.8
363.325	602.8
363.724	614.6
364.124	604.2
364.524	599.6
364.924	612.8
365.324	629.4
365.725	593.2
366.125	611.8
366.525	611.6
366.904	608.2
367.304	595
367.705	625.6
368.105	620.2
368.506	608.8
368.906	608
369.307	606.8
369.708	616.6
370.108	606
370.509	614
370.91	604.8
371.311	611.2
371.712	608.2
372.113	608.4
372.514	602.4
372.894	606.6
373.295	607.6
373.696	626.8
374.097	620.8
374.499	641.6
374.9	611
375.301	607.2
375.703	616.4
376.105	604.8
376.506	612.6
376.908	607
377.309	605
377.711	611.6
378.113	598.2
378.493	614.6
378.895	604.8
379.297	623.4
379.699	601.8
380.102	612.4
380.504	615.4
380.906	595.8
381.308	636.2
381.71	610
382.113	624.2
382.515	611.6
382.918	611.6
383.299	613
383.701	622.2
384.104	606.2
384.507	596.8
384.909	607.6
385.312	603.4
385.715	606.2
386.118	611.6
386.521	595.2
386.924	617.8
387.327	602.4
387.709	600
388.112	592.8
388.515	603.2
388.918	598.8
389.322	613.6
389.725	605.8
390.129	629.8
390.532	618.8
390.936	612
391.339	602.8
391.743	611.6
392.125	603.4
392.529	614.4
392.933	622.2
393.337	604.2
393.74	616.4
394.144	609.8
394.548	608.2
394.953	599.8
395.357	610.8
395.761	610
396.144	609.8
396.548	614.4
396.952	614.2
397.357	618.4
397.761	608.6
398.166	603.4
398.57	612.8
398.975	602.2
399.379	607.4
399.763	656
400.168	615.6
400.572	607.4
400.977	609
401.382	626
401.787	618
402.192	627.4
402.597	618
403.002	597
403.386	619.8
403.791	626.2
404.197	609.6
404.602	604
405.007	616.2
405.413	607.4
405.818	609.6
406.224	606.6
406.608	604.2
407.014	603
407.42	627
407.825	604
408.231	609.2
408.637	608.8
409.043	625.8
409.449	610.2
409.834	597.8
410.24	604.4
410.646	623.2
411.052	623
411.458	610.6
411.865	614
412.271	618.4
412.677	612.6
413.062	615.8
413.469	598.2
413.875	628.6
414.282	621.2
414.689	621.6
415.095	608.2
415.502	601.2
415.888	606.8
416.294	590.8
416.701	647
417.108	599
417.515	613.6
417.923	600
418.33	633.2
418.715	619.8
419.123	594.8
419.53	602
419.937	608.6
420.345	615.6
420.752	605
421.16	622.2
421.546	607.8
421.953	623.8
422.361	605
422.769	609.8
423.177	609.4
423.585	639.2
423.992	629.4
424.379	617.8
424.787	623
425.195	634.6
425.603	619.6
426.011	624
426.419	619.6
426.806	607.6
427.214	616.2
427.623	617.8
428.031	624.2
428.44	618.6
428.848	621.6
429.235	636.2
429.644	625.8
430.053	613.8
430.461	635.2
430.87	650.6
431.279	642.4
431.666	629
432.075	637.4
432.484	640.4
432.893	633.4
433.302	668.4
433.711	703
434.099	663.4
434.508	656.4
434.918	663.4
435.327	678.4
435.737	684.2
436.125	702.2
436.534	709
436.944	720
437.353	718.6
437.763	743.2
438.173	727.8
438.561	760.6
438.971	731.4
439.381	747.2
439.791	765.6
440.201	743
440.589	776
440.999	788.6
441.409	791.6
441.819	785
442.23	808
442.619	803.6
443.029	805.4
443.439	811
443.85	829
444.26	853.4
444.649	837.6
445.06	831.2
445.471	830
445.881	852.4
446.292	868.2
446.682	870.4
447.092	842.6
447.503	913.8
447.914	861
448.325	868
448.715	865.2
449.126	865.6
449.537	866.2
449.948	867.8
450.338	867.2
450.75	874
451.161	869
451.572	886.2
451.984	868
452.374	867
452.786	880.8
453.197	882.6
453.609	891.4
453.999	876.4
454.411	879.6
454.823	901.8
455.235	888.2
455.647	893.8
456.037	904.2
456.449	880.2
456.862	900.6
457.274	890.6
457.665	890
458.077	901
458.489	926.2
458.902	889.2
459.293	886.4
459.705	896.8
460.118	885.6
460.53	878.4
460.921	894.2
461.334	906.2
461.747	906.2
462.16	907.4
462.551	909.4
462.964	900.8
463.377	902.2
463.79	903.6
464.182	917
464.595	898.2
465.008	908.6
465.421	910.6
465.813	894.4
466.226	910.2
466.64	893.4
467.053	937.8
467.445	914.2
467.859	925.2
468.272	903.6
468.686	915
469.078	902.2
469.492	895.6
469.906	908.4
470.298	910.4
470.712	889.2
471.126	953.8
471.54	892.6
471.933	897.6
472.347	899.2
472.761	899.2
473.175	888.2
473.568	889.6
473.982	886
474.397	889
474.79	882.6
475.204	889.6
475.619	888.4
476.033	892.4
476.426	883.6
476.841	870.4
477.256	905.2
477.649	880.6
478.064	869.2
478.479	864.6
478.872	869
479.287	860.6
479.702	879.4
480.118	868.2
480.511	877
480.927	862.6
481.342	870.6
481.736	875.6
482.151	860.2
482.566	880.2
482.96	872.8
483.376	878
483.792	854
484.186	865.2
484.602	856.4
485.017	856.2
485.412	847
485.827	857.8
486.243	854.4
486.638	872.4
487.054	855.6
487.47	873.6
487.865	841.8
488.281	841.2
488.697	855.6
489.092	841.6
489.508	826.6
489.925	854.2
490.32	830.8
490.736	843.4
491.153	829.8
491.548	830.2
491.964	841
492.381	819.8
492.776	832.2
493.193	816.4
493.61	826
494.006	829
494.422	828
494.84	809
495.235	834
495.652	826
496.069	808.4
496.465	808
496.883	806.6
497.3	827
497.696	803.4
498.113	810
498.509	795
498.927	790.4
499.344	793.4
499.741	793.8
500.158	803.2
500.576	805.6
500.973	795.2
501.39	789
501.787	771.4
502.205	797.6
502.623	775.6
503.02	774.8
503.438	771
503.856	781.6
504.253	777.4
504.671	772.2
505.068	768.4
505.486	766.2
505.905	796
506.302	761.8
506.72	781.2
507.118	757.6
507.536	756.4
507.955	768.4
508.352	761.6
508.771	772.8
509.169	757.6
509.587	755.8
510.006	747.8
510.404	744
510.823	732.8
511.221	739.4
511.64	743.8
512.038	759.2
512.457	733
512.877	740.8
513.275	733.8
513.694	732.2
514.092	722.6
514.512	731
514.91	745.8
515.33	730.4
515.749	731.8
516.148	727.2
516.568	734
516.966	728
517.386	725
517.785	722.2
518.205	725.6
518.603	710.4
519.024	708.4
519.444	722.2
519.843	724.4
520.263	732
520.662	726
521.082	712.2
521.481	711.2
521.902	715.2
522.301	708.8
522.722	709.2
523.121	716.8
523.542	714.2
523.963	708.4
524.362	714.2
524.783	703.6
525.183	703.6
525.604	704.8
526.003	707.2
526.425	694.8
526.824	707.8
527.246	697.8
527.646	710.2
528.067	701.8
528.467	696.6
528.888	698
529.289	698.2
529.71	689.4
530.11	683.4
530.532	684.2
530.932	677.8
531.354	683.4
531.755	721.2
532.176	700.6
532.577	670
532.999	685
533.4	678.8
533.822	691.4
534.223	694
534.645	672
535.046	683.2
535.468	685.4
535.869	690.4
536.292	676
536.693	710.4
537.115	674.2
537.516	678.2
537.939	670.6
538.34	688.4
538.742	686
539.165	670.4
539.566	670.2
539.989	664
540.391	676
540.814	669.8
541.216	679.6
541.639	658.4
542.041	678.8
542.464	662.4
542.866	659.2
543.268	660.6
543.691	664
544.093	675.4
544.517	685.2
544.919	646.8
545.343	683.6
545.745	657.6
546.147	651.2
546.571	652.8
546.974	652
547.398	662.4
547.8	661.4
548.224	660
548.627	649.4
549.03	665
549.454	649.4
549.857	650.2
550.281	640.6
550.684	648.6
551.087	657.2
551.512	653.2
551.915	658.8
552.34	656.6
552.743	649
553.146	645.6
553.571	648
553.975	668.8
554.399	641.8
554.803	689
555.207	648.4
555.632	638.8
556.036	647.8
556.461	631.6
556.865	644.8
557.268	640
557.694	636.4
558.098	646.4
558.502	644
558.927	642.8
559.332	647
559.736	639.6
560.162	656
560.566	638.2
560.992	642.6
561.396	642.4
561.801	642.4
562.227	639.6
562.631	639.4
563.036	636.4
563.462	644.4
563.867	638.2
564.272	624
564.698	640
565.103	616.8
565.508	662.4
565.935	626.6
566.34	628.6
566.745	643.6
567.172	633.2
567.577	654
567.982	645.2
568.409	631
568.815	622.6
569.22	630.2
569.626	631.8
570.053	611
570.459	623.6
570.865	632
571.292	644.4
571.698	633
572.104	615.4
572.531	617.6
572.937	629.2
573.343	623.8
573.75	622.6
574.177	630.4
574.583	628.2
574.99	618
575.396	632.8
575.824	626.4
576.231	635
576.637	623.2
577.065	641.8
577.472	621.6
577.879	622.8
578.286	636
578.714	610
579.121	618.8
579.528	619.4
579.935	626.8
580.364	618.6
580.771	595.6
581.178	620.6
581.585	623.6
582.014	628.4
582.421	613
582.829	611.8
583.236	621.6
583.644	612.4
584.073	611.8
584.481	614.2
584.889	614.2
585.296	620.2
585.726	614
586.134	610
586.542	611.4
586.95	638.6
587.358	606.4
587.787	605
588.196	627.4
588.604	609.4
589.012	607.6
589.421	601.4
589.851	612
590.259	610
590.668	606.8
591.076	644.6
591.485	605
591.894	608.2
592.324	624.8
592.733	616.6
593.142	598.6
593.551	607.2
593.96	616.2
594.369	593
594.8	600.8
595.209	611.6
595.618	582.2
596.028	600
596.437	594.2
596.847	602.8
597.256	607
597.687	612.4
598.097	610.4
598.507	602.8
598.917	608.4
599.327	612.2
599.736	610
600.146	616.6
600.556	608.4
600.988	618
601.398	602.4
601.808	615.2
602.219	593.8
602.629	616.4
603.039	605.8
603.45	626.8
603.86	607.2
604.271	617.8
604.703	601.8
605.114	602
605.525	603.4
605.935	606.6
606.346	621.6
606.757	599
607.168	599.8
607.579	593.2
607.99	616.2
608.402	600.6
608.813	599.8
609.224	589.6
609.636	592.4
610.047	587
610.48	597.8
610.892	613.8
611.303	604
611.715	599.6
612.127	586.8
612.539	603.8
612.95	602.4
613.362	588
613.774	591.4
614.186	595.2
614.599	598.6
615.011	607.2
615.423	599.2
615.835	590.4
616.248	584.8
616.66	597.6
617.073	589.2
617.485	602.6
617.898	608.6
618.311	596.4
618.723	599.6
619.136	627.6
619.549	613.4
619.962	618.2
620.375	597.4
620.788	602.8
621.201	593.2
621.614	607
622.028	602.6
622.441	602.8
622.854	613.6
623.268	594
623.681	598.8
624.095	604.2
624.509	612.4
624.922	609.8
625.336	592.2
625.728	601.2
626.142	610.2
626.556	608.4
626.97	605.2
627.384	595.2
627.799	598
628.213	608.2
628.627	596.6
629.041	596.4
629.456	595.6
629.87	599.6
630.285	600.4
630.699	615
631.093	592.4
631.507	599.4
631.922	601.8
632.337	614.8
632.752	582.4
633.167	605
633.582	596.4
633.997	596
634.412	581.8
634.806	593
635.221	589.6
635.637	591.4
636.052	586.6
636.468	597.6
636.883	618
637.299	598.6
637.715	579.6
638.109	594.2
638.525	585.2
638.941	607.2
639.357	602.8
639.773	604.6
640.189	590.2
640.584	589.8
641	598.2
641.416	586.4
641.832	599.2
642.249	592.4
642.665	595.6
643.06	595.8
643.477	599.8
643.894	575
644.31	582
644.727	595.6
645.123	599.2
645.54	589.2
645.957	593.6
646.374	612
646.77	590.8
647.187	622
647.604	589.2
648.021	579
648.439	583.2
648.835	598.4
649.252	591.8
649.67	594.2
650.088	593.6
650.484	597.4
650.902	600.8
651.32	592.4
651.738	588.6
652.134	594.4
652.552	609.4
652.971	609
653.389	588.8
653.786	596.6
654.204	611.4
654.622	587.6
655.019	593
655.438	595.8
655.857	602.8
656.275	604.8
656.673	582.4
657.091	599.6
657.51	584.4
657.908	602
658.327	609
658.746	583.6
659.144	592.8
659.563	605.6
659.982	593
660.38	583.4
660.8	585.4
661.219	607.8
661.617	597.6
662.037	590.2
662.457	603.8
662.855	579
663.275	621.2
663.695	594.6
664.094	590.2
664.514	592.6
664.934	584.6
665.333	605.2
665.753	587.8
666.152	588
666.572	585.6
666.993	599.8
667.392	586.6
667.812	580.8
668.212	596.4
668.632	598.8
669.053	589.6
669.453	600.8
669.874	596.6
670.273	592.4
670.694	585.6
671.116	601.8
671.515	599
671.937	582.8
672.337	587
672.758	582
673.158	595.6
673.58	585.6
673.98	593.6
674.402	605
674.824	586
675.224	591.8
675.646	579.2
676.047	581.2
676.469	585.8
676.869	603
677.292	592
677.693	587.6
678.115	587.6
678.516	603.2
678.939	590.4
679.34	587.4
679.762	594.4
680.164	596
680.586	586.2
680.988	599.4
681.411	617.2
681.812	591.8
682.236	585.6
682.637	576.4
683.061	584
683.462	597
683.864	584.6
684.288	598.2
684.69	580.8
685.114	598.4
685.516	596.2
685.94	587.2
686.342	588.4
686.766	588.2
687.168	580.4
687.571	604.2
687.995	584.6
688.398	578.8
688.822	584.4
689.225	605.4
689.628	604.8
690.052	591.6
690.456	599.4
690.88	591.8
691.284	576.6
691.687	586.8
692.112	585
692.515	572.4
692.919	588
693.344	597.4
693.747	588.4
694.173	588
694.577	597.4
694.98	588
695.406	591.2
695.81	593.8
696.214	593.6
696.64	589.4
697.044	589.8
697.448	596.6
697.874	583.8
698.279	579.8
698.684	580.8
699.11	582
699.514	584.2
699.919	588.8
700.324	580
700.75	586.8
701.156	589
701.561	600.8
701.987	585.2
702.393	593.8
702.798	598.6
703.203	590.2
703.63	582.8
704.036	584.6
704.442	589.8
704.847	568.4
705.274	582.8
705.68	585.6
706.086	588.2
706.492	580.4
706.92	581.6
707.326	589
707.732	582.6
708.139	570.4
708.545	579.2
708.973	579.4
709.38	585
709.786	578.2
710.193	605.4
710.6	595
711.028	583.8
711.435	583.4
711.842	576.6
712.249	583.2
712.656	585.4
713.064	602.2
713.492	575.2
713.9	590
714.307	593.4
714.715	587.4
715.123	596.8
715.53	591
715.938	594
716.367	595.4
716.775	584.4
717.184	580.4
717.592	575.8
718	598.6
718.408	623.2
718.816	633.2
719.225	589.6
719.633	597.2
720.042	573
720.472	579.2
720.881	600
721.29	589.4
721.699	575.4
722.108	595.2
722.517	586.4
722.926	585
723.335	602.8
723.744	578.6
724.154	589.6
724.563	596
724.973	588.2
725.382	600
725.792	587.6
726.202	582
726.612	610.2
727.022	587.2
727.432	581.8
779.813	585.4
780.223	632.6
780.634	589.4
781.044	579
781.454	586.4
781.865	604.6
782.276	589.8
782.686	593.6
783.097	586.4
783.508	580.8
783.919	589.2
784.33	594.6
784.741	596.8
785.152	577.2
785.563	573.8
785.974	584
786.386	590.8
786.776	576
787.188	588.2
787.599	580.8
788.011	590.8
788.423	594.6
788.835	584.4
789.247	569.6
789.659	578.4
790.071	579.8
790.483	619.8
790.874	583.4
791.286	587.4
791.699	577.6
792.111	582.8
792.524	584.4
792.937	585.6
793.349	580.2
793.741	577.8
794.154	579.6
794.567	603.2
794.98	587.2
795.393	580.8
795.785	603.4
796.198	579.6
796.612	587
797.026	582.4
797.439	565.8
797.831	583.8
798.245	577.4
798.659	581.4
799.073	581.8
799.487	580.2
799.88	584.6
800.294	589
800.708	592.4
801.123	586.2
801.516	603.8
801.93	583.4
802.345	570.4
802.76	575.6
803.153	605.8
803.568	594
803.983	589.2
804.377	589.6
804.792	568.2
805.207	567.4
805.601	593.6
806.016	630
806.432	576.2
806.826	613.8
807.242	594.4
807.658	588.2
808.052	581.8
808.468	581
808.884	573.6
809.279	578
809.695	603
810.111	600.8
810.506	587
810.922	594.8
811.339	575.4
811.734	587
812.151	573.2
812.546	575.8
812.963	575.8
813.38	591
813.776	583.4
814.193	603.8
814.589	577.6
815.006	579.2
815.402	581
815.82	578.6
816.237	587.8
816.633	586.6
817.051	575
817.448	589.6
817.866	571.6
818.262	592.4
818.68	580
819.077	579.2
819.495	591
819.892	624.2
820.311	578.4
820.708	586
821.127	577.8
821.524	589.2
821.943	583
822.34	604
822.759	578.6
823.157	584
823.576	596
823.974	592
824.393	605
824.791	587.8
825.189	576.4
825.609	581
826.007	577.8
826.427	574.4
826.826	583
827.246	587.2
827.644	566
828.043	590.2
828.463	571.4
828.862	590.2
829.261	586.8
829.682	569
830.081	591.2
830.502	571.6
830.901	582.2
831.301	606.8
831.722	587.8
832.121	582.6
832.521	575.8
832.943	576.8
833.342	585.2
833.742	578.4
834.164	580.8
834.564	574
834.965	584.8
835.386	584.6
835.787	579.4
836.188	578.8
836.588	582.6
837.01	573.4
837.411	566.6
837.812	583.8
838.213	580.6
838.636	572.8
839.037	644.8
839.438	582.2
839.84	583.6
840.263	589.8
840.664	590.8
841.066	586.4
841.468	588.2
841.891	574.4
842.293	590.2
842.695	585.6
843.098	593.2
843.5	580.2
843.902	585.8
844.326	586.6
844.729	592.8
845.131	585.8
845.534	582.6
845.937	599.4
846.34	593.2
846.764	573
847.167	581.6
847.571	583.4
847.974	574.2
848.377	574.4
848.781	630
849.184	587
849.588	586.4
849.992	582.8
850.396	585.2
850.821	599.6
851.225	587.8
851.63	574.6
852.034	592.6
852.438	576.6
852.843	649.8
853.247	570.6
853.652	572
854.057	597
854.462	588
854.867	578.8
855.272	605.6
855.677	589.6
856.082	564.2
856.487	571.8
