#lambda/nm	C1
208.295	514.4
208.67	467
209.045	432.2
209.419	432.6
209.794	620
210.169	597.2
210.544	718.2
210.919	615.2
211.295	609.2
211.67	621.8
212.045	606.8
212.421	604.4
212.796	648.8
213.172	603.8
213.547	615.6
213.923	614
214.299	610.6
214.675	622.6
215.051	615
215.427	623
215.803	629.8
216.179	621.4
216.555	612.4
216.932	623.8
217.308	619
217.684	617
218.061	619.6
218.438	612.2
218.814	609.6
219.191	617.6
219.568	608
219.945	603.6
220.322	619.2
220.699	615.2
221.076	618.4
221.453	618.6
221.83	607.2
222.208	608.4
222.585	610.6
222.962	614.4
223.34	616.2
223.717	615.2
224.095	613.6
224.473	608.6
224.851	606.8
225.229	601.4
225.607	626.2
225.985	608.6
226.363	616.2
226.741	620.8
227.119	612.4
227.497	633.2
227.876	608.4
228.254	631.8
228.633	624
229.011	613.2
229.39	630.8
229.769	612.8
230.148	619.8
230.527	639
230.905	610.4
231.284	619
231.664	612.8
232.043	629.2
232.422	624.4
232.801	602.6
233.181	614.4
233.56	613.2
233.94	617
234.319	602.6
234.699	611.6
235.079	658
235.458	645.6
235.838	632.8
236.218	605.4
236.598	605.6
236.978	603
237.358	608.2
237.738	614.4
238.119	626.6
238.499	605
238.88	613.2
239.26	637.4
239.641	604.6
240.021	609.8
240.402	613.6
240.783	608.8
241.163	613.4
241.544	614.2
241.925	614.2
242.306	620.2
242.687	613.8
243.069	614.6
243.45	623.6
243.831	612
244.212	612.2
244.594	654.6
244.975	628
245.357	620.4
245.739	611.6
246.12	620.6
246.502	628.2
246.884	612.2
247.266	616.2
247.648	621.6
248.03	646
248.412	612.6
248.794	615
249.176	610.2
249.559	618.8
249.941	609.6
250.323	599.8
250.706	607
251.089	611.2
251.471	616.2
251.854	630
252.237	606
252.62	618.4
253.002	611
253.385	612.4
253.769	634.2
254.152	611.8
254.535	621.6
254.918	604.2
255.301	620.2
255.685	610.4
256.068	606.6
256.452	632.6
256.835	626.2
257.219	618.8
257.603	627
257.986	608.2
258.37	622.4
258.754	602.4
259.138	621.8
259.522	630.6
259.906	611.8
260.29	619
260.675	619.2
261.059	618.2
261.443	611
261.828	621
262.212	624.4
262.597	612.6
262.981	611.4
263.366	624.4
263.751	614.6
264.136	615.6
264.521	609.2
264.906	606
265.291	629
265.676	602.4
266.061	628.4
266.446	630.6
266.831	617
267.217	638.2
267.602	614
267.987	619
268.373	610.4
268.759	628.8
269.144	621
269.53	617.6
269.916	611.4
270.302	615.6
270.688	620.6
271.074	621.4
271.46	629.6
271.846	657.2
272.232	622.2
272.618	613.4
273.004	619.8
273.391	635
273.777	631.8
274.164	620.6
274.55	628.2
274.937	615.8
275.324	610
275.71	619.8
276.097	619.8
276.484	610.2
276.871	610.4
277.258	628.2
277.645	603.4
278.032	619.4
278.419	608.8
278.807	628.4
279.194	605
279.581	610.4
279.969	624.6
280.356	622.4
280.744	616.2
281.131	637.4
281.519	626
281.907	612.4
282.295	613.8
282.682	630.8
283.07	616.4
283.458	618
283.846	627.6
284.235	623
284.623	629.4
285.011	608.4
285.399	619.4
285.788	618.4
286.176	600.6
286.565	622.6
286.953	620.4
287.342	618.2
287.731	614
288.119	612.2
288.508	611
288.897	611.8
289.286	607.4
289.675	619.2
290.064	631
290.453	614.2
290.821	625.2
291.21	635
291.599	613.4
291.989	616.2
292.378	624
292.768	642.4
293.157	620.6
293.547	622.6
293.936	619.4
294.326	611.4
294.716	621.8
295.106	612.6
295.496	616.4
295.886	628
296.276	619.4
296.666	605.8
297.056	618.4
297.446	600.4
297.836	631
298.227	620.2
298.617	613.6
299.008	624.8
299.398	614.6
299.789	613
300.179	622.2
300.57	630.4
300.961	623
301.352	610.6
301.742	620.8
302.133	620.8
302.524	621.6
302.915	621.4
303.307	611.4
303.698	622.4
304.089	624.6
304.48	607.6
304.872	615.2
305.263	618.6
305.655	610.4
306.046	622.2
306.438	616
306.829	620.4
307.221	637
307.613	626
308.005	630
308.397	626.2
308.789	639.8
309.181	643.4
309.573	633.2
309.965	627.6
310.357	610.6
310.749	633.2
311.142	614.2
311.534	620
311.926	621.2
312.319	613.4
312.711	604.8
313.104	631
313.497	617.2
313.889	645.6
314.282	639.2
314.675	637.8
315.068	623.6
315.461	618.4
315.854	647.2
316.247	619.2
316.64	612.8
317.033	627.2
317.405	624.2
317.798	613.4
318.192	621.8
318.585	607
318.979	620.8
319.372	610.4
319.766	617.2
320.16	623.4
320.553	627.4
320.947	642
321.341	620.4
321.735	619
322.129	606
322.523	646.8
322.917	611
323.311	627.6
323.705	621.6
324.099	621.6
324.494	631
324.888	625.8
325.282	612
325.677	628.8
326.071	621.4
326.466	634
326.861	624.4
327.255	628
327.65	631
328.045	637.8
328.44	624.8
328.835	617.6
329.23	611.4
329.625	647.6
330.02	613.2
330.415	637.8
330.81	624.6
331.206	624.6
331.601	610.6
331.996	631.6
332.37	646.8
332.766	607.6
333.161	642.6
333.557	615.2
333.953	621.2
334.348	894.8
334.744	617.4
335.14	605.2
335.536	605.2
335.932	624.2
336.328	622.2
336.724	616.4
337.12	612
337.516	614.8
337.913	607.2
338.309	631.2
338.705	613.8
339.102	620.6
339.498	606.6
339.895	633
340.291	609
340.688	626
341.085	602
341.481	621.6
341.878	612.6
342.275	628.2
342.672	617
343.069	598.2
343.466	605.2
343.842	626.6
344.239	610.8
344.636	618.2
345.033	606.8
345.431	606.8
345.828	609.2
346.225	611
346.623	646.4
347.02	608
347.418	622.4
347.816	623.6
348.213	611.2
348.611	619
349.009	600.4
349.407	622
349.805	598.2
350.203	606.6
350.601	620.4
350.999	608
351.397	676
351.795	622.6
352.193	619
352.57	608.4
352.969	624.6
353.367	612.8
353.766	614.2
354.164	613.8
354.563	631.4
354.961	612.4
355.36	608
355.759	609
356.158	604.2
356.557	599.4
356.956	606
357.355	597.2
357.754	617.2
358.153	616.8
358.552	644.2
358.951	620
359.35	618.6
359.75	613.4
360.149	601.4
360.527	590
360.926	603.8
361.326	606.4
361.726	615
362.125	603
362.525	616
362.925	608.6
363.325	615.2
363.724	613
364.124	613.4
364.524	609.8
364.924	612.6
365.324	625.6
365.725	598.2
366.125	620
366.525	603.2
366.904	603.2
367.304	589.2
367.705	621.2
368.105	627.6
368.506	607.6
368.906	608.8
369.307	603.8
369.708	620
370.108	598.4
370.509	620
370.91	598.2
371.311	606.6
371.712	611.8
372.113	603.2
372.514	595.8
372.894	610.8
373.295	603.2
373.696	611.2
374.097	614.8
374.499	633.8
374.9	610.4
375.301	599.6
375.703	607.4
376.105	603
376.506	618.2
376.908	622
377.309	617
377.711	609
378.113	605.8
378.493	614.2
378.895	611
379.297	618.8
379.699	594.8
380.102	614
380.504	610.8
380.906	608.2
381.308	643.4
381.71	609.8
382.113	622
382.515	603
382.918	608.6
383.299	611
383.701	617.2
384.104	607.4
384.507	592.6
384.909	612.6
385.312	596
385.715	600.8
386.118	604.6
386.521	598.8
386.924	621
387.327	612.6
387.709	593
388.112	599.2
388.515	600.2
388.918	603
389.322	615.8
389.725	611.2
390.129	623.4
390.532	616.2
390.936	601
391.339	603.8
391.743	612.4
392.125	602.4
392.529	616.6
392.933	621.6
393.337	610.2
393.74	615.8
394.144	607.8
394.548	599.2
394.953	602.8
395.357	612.4
395.761	608.6
396.144	611.8
396.548	604.4
396.952	610.2
397.357	607.2
397.761	600.2
398.166	602
398.57	602.4
398.975	596.8
399.379	606
399.763	659.2
400.168	611.6
400.572	609.8
400.977	601.2
401.382	628.6
401.787	616
402.192	625
402.597	620.6
403.002	601.8
403.386	615.6
403.791	630.2
404.197	597.6
404.602	615.2
405.007	606
405.413	599
405.818	607.8
406.224	614.8
406.608	610.8
407.014	594.8
407.42	613
407.825	606.6
408.231	611.8
408.637	612
409.043	618.2
409.449	610.2
409.834	602.4
410.24	608
410.646	621.6
411.052	619.8
411.458	604.4
411.865	623.4
412.271	625.4
412.677	617.8
413.062	618
413.469	599
413.875	633.2
414.282	627.6
414.689	616.4
415.095	626
415.502	608.4
415.888	609.4
416.294	597
416.701	646.6
417.108	613.8
417.515	621
417.923	601.2
418.33	629.6
418.715	621.2
419.123	608.4
419.53	606.4
419.937	612
420.345	629.4
420.752	609.6
421.16	625
421.546	614
421.953	618.4
422.361	598.2
422.769	604.4
423.177	607.4
423.585	631.4
423.992	628.6
424.379	621.6
424.787	615.2
425.195	617.4
425.603	609.2
426.011	622
426.419	628.4
426.806	613
427.214	614.6
427.623	618
428.031	631.2
428.44	616.6
428.848	625.8
429.235	636
429.644	610.8
430.053	612.4
430.461	625.4
430.87	638.6
431.279	630.6
431.666	610.4
432.075	612
432.484	618.2
432.893	595.8
433.302	635.4
433.711	660.2
434.099	620.2
434.508	606
434.918	610
435.327	633.4
435.737	637.4
436.125	622.4
436.534	627.6
436.944	635.8
437.353	637.8
437.763	660.8
438.173	635.2
438.561	658.4
438.971	632.6
439.381	650.4
439.791	658
440.201	638.4
440.589	665.2
440.999	676.4
441.409	680.6
441.819	671
442.23	677
442.619	686.2
443.029	685.6
443.439	690.4
443.85	697.2
444.26	701.4
444.649	699.2
445.06	694.2
445.471	697.6
445.881	712.6
446.292	722.6
446.682	740.8
447.092	712.8
447.503	768
447.914	727
448.325	727.2
448.715	722.6
449.126	723.6
449.537	729.2
449.948	733
450.338	724
450.75	741.4
451.161	737
451.572	751
451.984	738.4
452.374	728.6
452.786	752
453.197	743.8
453.609	760.8
453.999	739
454.411	742.6
454.823	751.4
455.235	760.8
455.647	751.4
456.037	768.2
456.449	737.6
456.862	763
457.274	754.4
457.665	747.6
458.077	753.6
458.489	800
458.902	756.8
459.293	766.2
459.705	766.8
460.118	753.4
460.53	763.4
460.921	761.8
461.334	758.2
461.747	769
462.16	776.4
462.551	783.6
462.964	781.6
463.377	760.2
463.79	783.4
464.182	794.8
464.595	764
465.008	785.2
465.421	787.4
465.813	783
466.226	782
466.64	779.2
467.053	826
467.445	800
467.859	808.4
468.272	785.8
468.686	790.8
469.078	789.2
469.492	784.4
469.906	791.6
470.298	797.4
470.712	792.6
471.126	822
471.54	773.6
471.933	789.4
472.347	787.6
472.761	795.4
473.175	782.8
473.568	794.6
473.982	775.2
474.397	793.6
474.79	790.8
475.204	795
475.619	794.6
476.033	786.4
476.426	790.6
476.841	786
477.256	809
477.649	781.2
478.064	778.6
478.479	784.8
478.872	770
479.287	774.6
479.702	780.8
480.118	785.4
480.511	789
480.927	788.2
481.342	773.8
481.736	781.6
482.151	774.4
482.566	795.6
482.96	781.8
483.376	794.8
483.792	769.2
484.186	799.6
484.602	782.8
485.017	795.4
485.412	791.6
485.827	779.2
486.243	769.8
486.638	804
487.054	786.2
487.47	792.8
487.865	774
488.281	774.6
488.697	762.8
489.092	781.2
489.508	769.4
489.925	782.4
490.32	768.2
490.736	782.4
491.153	775.8
491.548	772.6
491.964	774.2
492.381	759
492.776	767.8
493.193	763.2
493.61	777.6
494.006	773.4
494.422	761.8
494.84	761.6
495.235	766.6
495.652	759.4
496.069	757.2
496.465	757.6
496.883	753.2
497.3	788.2
497.696	747.8
498.113	760.2
498.509	744.2
498.927	735.4
499.344	744.4
499.741	733.2
500.158	763.2
500.576	740.4
500.973	750.2
501.39	741.8
501.787	736.8
502.205	734.6
502.623	734.6
503.02	729.4
503.438	727.2
503.856	732.2
504.253	734.8
504.671	735
505.068	732
505.486	729.4
505.905	755.8
506.302	734.2
506.72	744.8
507.118	722.4
507.536	732.2
507.955	730.2
508.352	730.2
508.771	740.2
509.169	736
509.587	714.2
510.006	739.2
510.404	702.4
510.823	718.6
511.221	714.2
511.64	708.6
512.038	733
512.457	719.6
512.877	716
513.275	708.2
513.694	704.8
514.092	700
514.512	705.8
514.91	713
515.33	707
515.749	702.2
516.148	713
516.568	718.2
516.966	713.8
517.386	694.8
517.785	696.2
518.205	692.8
518.603	692
519.024	696
519.444	696
519.843	708.8
520.263	706.8
520.662	695.6
521.082	688
521.481	701.2
521.902	681.4
522.301	700.6
522.722	690
523.121	693.2
523.542	678
523.963	690
524.362	691.6
524.783	691.2
525.183	680.6
525.604	693
526.003	675.4
526.425	678.2
526.824	688.6
527.246	678.4
527.646	684.8
528.067	681
528.467	677.6
528.888	684.4
529.289	666.2
529.71	668.2
530.11	670.2
530.532	654.4
530.932	661.2
531.354	658.2
531.755	687.8
532.176	677
532.577	660.6
532.999	667
533.4	665.2
533.822	672
534.223	672.6
534.645	659
535.046	662.4
535.468	668
535.869	674
536.292	655
536.693	690.4
537.115	666
537.516	657.4
537.939	654
538.34	683.4
538.742	672.8
539.165	657.2
539.566	655.2
539.989	645
540.391	653.6
540.814	657.6
541.216	652.2
541.639	650.6
542.041	656.6
542.464	651.6
542.866	651.6
543.268	650.4
543.691	655.4
544.093	650.4
544.517	662.6
544.919	645.2
545.343	669.2
545.745	649
546.147	649
546.571	649.8
546.974	647.4
547.398	653.4
547.8	654.8
548.224	640.2
548.627	648
549.03	651.2
549.454	633.2
549.857	633.2
550.281	628.8
550.684	640.8
551.087	654.2
551.512	645
551.915	650
552.34	644.4
552.743	634.2
553.146	644.2
553.571	634.8
553.975	657.6
554.399	634.4
554.803	687.4
555.207	631.2
555.632	634.8
556.036	642
556.461	631.2
556.865	638
557.268	631.6
557.694	632.6
558.098	643.2
558.502	636.4
558.927	617.4
559.332	629
559.736	632
560.162	636.2
560.566	625.6
560.992	633
561.396	630
561.801	624.2
562.227	628
562.631	628.2
563.036	628.4
563.462	634
563.867	630.6
564.272	606.2
564.698	631.6
565.103	616.4
565.508	645
565.935	619.2
566.34	630.4
566.745	647.6
567.172	624.8
567.577	652
567.982	627.6
568.409	633.4
568.815	613.2
569.22	625.8
569.626	633
570.053	613.6
570.459	619.4
570.865	630.4
571.292	631.2
571.698	625.6
572.104	615.2
572.531	617
572.937	625.2
573.343	608.6
573.75	622.4
574.177	626.2
574.583	623.6
574.99	622
575.396	627.8
575.824	610.4
576.231	626.2
576.637	622.2
577.065	643.6
577.472	623.6
577.879	607.8
578.286	631.2
578.714	603.8
579.121	613
579.528	622.4
579.935	623.4
580.364	622.6
580.771	604.2
581.178	609.4
581.585	614.6
582.014	627.6
582.421	604
582.829	612.2
583.236	621
583.644	616.2
584.073	606.6
584.481	609.4
584.889	612.4
585.296	615.8
585.726	613
586.134	600.6
586.542	609.8
586.95	626.4
587.358	604.2
587.787	611.6
588.196	624.8
588.604	612.2
589.012	612.6
589.421	597.8
589.851	605.8
590.259	617
590.668	608.2
591.076	645
591.485	596.2
591.894	610.2
592.324	617.6
592.733	615.4
593.142	585.8
593.551	602.8
593.96	644.4
594.369	595
594.8	600.2
595.209	613.4
595.618	592.4
596.028	599.2
596.437	590.8
596.847	601.2
597.256	607
597.687	618.2
598.097	601.6
598.507	593.8
598.917	604.6
599.327	607.8
599.736	609.2
600.146	613.8
600.556	607.4
600.988	617.8
601.398	603.4
601.808	610.2
602.219	588.2
602.629	612.8
603.039	608.4
603.45	628.4
603.86	608.6
604.271	608.2
604.703	609.6
605.114	597.2
605.525	602
605.935	620.6
606.346	630.4
606.757	605.4
607.168	593.4
607.579	593
607.99	614
608.402	596.8
608.813	609.2
609.224	594.2
609.636	594.2
610.047	597.4
610.48	608.4
610.892	608.2
611.303	605
611.715	599.8
612.127	594.8
612.539	599
612.95	596.6
613.362	592.4
613.774	593.6
614.186	604.8
614.599	594.4
615.011	610.2
615.423	603.4
615.835	593
616.248	599.4
616.66	611.2
617.073	592
617.485	598.2
617.898	610.8
618.311	593.6
618.723	610.4
619.136	626.4
619.549	606
619.962	628.8
620.375	595.6
620.788	603
621.201	602.8
621.614	609.4
622.028	591.8
622.441	604.6
622.854	610.8
623.268	594.6
623.681	601.8
624.095	600.2
624.509	615.6
624.922	596.6
625.336	592.4
625.728	597.2
626.142	603.6
626.556	606.6
626.97	601.6
627.384	594
627.799	596.8
628.213	608.8
628.627	598.6
629.041	592.2
629.456	591.4
629.87	600.8
630.285	607.6
630.699	604.2
631.093	590
631.507	605.2
631.922	593.6
632.337	610.4
632.752	587.2
633.167	600.2
633.582	605.6
633.997	599
634.412	591.2
634.806	598.4
635.221	592.8
635.637	605.6
636.052	590.6
636.468	597.4
636.883	605.4
637.299	599.2
637.715	579.4
638.109	590.6
638.525	586.6
638.941	604.4
639.357	598.2
639.773	607.6
640.189	589.4
640.584	593.2
641	602.8
641.416	580.6
641.832	589
642.249	590.2
642.665	597.2
643.06	598.8
643.477	608.6
643.894	579.2
644.31	597.2
644.727	587.8
645.123	599.8
645.54	589.6
645.957	596.8
646.374	611.8
646.77	592.4
647.187	622.2
647.604	588.2
648.021	583.2
648.439	584
648.835	598.4
649.252	589.6
649.67	591
650.088	592.4
650.484	598.6
650.902	602.4
651.32	594.8
651.738	590
652.134	590.8
652.552	607.2
652.971	591.6
653.389	598.4
653.786	604.4
654.204	616.4
654.622	582.6
655.019	595
655.438	598.2
655.857	600
656.275	598.2
656.673	589.4
657.091	600.8
657.51	592.2
657.908	602.8
658.327	602
658.746	591.6
659.144	595.4
659.563	605
659.982	597.8
660.38	574.6
660.8	590.4
661.219	603.8
661.617	601.6
662.037	592.8
662.457	608.6
662.855	576.8
663.275	624.8
663.695	596.4
664.094	582.4
664.514	596.4
664.934	591.6
665.333	603.6
665.753	583.8
666.152	582
666.572	587.4
666.993	609.4
667.392	590.4
667.812	589.6
668.212	585.8
668.632	597
669.053	579.2
669.453	593.6
669.874	593.2
670.273	593.6
670.694	586.6
671.116	600.6
671.515	603.2
671.937	588.8
672.337	587.6
672.758	590.2
673.158	602.4
673.58	581.4
673.98	592.8
674.402	603.6
674.824	590.8
675.224	591.8
675.646	583.2
676.047	593
676.469	592.2
676.869	590.2
677.292	596.8
677.693	585.2
678.115	584.2
678.516	598.6
678.939	602.6
679.34	589.8
679.762	595.8
680.164	595.2
680.586	579.8
680.988	592
681.411	618.8
681.812	582
682.236	583
682.637	590.4
683.061	581.4
683.462	603.4
683.864	592.8
684.288	595.2
684.69	582.2
685.114	605
685.516	605.4
685.94	575.2
686.342	596
686.766	591.4
687.168	582.8
687.571	611.6
687.995	593
688.398	586.4
688.822	580.4
689.225	606.2
689.628	611.6
690.052	595
690.456	590.8
690.88	586.4
691.284	579.2
691.687	602
692.112	580.4
692.515	584.6
692.919	597
693.344	581
693.747	591.2
694.173	578.6
694.577	597
694.98	585.4
695.406	591
695.81	590.2
696.214	588.8
696.64	598.8
697.044	585.6
697.448	606.4
697.874	586.8
698.279	590
698.684	578.6
699.11	576.4
699.514	589.8
699.919	585.4
700.324	583.4
700.75	590.4
701.156	589.8
701.561	600.8
701.987	593.2
702.393	598
702.798	597.8
703.203	593.4
703.63	587.6
704.036	592.8
704.442	592
704.847	585
705.274	583.4
705.68	594.6
706.086	597.6
706.492	580
706.92	587.2
707.326	591.2
707.732	594.2
708.139	576.2
708.545	574.2
708.973	584.2
709.38	586.4
709.786	569.8
710.193	604
710.6	591.8
711.028	586.6
711.435	588.6
711.842	590
712.249	586.8
712.656	579.6
713.064	589.6
713.492	573.2
713.9	587
714.307	588
714.715	587.8
715.123	587.8
715.53	585.6
715.938	597.2
716.367	589.6
716.775	580.8
717.184	575.4
717.592	586.4
718	606.4
718.408	624
718.816	635.2
719.225	594.8
719.633	583.4
720.042	571.2
720.472	583
720.881	600.8
721.29	594.6
721.699	571
722.108	588
722.517	581.4
722.926	579.8
723.335	597.8
723.744	576.8
724.154	584.8
724.563	588.4
724.973	589
725.382	582.8
725.792	580.8
726.202	579.8
726.612	611.4
727.022	585.8
727.432	590.8
779.813	576.2
780.223	623.8
780.634	577.2
781.044	573.4
781.454	592.4
781.865	596.4
782.276	579.6
782.686	594.2
783.097	581.8
783.508	582.8
783.919	588.6
784.33	595
784.741	599.4
785.152	580
785.563	572.2
785.974	578.2
786.386	598.8
786.776	585.6
787.188	582.2
787.599	571
788.011	586.6
788.423	584.4
788.835	568.4
789.247	572
789.659	584.8
790.071	579.8
790.483	631
790.874	580.6
791.286	588.6
791.699	577.2
792.111	580.2
792.524	586.4
792.937	578.8
793.349	568.8
793.741	577
794.154	588.4
794.567	599.8
794.98	588.4
795.393	577
795.785	595.6
796.198	582.8
796.612	587.8
797.026	576.6
797.439	569.8
797.831	581.4
798.245	571.2
798.659	581.8
799.073	579
799.487	577.8
799.88	577.2
800.294	581.8
800.708	585.4
801.123	569.8
801.516	599.6
801.93	582.4
802.345	573
802.76	592.2
803.153	605
803.568	597.8
803.983	589.6
804.377	585.8
804.792	573.6
805.207	568.8
805.601	587.4
806.016	612.4
806.432	580.2
806.826	613.4
807.242	597.4
807.658	582.4
808.052	582
808.468	582.2
808.884	584
809.279	586.2
809.695	593
810.111	608.6
810.506	582.2
810.922	601.6
811.339	578.4
811.734	579
812.151	582.8
812.546	573.6
812.963	578.8
813.38	582.4
813.776	587.2
814.193	607.8
814.589	573.2
815.006	572.4
815.402	576
815.82	579
816.237	587.8
816.633	589
817.051	578.2
817.448	579
817.866	573.8
818.262	606.6
818.68	584.2
819.077	581.2
819.495	588.4
819.892	628
820.311	571.2
820.708	588.2
821.127	584
821.524	592
821.943	580.6
822.34	604.8
822.759	591.6
823.157	585
823.576	590.6
823.974	594.4
824.393	605.6
824.791	589.4
825.189	579
825.609	577.6
826.007	584.8
826.427	568.8
826.826	580
827.246	586.6
827.644	567.4
828.043	593.6
828.463	581.4
828.862	597.6
829.261	592.8
829.682	571.4
830.081	593.6
830.502	580.4
830.901	593
831.301	608
831.722	576
832.121	580.6
832.521	578.2
832.943	578.2
833.342	583
833.742	577.2
834.164	581.4
834.564	569.4
834.965	589.8
835.386	583
835.787	577.6
836.188	581.6
836.588	584
837.01	586
837.411	579.2
837.812	591.4
838.213	597.4
838.636	576.8
839.037	657.2
839.438	581.8
839.84	584.2
840.263	585.8
840.664	587.8
841.066	573.4
841.468	588.4
841.891	572.8
842.293	594.2
842.695	583
843.098	601.6
843.5	577.2
843.902	590.4
844.326	587.8
844.729	590.8
845.131	588.2
845.534	593
845.937	598.6
846.34	600.4
846.764	583.6
847.167	586.2
847.571	572.6
847.974	579.4
848.377	578
848.781	633.6
849.184	599.6
849.588	582.4
849.992	583.8
850.396	580.2
850.821	602.8
851.225	589.2
851.63	584
852.034	592.4
852.438	582.4
852.843	604.8
853.247	581.8
853.652	570.6
854.057	601.6
854.462	581.2
854.867	587
855.272	602.8
855.677	588.4
856.082	574
856.487	572.8
