#lambda/nm	C1
208.295	512.4
208.67	467.2
209.045	428
209.419	430.2
209.794	621.8
210.169	598.2
210.544	730.8
210.919	620.6
211.295	617.2
211.67	619.4
212.045	616.2
212.421	607
212.796	653.2
213.172	616.2
213.547	609.4
213.923	617
214.299	608.8
214.675	622.2
215.051	618.2
215.427	629
215.803	630.2
216.179	618.8
216.555	613.6
216.932	622
217.308	621
217.684	611.6
218.061	621.2
218.438	617.6
218.814	609.8
219.191	620.2
219.568	604.6
219.945	611
220.322	615
220.699	613.4
221.076	620.6
221.453	619.4
221.83	610.4
222.208	599.8
222.585	605.6
222.962	614.2
223.34	619
223.717	609.8
224.095	606.2
224.473	617.6
224.851	613.4
225.229	607.4
225.607	638.4
225.985	610
226.363	623
226.741	613
227.119	618.8
227.497	625.8
227.876	604.2
228.254	624.8
228.633	621
229.011	613.6
229.39	616.6
229.769	620.2
230.148	626
230.527	631
230.905	620.2
231.284	622.6
231.664	614.4
232.043	639
232.422	624.2
232.801	615
233.181	623.4
233.56	618.8
233.94	616.8
234.319	603
234.699	612.8
235.079	645.2
235.458	650.2
235.838	633.8
236.218	607.8
236.598	603
236.978	615.2
237.358	601.8
237.738	604.4
238.119	613.8
238.499	607.2
238.88	606.2
239.26	628.6
239.641	601.2
240.021	614.2
240.402	619.4
240.783	607.4
241.163	614
241.544	621.2
241.925	622.2
242.306	622.8
242.687	623.6
243.069	616.2
243.45	616.6
243.831	612
244.212	611.2
244.594	652.8
244.975	623.4
245.357	612.2
245.739	611
246.12	621
246.502	630.8
246.884	615.8
247.266	611.4
247.648	616
248.03	638.6
248.412	623.6
248.794	626.4
249.176	615.6
249.559	624.2
249.941	607.4
250.323	609.2
250.706	616.8
251.089	611.4
251.471	616.2
251.854	613.6
252.237	615.6
252.62	625.4
253.002	619.8
253.385	613.6
253.769	630
254.152	611.8
254.535	625.6
254.918	613.8
255.301	610.2
255.685	618.8
256.068	610.2
256.452	642.8
256.835	627.6
257.219	627.6
257.603	634.2
257.986	615.8
258.37	622
258.754	605.4
259.138	615.8
259.522	628
259.906	626
260.29	612.4
260.675	612.4
261.059	622.4
261.443	612.2
261.828	620
262.212	629.2
262.597	610.2
262.981	615
263.366	628.6
263.751	617.2
264.136	617.2
264.521	615.4
264.906	604.8
265.291	627.8
265.676	603.4
266.061	631.2
266.446	633.2
266.831	620
267.217	637.6
267.602	613.8
267.987	618.4
268.373	612.8
268.759	626.8
269.144	624
269.53	623.4
269.916	611.4
270.302	613.2
270.688	630.8
271.074	616.8
271.46	632.8
271.846	649.2
272.232	614.8
272.618	615
273.004	615.2
273.391	621.8
273.777	628.2
274.164	616.8
274.55	629.6
274.937	621.8
275.324	610.6
275.71	615.8
276.097	616.6
276.484	607.4
276.871	611.6
277.258	617.8
277.645	611.2
278.032	619.8
278.419	619.2
278.807	618.8
279.194	617.2
279.581	605.6
279.969	619
280.356	612.6
280.744	617.6
281.131	647.6
281.519	635.4
281.907	610
282.295	613.8
282.682	625.8
283.07	618.4
283.458	620.8
283.846	630.2
284.235	630.4
284.623	624.6
285.011	614.4
285.399	623.8
285.788	617.4
286.176	607.2
286.565	628.4
286.953	608.2
287.342	617.8
287.731	610.4
288.119	607.4
288.508	609
288.897	614.2
289.286	605
289.675	627.4
290.064	627.6
290.453	605.2
290.821	617.6
291.21	627.6
291.599	615.2
291.989	615.2
292.378	626.4
292.768	639.8
293.157	617
293.547	627.2
293.936	614.6
294.326	602.6
294.716	624
295.106	622.8
295.496	617.4
295.886	624.8
296.276	612.6
296.666	606.2
297.056	610.6
297.446	604.2
297.836	634.4
298.227	604.6
298.617	615.8
299.008	631
299.398	609
299.789	608.8
300.179	622.6
300.57	625.4
300.961	618.4
301.352	614.8
301.742	621
302.133	608.8
302.524	617.4
302.915	620.8
303.307	611.4
303.698	627
304.089	625.6
304.48	613.6
304.872	621.2
305.263	615.2
305.655	611
306.046	623.2
306.438	613.2
306.829	618.6
307.221	635.6
307.613	620.6
308.005	628.8
308.397	631.6
308.789	637.8
309.181	643.4
309.573	627.8
309.965	634
310.357	617
310.749	634.8
311.142	611.6
311.534	611.6
311.926	620.8
312.319	615.6
312.711	611.8
313.104	632.8
313.497	618.8
313.889	662
314.282	643
314.675	640.6
315.068	622.6
315.461	629.8
315.854	645.2
316.247	628
316.64	619
317.033	612.8
317.405	628.2
317.798	617.8
318.192	620.2
318.585	612.4
318.979	614.2
319.372	602.4
319.766	618.2
320.16	621.2
320.553	635.4
320.947	636.8
321.341	611.2
321.735	619.4
322.129	600.2
322.523	645.8
322.917	617.8
323.311	627.4
323.705	612.8
324.099	623
324.494	630
324.888	634.4
325.282	611.2
325.677	631.6
326.071	625.8
326.466	626
326.861	621.6
327.255	622.4
327.65	629.6
328.045	632.2
328.44	610.4
328.835	624
329.23	615
329.625	641.6
330.02	607.6
330.415	644.2
330.81	618.4
331.206	623.4
331.601	615.4
331.996	627
332.37	636
332.766	604.4
333.161	639.6
333.557	618.2
333.953	622.2
334.348	936
334.744	616.4
335.14	607.2
335.536	613.4
335.932	630
336.328	610.8
336.724	624.4
337.12	620
337.516	617.2
337.913	618
338.309	632.6
338.705	616
339.102	632.8
339.498	606.8
339.895	628
340.291	618.6
340.688	622.8
341.085	606.8
341.481	618.2
341.878	618.2
342.275	646
342.672	616.4
343.069	622
343.466	600.4
343.842	630.6
344.239	605
344.636	622
345.033	611.2
345.431	615.8
345.828	628.2
346.225	618.6
346.623	645.4
347.02	628.4
347.418	625.4
347.816	626.8
348.213	596
348.611	621.4
349.009	609.2
349.407	631.2
349.805	616.2
350.203	603.8
350.601	632.2
350.999	612.2
351.397	664
351.795	613.6
352.193	626.8
352.57	632.4
352.969	624
353.367	605.2
353.766	611.8
354.164	611.8
354.563	618.4
354.961	614.6
355.36	608
355.759	617.4
356.158	606
356.557	603.8
356.956	607.2
357.355	596.8
357.754	617.4
358.153	621.8
358.552	639.4
358.951	615.8
359.35	617.6
359.75	611.6
360.149	606.2
360.527	603.6
360.926	611.8
361.326	615.6
361.726	614.6
362.125	606.6
362.525	624
362.925	606.8
363.325	613.8
363.724	612.2
364.124	605.6
364.524	604.2
364.924	613.6
365.324	617.2
365.725	604.8
366.125	617.4
366.525	608.6
366.904	597.2
367.304	598
367.705	619.6
368.105	627.2
368.506	608.6
368.906	612.6
369.307	615.8
369.708	613.6
370.108	599.8
370.509	623.6
370.91	602.2
371.311	614
371.712	615.8
372.113	612
372.514	592.8
372.894	607
373.295	604.8
373.696	624
374.097	610
374.499	640.6
374.9	613.4
375.301	606.6
375.703	614.6
376.105	600.8
376.506	613.8
376.908	611.8
377.309	608.8
377.711	611.6
378.113	610.4
378.493	611
378.895	602.6
379.297	618.8
379.699	596.8
380.102	605.8
380.504	616.6
380.906	594.4
381.308	632.6
381.71	605.2
382.113	612.6
382.515	603.8
382.918	614.6
383.299	611.8
383.701	619.8
384.104	614
384.507	592.4
384.909	604
385.312	595.2
385.715	601
386.118	608.8
386.521	595.2
386.924	615.4
387.327	603.4
387.709	591.2
388.112	596
388.515	605
388.918	606.6
389.322	610
389.725	602.6
390.129	628.6
390.532	614.6
390.936	604.6
391.339	594.6
391.743	611.2
392.125	599.6
392.529	619.4
392.933	620.6
393.337	603.8
393.74	608.2
394.144	610.2
394.548	606.2
394.953	606.2
395.357	619.8
395.761	612.2
396.144	611
396.548	601.6
396.952	607.2
397.357	603.2
397.761	602.8
398.166	606.6
398.57	603.2
398.975	602.2
399.379	613
399.763	662.2
400.168	605.8
400.572	613.4
400.977	615.2
401.382	628.8
401.787	614.8
402.192	620.4
402.597	622.2
403.002	598
403.386	613.4
403.791	627.8
404.197	603.8
404.602	609.2
405.007	610.8
405.413	609.2
405.818	615.8
406.224	598.6
406.608	612.2
407.014	604.4
407.42	622.4
407.825	607.2
408.231	621
408.637	608.6
409.043	629.4
409.449	610.6
409.834	609
410.24	610
410.646	621.6
411.052	620
411.458	611.2
411.865	612.4
412.271	621
412.677	609.4
413.062	621.8
413.469	602.4
413.875	631.8
414.282	617.2
414.689	614.8
415.095	610.6
415.502	598.6
415.888	606.2
416.294	596.4
416.701	645.8
417.108	606
417.515	617.6
417.923	599
418.33	620
418.715	608.8
419.123	601
419.53	600.2
419.937	613.4
420.345	630.8
420.752	600.4
421.16	623
421.546	607.4
421.953	624.6
422.361	603.6
422.769	616.2
423.177	598
423.585	636.8
423.992	634
424.379	624.2
424.787	621.6
425.195	629.4
425.603	607.6
426.011	622.4
426.419	628.4
426.806	613.2
427.214	619
427.623	623.4
428.031	623.2
428.44	612.8
428.848	627
429.235	626.4
429.644	607.2
430.053	610.4
430.461	629
430.87	638.2
431.279	621.6
431.666	604.4
432.075	623.8
432.484	621.2
432.893	605.2
433.302	623.4
433.711	651.8
434.099	626
434.508	612.6
434.918	610
435.327	629.8
435.737	626
436.125	624.2
436.534	640
436.944	635.8
437.353	638.8
437.763	657.2
438.173	631.2
438.561	660.8
438.971	634.2
439.381	655.2
439.791	658.4
440.201	635.6
440.589	660
440.999	670.6
441.409	666.2
441.819	654.6
442.23	681
442.619	681.4
443.029	686
443.439	683.2
443.85	696.4
444.26	695.8
444.649	701
445.06	688.8
445.471	690.6
445.881	697.6
446.292	706.8
446.682	725.4
447.092	693.8
447.503	756.4
447.914	713.8
448.325	717.2
448.715	713
449.126	709.8
449.537	718.2
449.948	723.4
450.338	712.6
450.75	733.6
451.161	726.4
451.572	748
451.984	729.6
452.374	719.2
452.786	737.2
453.197	732.2
453.609	732.4
453.999	721.4
454.411	727.6
454.823	763.4
455.235	746.4
455.647	724
456.037	741.4
456.449	727.4
456.862	732.6
457.274	744
457.665	728.8
458.077	746.4
458.489	773.6
458.902	743.6
459.293	750.6
459.705	741.4
460.118	730.6
460.53	748.8
460.921	753.8
461.334	754.2
461.747	751.6
462.16	761.4
462.551	763.6
462.964	754.8
463.377	743.6
463.79	756.2
464.182	769.2
464.595	762.8
465.008	768.4
465.421	761.8
465.813	750.2
466.226	765.6
466.64	752.8
467.053	802.6
467.445	764.8
467.859	779.4
468.272	773.4
468.686	776.6
469.078	759
469.492	767.2
469.906	765
470.298	770.6
470.712	767.2
471.126	814
471.54	752.4
471.933	762.6
472.347	763.4
472.761	757.4
473.175	750.8
473.568	759.6
473.982	758.8
474.397	760.2
474.79	752.4
475.204	764.2
475.619	767.6
476.033	764.8
476.426	770.2
476.841	761.8
477.256	795.6
477.649	761.6
478.064	749.8
478.479	758
478.872	758.6
479.287	754
479.702	757
480.118	766.8
480.511	762.2
480.927	761.2
481.342	756.8
481.736	771.4
482.151	749.8
482.566	753
482.96	762.8
483.376	765.6
483.792	752.8
484.186	765.6
484.602	761.6
485.017	756.4
485.412	757.2
485.827	765.4
486.243	748.2
486.638	782.4
487.054	775.6
487.47	768.4
487.865	754
488.281	758.4
488.697	741.4
489.092	751
489.508	738
489.925	759
490.32	745.8
490.736	761.8
491.153	758.4
491.548	754.4
491.964	757.2
492.381	734.6
492.776	740
493.193	740.4
493.61	746.4
494.006	749.6
494.422	754.8
494.84	731.6
495.235	739.4
495.652	740
496.069	750.2
496.465	728.8
496.883	728.2
497.3	767.2
497.696	731.2
498.113	743.4
498.509	716.8
498.927	723.4
499.344	709.6
499.741	721.8
500.158	739.8
500.576	737.4
500.973	725.6
501.39	721.6
501.787	706.4
502.205	735
502.623	719.6
503.02	716.4
503.438	722
503.856	719.2
504.253	720.8
504.671	714
505.068	707.8
505.486	706
505.905	730.2
506.302	715
506.72	719
507.118	699.2
507.536	710.4
507.955	714.4
508.352	717
508.771	711
509.169	716.2
509.587	697.4
510.006	708.4
510.404	693.8
510.823	696.4
511.221	693.4
511.64	687.6
512.038	703
512.457	694.6
512.877	698.2
513.275	692.2
513.694	699.8
514.092	692.6
514.512	698
514.91	681.2
515.33	682.8
515.749	683.2
516.148	691.6
516.568	689.6
516.966	682.6
517.386	680
517.785	685.6
518.205	686.6
518.603	674.2
519.024	670.8
519.444	682.8
519.843	684.8
520.263	690.6
520.662	681.2
521.082	681.4
521.481	678.4
521.902	678
522.301	688
522.722	677
523.121	683.8
523.542	664.6
523.963	680.2
524.362	678.6
524.783	677
525.183	673.6
525.604	679.8
526.003	661
526.425	668.8
526.824	661.4
527.246	668.8
527.646	674.8
528.067	665
528.467	668.2
528.888	665.4
529.289	666.2
529.71	675.6
530.11	663
530.532	660.6
530.932	650.6
531.354	641.4
531.755	695
532.176	664.2
532.577	657.8
532.999	657.2
533.4	652.2
533.822	669
534.223	674
534.645	650.8
535.046	653.2
535.468	659.4
535.869	677.8
536.292	651.4
536.693	685.2
537.115	663
537.516	648.2
537.939	643.4
538.34	674.4
538.742	668
539.165	650.2
539.566	647.6
539.989	645.4
540.391	652
540.814	650.4
541.216	659.8
541.639	650
542.041	656.4
542.464	638.4
542.866	641.2
543.268	638
543.691	659.6
544.093	652.6
544.517	668.6
544.919	642.8
545.343	673.2
545.745	636.8
546.147	651.4
546.571	646.2
546.974	631
547.398	644.4
547.8	659.8
548.224	636.8
548.627	633.2
549.03	644.8
549.454	641
549.857	631.2
550.281	630.8
550.684	633.8
551.087	644.6
551.512	641.6
551.915	643.8
552.34	636.4
552.743	638
553.146	634
553.571	635.4
553.975	638.8
554.399	624.6
554.803	682.4
555.207	636.4
555.632	625.4
556.036	632.4
556.461	618
556.865	627.4
557.268	625.4
557.694	629.4
558.098	632.4
558.502	636
558.927	629
559.332	638.2
559.736	634
560.162	636.4
560.566	624.6
560.992	633.6
561.396	624.4
561.801	629.4
562.227	629.6
562.631	621.6
563.036	625
563.462	629.6
563.867	630.4
564.272	611
564.698	622.2
565.103	614
565.508	642
565.935	621.6
566.34	611
566.745	633
567.172	620.2
567.577	640.2
567.982	638
568.409	623.8
568.815	620.4
569.22	621.8
569.626	625.6
570.053	603
570.459	620.2
570.865	620.8
571.292	621
571.698	621.8
572.104	605.6
572.531	621.8
572.937	626.6
573.343	617
573.75	612.8
574.177	617.2
574.583	628
574.99	610.2
575.396	624.4
575.824	617
576.231	627.2
576.637	602.8
577.065	636.6
577.472	604.6
577.879	617
578.286	634.4
578.714	609.6
579.121	610.4
579.528	615.8
579.935	620.2
580.364	611.6
580.771	600.2
581.178	609.2
581.585	626.2
582.014	613.8
582.421	602.2
582.829	611.4
583.236	630
583.644	597.2
584.073	603.4
584.481	612
584.889	607.4
585.296	617.8
585.726	609
586.134	594.6
586.542	598
586.95	632.2
587.358	598.4
587.787	611
588.196	626.6
588.604	606
589.012	602.8
589.421	598.4
589.851	603.4
590.259	613.8
590.668	599.4
591.076	643.4
591.485	602.6
591.894	610.4
592.324	630.2
592.733	619.4
593.142	597.6
593.551	598.4
593.96	606.6
594.369	600.2
594.8	600.2
595.209	601.4
595.618	590.2
596.028	599.8
596.437	599.2
596.847	605.6
597.256	604.8
597.687	608.4
598.097	602.2
598.507	602.8
598.917	602.2
599.327	599.4
599.736	596
600.146	615.4
600.556	603.2
600.988	612.8
601.398	603.6
601.808	609.6
602.219	593.6
602.629	600.6
603.039	601.4
603.45	622.4
603.86	605.2
604.271	617
604.703	602.8
605.114	601.6
605.525	605.2
605.935	609.6
606.346	621.8
606.757	610.2
607.168	592.2
607.579	591.4
607.99	605.4
608.402	598.8
608.813	602.2
609.224	602
609.636	593.6
610.047	593
610.48	602
610.892	605.2
611.303	599.6
611.715	591.2
612.127	589
612.539	593.8
612.95	599.2
613.362	590.8
613.774	588.8
614.186	591
614.599	592.8
615.011	603.4
615.423	595.8
615.835	584.4
616.248	589
616.66	605
617.073	592.8
617.485	593
617.898	607
618.311	601.2
618.723	592
619.136	626.4
619.549	620.4
619.962	619.8
620.375	594
620.788	594.6
621.201	588.8
621.614	602
622.028	591.8
622.441	603
622.854	611.4
623.268	591.6
623.681	597.8
624.095	593.4
624.509	608
624.922	597.2
625.336	589.2
625.728	601.8
626.142	605
626.556	615.8
626.97	607.4
627.384	595.4
627.799	595.2
628.213	603.6
628.627	593.2
629.041	594.8
629.456	593.8
629.87	588.6
630.285	612.8
630.699	609.2
631.093	595.4
631.507	597
631.922	603.2
632.337	612.2
632.752	595.8
633.167	588.8
633.582	587.8
633.997	595.6
634.412	591.4
634.806	595.6
635.221	595
635.637	603.2
636.052	584.4
636.468	596.4
636.883	618
637.299	600.2
637.715	588
638.109	597.6
638.525	587.6
638.941	608
639.357	603
639.773	597.8
640.189	588.4
640.584	596.8
641	593.6
641.416	586.4
641.832	600.8
642.249	592.4
642.665	599.8
643.06	601.6
643.477	603.8
643.894	580.8
644.31	595.4
644.727	593.2
645.123	603
645.54	584.4
645.957	591.2
646.374	602
646.77	594
647.187	630
647.604	587.6
648.021	579.2
648.439	591.8
648.835	595.2
649.252	592.4
649.67	588.6
650.088	596.8
650.484	597.8
650.902	597.4
651.32	600.6
651.738	601.8
652.134	602.2
652.552	611.6
652.971	599.4
653.389	594.6
653.786	605
654.204	612.6
654.622	585.2
655.019	585.4
655.438	594.2
655.857	594.2
656.275	596.6
656.673	580.8
657.091	605.8
657.51	582.2
657.908	601
658.327	602
658.746	581.8
659.144	591.8
659.563	610.4
659.982	596.8
660.38	586.6
660.8	585.2
661.219	602
661.617	590.2
662.037	592.8
662.457	603.2
662.855	580.8
663.275	625.4
663.695	593.4
664.094	585.4
664.514	585.6
664.934	581.2
665.333	592.8
665.753	588.8
666.152	571.4
666.572	582.6
666.993	608
667.392	589
667.812	593.4
668.212	585.4
668.632	602.6
669.053	589.6
669.453	593.4
669.874	593.2
670.273	584.6
670.694	577.8
671.116	604.6
671.515	594.2
671.937	591.8
672.337	577.2
672.758	587.6
673.158	594.4
673.58	581.8
673.98	593
674.402	599.8
674.824	593
675.224	580.4
675.646	577.4
676.047	588.2
676.469	596.6
676.869	595.8
677.292	589.4
677.693	585
678.115	588.6
678.516	591.8
678.939	593
679.34	590.8
679.762	595.4
680.164	589.8
680.586	576.6
680.988	591.6
681.411	606.4
681.812	583.8
682.236	584
682.637	579.2
683.061	581.6
683.462	592
683.864	584.2
684.288	593.4
684.69	581.2
685.114	599.6
685.516	605.6
685.94	583
686.342	596.4
686.766	580.4
687.168	588.8
687.571	612.2
687.995	591
688.398	579.6
688.822	585.8
689.225	600.2
689.628	604.2
690.052	584.8
690.456	594.6
690.88	587.6
691.284	571.2
691.687	600.2
692.112	580.8
692.515	581.4
692.919	589
693.344	601.2
693.747	582.8
694.173	582.4
694.577	604.8
694.98	591.8
695.406	586.4
695.81	591.2
696.214	599.8
696.64	597.6
697.044	593.4
697.448	600.4
697.874	579.4
698.279	591.8
698.684	582.6
699.11	585.6
699.514	588.6
699.919	582.4
700.324	581.4
700.75	589
701.156	596.2
701.561	599.6
701.987	590.8
702.393	594.4
702.798	598.4
703.203	587.8
703.63	575.4
704.036	588.4
704.442	587.4
704.847	578.8
705.274	581
705.68	593.2
706.086	594.6
706.492	579.2
706.92	585.8
707.326	590.4
707.732	577.2
708.139	587.8
708.545	579.4
708.973	576
709.38	585
709.786	582.2
710.193	606
710.6	584.4
711.028	585.8
711.435	586.2
711.842	584.2
712.249	581.8
712.656	583.6
713.064	600
713.492	584.2
713.9	587
714.307	594.8
714.715	587
715.123	593.2
715.53	588
715.938	603.8
716.367	582.6
716.775	582.8
717.184	582
717.592	578.8
718	592.6
718.408	615.2
718.816	630.2
719.225	600.4
719.633	588
720.042	579.8
720.472	588.6
720.881	603.4
721.29	588.4
721.699	576.6
722.108	595
722.517	597.8
722.926	587.6
723.335	594
723.744	592.4
724.154	586.6
724.563	593
724.973	588.4
725.382	578.4
725.792	587.8
726.202	577.6
726.612	603.6
727.022	582.6
727.432	583.4
779.813	589.8
780.223	622.8
780.634	584.8
781.044	583
781.454	586
781.865	602
782.276	580.2
782.686	597.8
783.097	585.6
783.508	590.8
783.919	595.2
784.33	595.6
784.741	605.4
785.152	578.4
785.563	576.4
785.974	584
786.386	594.2
786.776	579.2
787.188	588.4
787.599	580.4
788.011	584.6
788.423	592.4
788.835	580.2
789.247	574.8
789.659	578.2
790.071	582.4
790.483	631
790.874	574.4
791.286	592.6
791.699	578.4
792.111	590.8
792.524	590.6
792.937	583.8
793.349	572.8
793.741	584.2
794.154	576
794.567	605.8
794.98	582.2
795.393	581.4
795.785	596.4
796.198	582.6
796.612	587.4
797.026	583.6
797.439	569.2
797.831	578.2
798.245	578
798.659	588.4
799.073	581.2
799.487	575.4
799.88	590.2
800.294	589.2
800.708	592.4
801.123	591.6
801.516	607
801.93	580
802.345	574.2
802.76	588.4
803.153	598
803.568	594.4
803.983	596
804.377	589
804.792	578
805.207	573.8
805.601	587.6
806.016	620.8
806.432	577.6
806.826	623
807.242	598.4
807.658	585.6
808.052	584.8
808.468	576.2
808.884	576
809.279	587.8
809.695	594
810.111	605.2
810.506	590.8
810.922	601.2
811.339	577.8
811.734	591.8
812.151	580
812.546	581
812.963	572.6
813.38	593
813.776	581.6
814.193	605.8
814.589	580.6
815.006	583.8
815.402	575.2
815.82	576.4
816.237	580.4
816.633	591
817.051	575.8
817.448	585.4
817.866	577.8
818.262	607
818.68	578
819.077	583.8
819.495	579.2
819.892	622.6
820.311	578.4
820.708	584
821.127	582.2
821.524	594.4
821.943	589.2
822.34	607
822.759	583.2
823.157	576.6
823.576	592.2
823.974	593.8
824.393	630.4
824.791	579.6
825.189	572.8
825.609	579
826.007	585.2
826.427	568.8
826.826	577.8
827.246	589.6
827.644	569.4
828.043	589.6
828.463	581.4
828.862	590
829.261	589.4
829.682	572.2
830.081	588
830.502	578.2
830.901	588.2
831.301	596
831.722	575.8
832.121	582.8
832.521	572
832.943	579.4
833.342	587.6
833.742	576.2
834.164	581.6
834.564	575
834.965	595.2
835.386	584.2
835.787	583
836.188	579.8
836.588	590.6
837.01	579
837.411	578.6
837.812	590.2
838.213	588.4
838.636	573.8
839.037	640.2
839.438	589.6
839.84	586
840.263	590.8
840.664	586.2
841.066	577.4
841.468	575.2
841.891	577.8
842.293	593.6
842.695	591
843.098	596.4
843.5	579.6
843.902	583.2
844.326	592.4
844.729	587
845.131	592
845.534	585.4
845.937	598.2
846.34	592.8
846.764	579.8
847.167	579.4
847.571	571.6
847.974	584.4
848.377	575
848.781	631.4
849.184	593.4
849.588	580
849.992	587
850.396	585
850.821	596
851.225	587.6
851.63	573
852.034	596.6
852.438	580
852.843	607
853.247	574.4
853.652	574.4
854.057	590.4
854.462	588
854.867	584.6
855.272	612.6
855.677	590
856.082	573
