#lambda/nm	C1
208.295	510.6
208.67	471.6
209.045	432.2
209.419	431.2
209.794	609.6
210.169	606.4
210.544	709.6
210.919	616.2
211.295	606.8
211.67	616.2
212.045	614
212.421	605
212.796	653
213.172	607.2
213.547	606.6
213.923	611
214.299	614.4
214.675	621
215.051	611.8
215.427	625.2
215.803	629.6
216.179	617.2
216.555	606.4
216.932	613.2
217.308	613.8
217.684	613.8
218.061	618.4
218.438	614.8
218.814	605.2
219.191	623.6
219.568	602.2
219.945	605.8
220.322	627.2
220.699	616.8
221.076	619
221.453	617.2
221.83	599.6
222.208	598.4
222.585	604
222.962	614.8
223.34	623.6
223.717	610.2
224.095	613
224.473	620
224.851	605
225.229	605.4
225.607	636.6
225.985	608
226.363	620.4
226.741	617.6
227.119	611.8
227.497	628.6
227.876	602.4
228.254	627.4
228.633	619.4
229.011	625
229.39	626.2
229.769	621.6
230.148	627.8
230.527	632.8
230.905	612.8
231.284	627.6
231.664	610
232.043	624
232.422	617
232.801	605
233.181	613.6
233.56	614.2
233.94	613.2
234.319	609
234.699	615
235.079	656.2
235.458	652.8
235.838	631.4
236.218	612.4
236.598	599
236.978	610.6
237.358	607.6
237.738	608
238.119	625.6
238.499	604.8
238.88	612.6
239.26	629
239.641	606.2
240.021	614.6
240.402	618.2
240.783	608.6
241.163	611.6
241.544	618.6
241.925	615.4
242.306	632.6
242.687	617
243.069	619.6
243.45	629.2
243.831	612.8
244.212	614.8
244.594	648
244.975	624.6
245.357	616.4
245.739	607.8
246.12	614.2
246.502	624
246.884	616.2
247.266	613
247.648	624.6
248.03	635.6
248.412	610
248.794	620.4
249.176	614.2
249.559	629
249.941	606.4
250.323	605.6
250.706	611.6
251.089	616.6
251.471	620.6
251.854	616.2
252.237	622
252.62	619
253.002	608.2
253.385	607.8
253.769	622.6
254.152	612.8
254.535	626.8
254.918	603.8
255.301	614.6
255.685	610.8
256.068	608
256.452	642.4
256.835	633.6
257.219	623.8
257.603	628.2
257.986	610.8
258.37	624.4
258.754	609.2
259.138	625
259.522	628.2
259.906	619.4
260.29	613.2
260.675	623.4
261.059	613.8
261.443	609.4
261.828	629.8
262.212	621.6
262.597	606.2
262.981	604.6
263.366	621.4
263.751	615.2
264.136	609
264.521	619.8
264.906	605
265.291	629
265.676	613.4
266.061	624.4
266.446	633.4
266.831	614.6
267.217	635
267.602	610.6
267.987	623
268.373	614.8
268.759	619.8
269.144	619.2
269.53	625.6
269.916	610.6
270.302	608.6
270.688	620.6
271.074	616.2
271.46	623
271.846	643.6
272.232	619.8
272.618	613.8
273.004	609.8
273.391	627.8
273.777	624.6
274.164	617
274.55	621.2
274.937	621
275.324	604.2
275.71	619.2
276.097	626.8
276.484	607.8
276.871	618
277.258	623.2
277.645	605.8
278.032	616.2
278.419	599.4
278.807	622
279.194	616.4
279.581	614.6
279.969	618.6
280.356	619.4
280.744	623.2
281.131	650
281.519	628.6
281.907	613
282.295	616
282.682	622.6
283.07	622
283.458	624.8
283.846	631.6
284.235	625.4
284.623	630.4
285.011	608.2
285.399	626.2
285.788	615.4
286.176	607.6
286.565	626
286.953	611.8
287.342	610.4
287.731	606
288.119	614.4
288.508	617.4
288.897	620.2
289.286	607.8
289.675	614
290.064	630.6
290.453	614
290.821	616.6
291.21	636
291.599	608.8
291.989	615.6
292.378	625.2
292.768	635.6
293.157	623.2
293.547	629.4
293.936	620.8
294.326	616.2
294.716	624
295.106	612.6
295.496	626
295.886	618.8
296.276	619.2
296.666	614.8
297.056	612
297.446	609.6
297.836	636
298.227	612.6
298.617	622.4
299.008	627
299.398	613.4
299.789	614
300.179	614.2
300.57	627.6
300.961	615.6
301.352	614.6
301.742	623.2
302.133	616.8
302.524	608.4
302.915	612.2
303.307	610.2
303.698	625.4
304.089	622.6
304.48	622.8
304.872	612.4
305.263	616
305.655	609.2
306.046	618.8
306.438	625.8
306.829	604.4
307.221	628.4
307.613	617.2
308.005	627
308.397	628.2
308.789	637.8
309.181	638.8
309.573	635.8
309.965	628.6
310.357	620.2
310.749	634.2
311.142	613
311.534	619.4
311.926	622.8
312.319	617
312.711	611.4
313.104	637.4
313.497	626.2
313.889	664.4
314.282	631
314.675	644.2
315.068	616.6
315.461	621.8
315.854	643.6
316.247	622.6
316.64	607.6
317.033	614.4
317.405	618
317.798	612.4
318.192	613.8
318.585	604
318.979	614.2
319.372	608.2
319.766	617.4
320.16	625.2
320.553	632.4
320.947	632.6
321.341	615.4
321.735	613
322.129	605.2
322.523	642
322.917	607.8
323.311	630
323.705	615.2
324.099	615.8
324.494	634.2
324.888	629.8
325.282	615.8
325.677	625.6
326.071	640
326.466	630.8
326.861	615.2
327.255	628
327.65	625
328.045	626.6
328.44	617.8
328.835	617.4
329.23	615
329.625	638.2
330.02	612.6
330.415	642.6
330.81	617.8
331.206	621.4
331.601	620.6
331.996	622
332.37	643.8
332.766	602.6
333.161	644
333.557	614.8
333.953	616.6
334.348	967.8
334.744	618
335.14	608.2
335.536	606.8
335.932	635.2
336.328	623.4
336.724	625.6
337.12	625.8
337.516	623.8
337.913	623.4
338.309	630
338.705	617.6
339.102	627.4
339.498	616.8
339.895	631.2
340.291	610.8
340.688	631.6
341.085	602.2
341.481	612.2
341.878	617.2
342.275	647.4
342.672	605
343.069	613.8
343.466	604.6
343.842	617
344.239	609.8
344.636	615
345.033	610
345.431	606
345.828	615.8
346.225	608
346.623	646.2
347.02	612.4
347.418	625
347.816	623.6
348.213	604.8
348.611	621.6
349.009	608
349.407	635
349.805	609.2
350.203	600.8
350.601	631.4
350.999	609.6
351.397	679
351.795	612.6
352.193	618.6
352.57	620.2
352.969	625.2
353.367	604.6
353.766	609.4
354.164	619.6
354.563	622.6
354.961	614.4
355.36	603.2
355.759	613.2
356.158	595.8
356.557	605.2
356.956	614.6
357.355	607.6
357.754	616
358.153	618.6
358.552	637.8
358.951	614.2
359.35	623.8
359.75	607.6
360.149	596.2
360.527	605.6
360.926	608.4
361.326	610.8
361.726	607
362.125	601
362.525	621.4
362.925	614
363.325	613.4
363.724	606.8
364.124	601.8
364.524	600.6
364.924	610.4
365.324	615.6
365.725	587.4
366.125	611.6
366.525	608.8
366.904	595.6
367.304	595.6
367.705	627
368.105	628.4
368.506	611.4
368.906	605
369.307	601.4
369.708	608.4
370.108	592.8
370.509	619.8
370.91	604.2
371.311	610.4
371.712	613.8
372.113	611
372.514	596
372.894	602.8
373.295	598
373.696	618
374.097	617.4
374.499	640
374.9	605.8
375.301	607.8
375.703	608.8
376.105	604.4
376.506	618.4
376.908	615.6
377.309	606.8
377.711	615.6
378.113	611.4
378.493	619.2
378.895	603.2
379.297	614
379.699	593.4
380.102	612.4
380.504	620.6
380.906	606.4
381.308	635.2
381.71	605.8
382.113	618.2
382.515	602
382.918	606.8
383.299	603.2
383.701	614.2
384.104	610
384.507	593
384.909	605.6
385.312	602
385.715	600.4
386.118	606.6
386.521	602.8
386.924	622.4
387.327	603.4
387.709	595
388.112	595.4
388.515	610.4
388.918	610.8
389.322	615
389.725	608.4
390.129	629
390.532	618.8
390.936	602.8
391.339	593.2
391.743	612.6
392.125	610.6
392.529	620
392.933	620.6
393.337	603.8
393.74	610.6
394.144	610.8
394.548	602.6
394.953	607.4
395.357	617
395.761	607.8
396.144	608.8
396.548	602.8
396.952	606.2
397.357	606.6
397.761	596.8
398.166	602.8
398.57	601.6
398.975	594.4
399.379	614.6
399.763	655.4
400.168	605.4
400.572	614.2
400.977	604.2
401.382	630.8
401.787	615
402.192	628.8
402.597	618.6
403.002	600.6
403.386	623.2
403.791	631
404.197	604.4
404.602	610
405.007	610.8
405.413	598.2
405.818	607.6
406.224	601.4
406.608	600.2
407.014	600
407.42	624.6
407.825	599.8
408.231	621.4
408.637	604.4
409.043	620.6
409.449	599.2
409.834	606.2
410.24	609.2
410.646	611
411.052	621.8
411.458	607.8
411.865	612
412.271	614.4
412.677	606
413.062	618
413.469	601.2
413.875	632.2
414.282	618.4
414.689	613
415.095	614.4
415.502	601
415.888	611.6
416.294	592.4
416.701	647.2
417.108	602.2
417.515	616
417.923	609.8
418.33	631.6
418.715	617.8
419.123	604.8
419.53	605.8
419.937	614.4
420.345	625.8
420.752	610.2
421.16	630.2
421.546	609.6
421.953	609.4
422.361	605
422.769	603.8
423.177	603.8
423.585	631.2
423.992	638.2
424.379	624
424.787	618
425.195	628.2
425.603	613.6
426.011	625.8
426.419	635
426.806	608.6
427.214	613.8
427.623	622.4
428.031	622.4
428.44	619.6
428.848	627
429.235	628
429.644	617.6
430.053	612.2
430.461	626.4
430.87	633.2
431.279	622.4
431.666	604.8
432.075	615.4
432.484	613.2
432.893	612.8
433.302	645.6
433.711	666
434.099	625.8
434.508	622
434.918	616.2
435.327	636
435.737	624.6
436.125	641.2
436.534	636.8
436.944	641.4
437.353	644.4
437.763	663.6
438.173	647.2
438.561	663.8
438.971	646.2
439.381	647.6
439.791	662.2
440.201	646
440.589	666.6
440.999	687.6
441.409	671.4
441.819	669.6
442.23	681
442.619	683
443.029	684
443.439	689.8
443.85	705.6
444.26	714.2
444.649	711.6
445.06	706.6
445.471	699.4
445.881	714.6
446.292	720.2
446.682	734.8
447.092	707.6
447.503	775.4
447.914	715.8
448.325	719.4
448.715	725.6
449.126	727.6
449.537	729.8
449.948	731.4
450.338	745.4
450.75	743.6
451.161	733.8
451.572	741.8
451.984	735.2
452.374	733
452.786	736.4
453.197	745.4
453.609	748.8
453.999	741.8
454.411	737
454.823	750
455.235	751
455.647	740
456.037	752
456.449	739.2
456.862	747.8
457.274	746.6
457.665	740.4
458.077	764.2
458.489	791.2
458.902	747.4
459.293	757.2
459.705	761.6
460.118	750.6
460.53	758.6
460.921	758.2
461.334	755.8
461.747	755.4
462.16	773.4
462.551	767
462.964	765.4
463.377	759.2
463.79	773.2
464.182	774.6
464.595	752.8
465.008	771.8
465.421	767.6
465.813	765.8
466.226	775
466.64	754.6
467.053	808.2
467.445	776.4
467.859	783.4
468.272	772.2
468.686	784.8
469.078	777
469.492	771
469.906	780.4
470.298	792
470.712	775.8
471.126	820
471.54	762.8
471.933	769.2
472.347	774.8
472.761	772.4
473.175	769.8
473.568	778.6
473.982	766.6
474.397	776.2
474.79	775.6
475.204	778.2
475.619	777.8
476.033	784
476.426	770
476.841	765.8
477.256	798.6
477.649	770
478.064	757
478.479	768.2
478.872	770.2
479.287	758.2
479.702	761.2
480.118	774
480.511	771.6
480.927	773.6
481.342	773.8
481.736	760.4
482.151	764.8
482.566	775
482.96	759.4
483.376	784.2
483.792	761.6
484.186	767
484.602	762.4
485.017	773.6
485.412	764
485.827	765.8
486.243	764
486.638	787.4
487.054	767.8
487.47	787.6
487.865	756.8
488.281	749
488.697	750.2
489.092	756.8
489.508	753.6
489.925	759.8
490.32	746.6
490.736	761
491.153	755.2
491.548	746
491.964	751
492.381	740.4
492.776	760.4
493.193	748.8
493.61	751
494.006	746
494.422	748.6
494.84	739
495.235	744.4
495.652	745.6
496.069	743.8
496.465	742.4
496.883	748.2
497.3	775
497.696	737.4
498.113	743
498.509	731.4
498.927	724.4
499.344	731.2
499.741	732.2
500.158	747.4
500.576	745.4
500.973	731
501.39	716.4
501.787	716.8
502.205	728.6
502.623	724.4
503.02	708.4
503.438	717.6
503.856	717
504.253	727.2
504.671	721.8
505.068	713.6
505.486	714.4
505.905	739.6
506.302	713.4
506.72	739.6
507.118	706.6
507.536	714.8
507.955	704
508.352	711.6
508.771	718.8
509.169	720.4
509.587	703.2
510.006	711.4
510.404	709.8
510.823	702
511.221	693.4
511.64	707.6
512.038	718.8
512.457	700.4
512.877	714.2
513.275	686.4
513.694	699
514.092	699.6
514.512	694.8
514.91	714
515.33	697.4
515.749	693.4
516.148	698.6
516.568	704.2
516.966	697.4
517.386	696.2
517.785	692
518.205	692
518.603	683
519.024	683
519.444	697.4
519.843	697.6
520.263	694.8
520.662	693.6
521.082	681.8
521.481	683
521.902	684.8
522.301	691
522.722	687
523.121	682.4
523.542	683.2
523.963	675.2
524.362	689.2
524.783	684
525.183	687.6
525.604	688
526.003	672
526.425	664
526.824	686.4
527.246	680.8
527.646	686
528.067	679.4
528.467	673.2
528.888	670.4
529.289	670.6
529.71	681
530.11	676.6
530.532	656.2
530.932	665.8
531.354	662
531.755	696.6
532.176	676
532.577	658.4
532.999	672.6
533.4	654.8
533.822	673.4
534.223	662
534.645	659
535.046	658.2
535.468	664
535.869	672.8
536.292	652.2
536.693	692.8
537.115	662.4
537.516	657.6
537.939	650.8
538.34	680
538.742	663
539.165	657.4
539.566	665.4
539.989	650.6
540.391	652.6
540.814	652
541.216	652
541.639	651.6
542.041	658.8
542.464	649.2
542.866	649.2
543.268	642
543.691	649.8
544.093	656.8
544.517	665.4
544.919	640.6
545.343	674.4
545.745	644.6
546.147	652.2
546.571	642.6
546.974	633.8
547.398	639.4
547.8	652.6
548.224	648.6
548.627	636.4
549.03	642
549.454	638.4
549.857	636.4
550.281	634.6
550.684	636.2
551.087	654.8
551.512	647.8
551.915	643
552.34	640.6
552.743	636.8
553.146	637.8
553.571	628.2
553.975	649.6
554.399	628.6
554.803	677.6
555.207	631.6
555.632	634.2
556.036	642.6
556.461	631.6
556.865	638.2
557.268	630.6
557.694	635.8
558.098	647.4
558.502	638
558.927	628.4
559.332	626
559.736	635.8
560.162	631.2
560.566	635.6
560.992	632.8
561.396	620
561.801	615.4
562.227	634.4
562.631	616.4
563.036	626.8
563.462	628.8
563.867	636.6
564.272	611.8
564.698	632.6
565.103	625.8
565.508	641.8
565.935	621.8
566.34	624.8
566.745	634.2
567.172	625.6
567.577	652.8
567.982	634.6
568.409	627.6
568.815	616.2
569.22	625.4
569.626	631.2
570.053	608.4
570.459	629.8
570.865	628.2
571.292	626.6
571.698	623.6
572.104	610.4
572.531	623.4
572.937	634.8
573.343	620.2
573.75	611.2
574.177	619.8
574.583	627.8
574.99	613.2
575.396	615.6
575.824	614.6
576.231	630.6
576.637	612.8
577.065	641.4
577.472	607.8
577.879	615.8
578.286	630.6
578.714	616.6
579.121	617.8
579.528	621.4
579.935	624.6
580.364	618.6
580.771	604
581.178	609.8
581.585	608.8
582.014	614.8
582.421	611.4
582.829	617.6
583.236	621
583.644	608.8
584.073	616
584.481	606
584.889	610
585.296	613.2
585.726	608.2
586.134	605.8
586.542	606.6
586.95	625.6
587.358	599.4
587.787	609.2
588.196	623.8
588.604	606
589.012	610.8
589.421	606.6
589.851	604.4
590.259	615.2
590.668	602
591.076	634.8
591.485	604.2
591.894	610.4
592.324	627.4
592.733	621
593.142	604.8
593.551	612
593.96	648.6
594.369	600
594.8	600.6
595.209	614.6
595.618	598.2
596.028	607.6
596.437	606.4
596.847	612.4
597.256	614
597.687	615.6
598.097	613.4
598.507	598.6
598.917	608.4
599.327	613.4
599.736	615.4
600.146	622.6
600.556	600.6
600.988	624.4
601.398	600.4
601.808	621.8
602.219	595.6
602.629	606.2
603.039	617.2
603.45	632.4
603.86	609.2
604.271	630.4
604.703	610.6
605.114	605.8
605.525	615.6
605.935	615.2
606.346	630.8
606.757	614.8
607.168	609.2
607.579	605.6
607.99	620.4
608.402	605.2
608.813	614.6
609.224	600.6
609.636	594.4
610.047	613.8
610.48	612.8
610.892	619.6
611.303	622
611.715	615
612.127	605.6
612.539	603.4
612.95	620.6
613.362	601
613.774	608.2
614.186	608.6
614.599	613.8
615.011	617.4
615.423	617
615.835	613.4
616.248	604.6
616.66	618.4
617.073	613.8
617.485	622
617.898	629.2
618.311	618.8
618.723	618.6
619.136	649.6
619.549	636
619.962	637.2
620.375	618
620.788	627.2
621.201	604.6
621.614	618.8
622.028	610.8
622.441	614.2
622.854	624
623.268	613.2
623.681	620.8
624.095	614.2
624.509	621.6
624.922	622.8
625.336	615.6
625.728	613.4
626.142	627
626.556	635.2
626.97	619.6
627.384	613.6
627.799	612.6
628.213	631
628.627	622
629.041	612.2
629.456	613.8
629.87	621.8
630.285	627
630.699	626
631.093	610.4
631.507	617.6
631.922	623.2
632.337	638.6
632.752	597.4
633.167	624.6
633.582	612.8
633.997	613.8
634.412	605.6
634.806	613.4
635.221	607.8
635.637	620.2
636.052	598.2
636.468	613.2
636.883	625.2
637.299	602.8
637.715	600.8
638.109	611.2
638.525	601.8
638.941	624
639.357	611
639.773	614.4
640.189	611
640.584	607.8
641	615.2
641.416	598.2
641.832	605.2
642.249	615.6
642.665	617.2
643.06	618.2
643.477	627
643.894	603.8
644.31	605.2
644.727	601.8
645.123	608.2
645.54	609.2
645.957	613.6
646.374	615.4
646.77	614.4
647.187	636
647.604	602.4
648.021	593.4
648.439	599.6
648.835	607.6
649.252	602.4
649.67	603
650.088	613
650.484	611.2
650.902	596.8
651.32	616.2
651.738	608.4
652.134	601.8
652.552	626.6
652.971	607.6
653.389	603.6
653.786	621.6
654.204	638.4
654.622	600.6
655.019	611.4
655.438	607.4
655.857	608.8
656.275	604.6
656.673	597.8
657.091	606.8
657.51	597.4
657.908	602.6
658.327	619.4
658.746	589.2
659.144	597.6
659.563	607.4
659.982	601.6
660.38	585.6
660.8	603.6
661.219	610.6
661.617	605.2
662.037	596.2
662.457	617.8
662.855	588.6
663.275	636.6
663.695	604.2
664.094	601
664.514	597.2
664.934	593.4
665.333	600.6
665.753	603.6
666.152	595.6
666.572	586.2
666.993	615.8
667.392	589.6
667.812	601.8
668.212	599
668.632	614
669.053	591.8
669.453	601.4
669.874	604.2
670.273	597.2
670.694	591.2
671.116	603.8
671.515	599
671.937	592.6
672.337	590.8
672.758	587.4
673.158	611.8
673.58	580
673.98	601.8
674.402	604.2
674.824	597.4
675.224	594
675.646	591.2
676.047	598
676.469	595
676.869	609.4
677.292	594
677.693	601.2
678.115	597.4
678.516	599.6
678.939	595.6
679.34	591.8
679.762	604.4
680.164	597.2
680.586	594.8
680.988	598.8
681.411	619.6
681.812	583.4
682.236	574.4
682.637	585.4
683.061	578.8
683.462	595.8
683.864	592.8
684.288	604.8
684.69	588.8
685.114	601.6
685.516	598.6
685.94	584.6
686.342	603.2
686.766	591.2
687.168	592.8
687.571	613.4
687.995	598.4
688.398	579
688.822	596.6
689.225	612.2
689.628	602.4
690.052	600.8
690.456	603.2
690.88	594.2
691.284	589.4
691.687	598
692.112	589
692.515	580
692.919	596.4
693.344	603.4
693.747	584.2
694.173	586.4
694.577	605.4
694.98	583.8
695.406	580.6
695.81	593.4
696.214	595.8
696.64	605.4
697.044	598.8
697.448	602
697.874	585.6
698.279	591.4
698.684	587.2
699.11	579.8
699.514	583.2
699.919	592.6
700.324	585.4
700.75	588.4
701.156	593.2
701.561	598.6
701.987	590.4
702.393	599.2
702.798	597.4
703.203	589.4
703.63	581.8
704.036	580.6
704.442	591.4
704.847	584.8
705.274	584.2
705.68	596.6
706.086	594.2
706.492	576.4
706.92	585.4
707.326	598.6
707.732	589.2
708.139	576
708.545	585
708.973	591.2
709.38	589.6
709.786	577.2
710.193	590.4
710.6	593.8
711.028	584
711.435	587.6
711.842	592
712.249	588.8
712.656	593
713.064	600
713.492	579.8
713.9	587.4
714.307	595
714.715	593.8
715.123	585
715.53	591.8
715.938	593
716.367	589.6
716.775	593.6
717.184	585.4
717.592	585.6
718	597.6
718.408	625.6
718.816	636.4
719.225	595.8
719.633	582.4
720.042	580.8
720.472	581.2
720.881	610.8
721.29	597.4
721.699	584.6
722.108	591.8
722.517	589.8
722.926	580.4
723.335	595.4
723.744	594.2
724.154	591.4
724.563	603.2
724.973	599.2
725.382	590
725.792	585
726.202	581.8
726.612	614
727.022	584.2
727.432	574.4
779.813	586.2
780.223	635.6
780.634	586.6
781.044	575.8
781.454	582.2
781.865	600.8
782.276	575.6
782.686	591.8
783.097	581.4
783.508	579
783.919	587.2
784.33	592
784.741	593.2
785.152	568.4
785.563	571.6
785.974	578.8
786.386	598.6
786.776	577.8
787.188	583.6
787.599	577.4
788.011	596.6
788.423	593.2
788.835	583.8
789.247	576.6
789.659	577.4
790.071	589.4
790.483	621.4
790.874	588.8
791.286	592
791.699	588.2
792.111	591.4
792.524	590
792.937	581
793.349	578.4
793.741	582.2
794.154	583.6
794.567	599
794.98	581.8
795.393	563.8
795.785	597.2
796.198	575.8
796.612	585
797.026	577.4
797.439	574.6
797.831	579.8
798.245	573
798.659	578.8
799.073	579.2
799.487	577.4
799.88	582
800.294	592
800.708	591
801.123	583
801.516	607
801.93	572.4
802.345	575.2
802.76	582
803.153	600.8
803.568	597.4
803.983	594.8
804.377	590.6
804.792	571.2
805.207	578
805.601	584.2
806.016	614
806.432	571.2
806.826	614.8
807.242	592.8
807.658	596.8
808.052	585.2
808.468	578.4
808.884	570.2
809.279	577.4
809.695	599.4
810.111	603.8
810.506	593.8
810.922	604.6
811.339	575.8
811.734	590.2
812.151	574.8
812.546	578.6
812.963	581
813.38	591.6
813.776	592.2
814.193	597.6
814.589	578.2
815.006	589
815.402	576.2
815.82	580
816.237	587.8
816.633	584.8
817.051	573
817.448	583
817.866	570
818.262	601
818.68	573.2
819.077	580.8
819.495	591.4
819.892	621.6
820.311	580.6
820.708	578.6
821.127	586.4
821.524	592.2
821.943	588.8
822.34	601.4
822.759	584.4
823.157	584.2
823.576	602.2
823.974	591
824.393	615.8
824.791	582
825.189	575.4
825.609	582.6
826.007	589.6
826.427	571.8
826.826	582
827.246	585.8
827.644	576
828.043	595.4
828.463	580.2
828.862	590.4
829.261	585
829.682	574.8
830.081	590.6
830.502	578.2
830.901	588.8
831.301	602.2
831.722	567.4
832.121	573.2
832.521	575.8
832.943	580.6
833.342	573.4
833.742	581.2
834.164	585.6
834.564	576.2
834.965	582.2
835.386	585
835.787	578.6
836.188	577.2
836.588	581.8
837.01	577.2
837.411	573.8
837.812	594
838.213	578.8
838.636	576.4
839.037	652.2
839.438	582.2
839.84	583
840.263	595.8
840.664	593.8
841.066	577.4
841.468	583
841.891	574.6
842.293	590.8
842.695	590.2
843.098	586.4
843.5	582.6
843.902	583
844.326	588
844.729	581.6
845.131	584.8
845.534	582.2
845.937	591.6
846.34	603
846.764	576.8
847.167	584.2
847.571	581.2
847.974	577.8
848.377	578.8
848.781	626.2
849.184	594.8
849.588	575.4
849.992	578.4
850.396	576.6
850.821	594.4
851.225	575.8
851.63	578.2
852.034	594.4
852.438	591
852.843	666
853.247	578.8
853.652	576
854.057	602.2
854.462	579.4
854.867	588.8
855.272	603.2
855.677	584.2
856.082	570.8
