#lambda/nm	C1
208.295	516.4
208.67	468
209.045	430.6
209.419	429.4
209.794	618.2
210.169	602.2
210.544	723.8
210.919	619.2
211.295	615.6
211.67	617
212.045	609
212.421	610.2
212.796	658.6
213.172	619.4
213.547	609.2
213.923	605.2
214.299	604.6
214.675	623.2
215.051	617.4
215.427	626
215.803	634
216.179	621.2
216.555	607.2
216.932	629.6
217.308	616.6
217.684	610.2
218.061	623
218.438	619.6
218.814	609.6
219.191	624
219.568	606
219.945	607.6
220.322	626.6
220.699	620.8
221.076	628.4
221.453	620.4
221.83	610.2
222.208	616.8
222.585	612.8
222.962	624.8
223.34	624
223.717	612.8
224.095	616.8
224.473	616.2
224.851	604.8
225.229	608
225.607	627.6
225.985	606
226.363	619.8
226.741	620.8
227.119	613.8
227.497	626
227.876	607.2
228.254	623.2
228.633	623.6
229.011	623.6
229.39	623.4
229.769	610
230.148	618.8
230.527	634.4
230.905	612
231.284	611
231.664	609.4
232.043	627.6
232.422	619.6
232.801	611.8
233.181	609.8
233.56	619.6
233.94	620
234.319	601
234.699	608.2
235.079	646.4
235.458	651.2
235.838	621.2
236.218	601.2
236.598	600.8
236.978	604.2
237.358	617.4
237.738	604.2
238.119	614.4
238.499	615
238.88	612
239.26	629.2
239.641	612.4
240.021	606.6
240.402	612.4
240.783	612.2
241.163	604.2
241.544	621
241.925	609.4
242.306	625.2
242.687	612.8
243.069	612.2
243.45	626.6
243.831	614
244.212	612.4
244.594	652.4
244.975	623.6
245.357	620.6
245.739	608.6
246.12	624.8
246.502	627.8
246.884	613.4
247.266	606.4
247.648	619
248.03	630.8
248.412	627
248.794	618.4
249.176	606.8
249.559	625.2
249.941	605.4
250.323	606.6
250.706	613.6
251.089	611.6
251.471	614.6
251.854	616.6
252.237	617
252.62	625.6
253.002	610.4
253.385	618.2
253.769	625.2
254.152	617
254.535	629.8
254.918	608.2
255.301	616.4
255.685	617.2
256.068	604.4
256.452	641
256.835	626.4
257.219	610.8
257.603	633.4
257.986	605.2
258.37	612.8
258.754	606.6
259.138	614.4
259.522	625.6
259.906	617.8
260.29	614.2
260.675	604.6
261.059	613.6
261.443	606
261.828	631.4
262.212	616
262.597	602.2
262.981	607
263.366	615
263.751	620.2
264.136	607.2
264.521	614.4
264.906	612.2
265.291	627.2
265.676	610.4
266.061	624.4
266.446	629.6
266.831	618.6
267.217	637.2
267.602	619
267.987	622
268.373	616.2
268.759	627.8
269.144	618.6
269.53	612.2
269.916	611.6
270.302	615.8
270.688	619.4
271.074	618.4
271.46	619.6
271.846	644
272.232	609.2
272.618	613
273.004	613
273.391	623
273.777	634.6
274.164	624.6
274.55	624.8
274.937	625.8
275.324	614
275.71	621.4
276.097	622.8
276.484	606
276.871	621
277.258	615.8
277.645	601.6
278.032	619.8
278.419	615.6
278.807	621.8
279.194	611
279.581	609.2
279.969	616.2
280.356	627.2
280.744	617.8
281.131	643.6
281.519	616.8
281.907	612
282.295	613.2
282.682	631.4
283.07	618
283.458	628.6
283.846	633.6
284.235	622.8
284.623	620
285.011	600.4
285.399	626.6
285.788	621.2
286.176	611
286.565	623.2
286.953	607.8
287.342	614.2
287.731	603.4
288.119	605.2
288.508	613.8
288.897	614.8
289.286	601.8
289.675	608.8
290.064	626.8
290.453	605.8
290.821	615.4
291.21	637.2
291.599	612.4
291.989	624.8
292.378	624.4
292.768	627.6
293.157	618
293.547	627.4
293.936	615.2
294.326	614.4
294.716	619.2
295.106	609.8
295.496	627.8
295.886	625.4
296.276	619.6
296.666	613.2
297.056	607
297.446	600.8
297.836	636.4
298.227	607
298.617	613.6
299.008	630.6
299.398	614.8
299.789	620
300.179	615
300.57	626.4
300.961	611.6
301.352	613.6
301.742	629.6
302.133	615
302.524	603.6
302.915	620.8
303.307	609
303.698	631.8
304.089	615
304.48	622
304.872	623.2
305.263	618.2
305.655	608.2
306.046	625.2
306.438	625.2
306.829	614.8
307.221	637.8
307.613	624.8
308.005	633
308.397	627.2
308.789	639
309.181	637.2
309.573	629.4
309.965	632.8
310.357	610
310.749	633.4
311.142	607
311.534	611.2
311.926	618.2
312.319	625
312.711	612.4
313.104	632.8
313.497	620
313.889	658.2
314.282	630
314.675	647.8
315.068	612.6
315.461	626
315.854	649.6
316.247	624.8
316.64	612.8
317.033	624.6
317.405	623.2
317.798	611.8
318.192	618.8
318.585	614.2
318.979	620
319.372	606.6
319.766	619.4
320.16	629.6
320.553	635
320.947	630.6
321.341	616
321.735	618.6
322.129	606.8
322.523	642.6
322.917	607.4
323.311	626.8
323.705	621.8
324.099	619
324.494	632
324.888	631
325.282	618.2
325.677	631.2
326.071	625.2
326.466	633.8
326.861	620.8
327.255	635.6
327.65	622
328.045	634.2
328.44	616.4
328.835	620.6
329.23	613
329.625	639.4
330.02	607.2
330.415	634
330.81	627.6
331.206	618
331.601	615
331.996	625
332.37	631
332.766	609.8
333.161	638
333.557	615.2
333.953	615.2
334.348	987.8
334.744	624.8
335.14	607.4
335.536	609
335.932	624.2
336.328	619
336.724	618.4
337.12	623.8
337.516	613.6
337.913	618.8
338.309	628.2
338.705	619.2
339.102	630.8
339.498	609
339.895	627.4
340.291	615.4
340.688	636
341.085	612
341.481	605.6
341.878	620.4
342.275	638.2
342.672	605
343.069	608.8
343.466	601.8
343.842	622.4
344.239	616.6
344.636	614.4
345.033	610.8
345.431	619.6
345.828	623.2
346.225	609.8
346.623	653.8
347.02	619
347.418	623
347.816	623.6
348.213	604.2
348.611	625.8
349.009	612
349.407	634.4
349.805	606.8
350.203	599.2
350.601	626.8
350.999	608.4
351.397	670
351.795	618.8
352.193	628.2
352.57	621.8
352.969	622.8
353.367	611.8
353.766	607.4
354.164	617
354.563	620.4
354.961	608.2
355.36	606.2
355.759	611.6
356.158	600.6
356.557	616.2
356.956	604.8
357.355	602.2
357.754	612.2
358.153	609.4
358.552	633.8
358.951	612.6
359.35	614.8
359.75	620
360.149	612
360.527	604.4
360.926	594.2
361.326	609.4
361.726	618.6
362.125	604
362.525	623
362.925	614.8
363.325	619.2
363.724	603.6
364.124	603.6
364.524	603
364.924	611.8
365.324	629.8
365.725	596.8
366.125	615.2
366.525	616.6
366.904	602.6
367.304	593.2
367.705	631.8
368.105	627.2
368.506	602
368.906	619
369.307	615.2
369.708	606.8
370.108	596.4
370.509	621.2
370.91	611.2
371.311	614.4
371.712	610.8
372.113	610.8
372.514	602
372.894	609.4
373.295	608.4
373.696	623.2
374.097	616.8
374.499	634
374.9	617
375.301	605.8
375.703	616
376.105	613.2
376.506	618
376.908	618
377.309	613.2
377.711	608.8
378.113	606
378.493	614.6
378.895	602
379.297	617
379.699	604
380.102	617.6
380.504	605
380.906	602.6
381.308	628.6
381.71	603
382.113	614.8
382.515	602.4
382.918	620.6
383.299	603.8
383.701	618.6
384.104	613
384.507	598.4
384.909	601
385.312	588
385.715	601.8
386.118	608
386.521	604
386.924	617
387.327	609.6
387.709	598.4
388.112	599.6
388.515	606.8
388.918	606.2
389.322	610.6
389.725	610.2
390.129	628
390.532	616.8
390.936	616
391.339	601.8
391.743	618.8
392.125	603
392.529	624
392.933	616.4
393.337	611.8
393.74	602.6
394.144	609.4
394.548	604.2
394.953	600.2
395.357	606.4
395.761	610
396.144	611.8
396.548	604.4
396.952	606.6
397.357	610.4
397.761	613
398.166	611
398.57	605.8
398.975	599.2
399.379	614
399.763	656.8
400.168	613.2
400.572	606.4
400.977	605.2
401.382	632
401.787	619.6
402.192	626.8
402.597	626.6
403.002	595.4
403.386	626.2
403.791	631.2
404.197	615.8
404.602	609
405.007	608.4
405.413	597.4
405.818	607
406.224	605.4
406.608	600
407.014	600
407.42	619.2
407.825	610.2
408.231	623.2
408.637	617
409.043	622.6
409.449	607
409.834	602.8
410.24	615
410.646	622.8
411.052	619
411.458	611.6
411.865	620.2
412.271	613.8
412.677	619.8
413.062	615.6
413.469	596
413.875	634.8
414.282	621.4
414.689	616
415.095	620.2
415.502	609.4
415.888	618.2
416.294	601.8
416.701	645.8
417.108	608.4
417.515	621
417.923	606.8
418.33	625.8
418.715	612.6
419.123	608.6
419.53	609.2
419.937	610.2
420.345	627.4
420.752	613.4
421.16	630.2
421.546	608.2
421.953	621.6
422.361	602.6
422.769	612.6
423.177	606.2
423.585	638.8
423.992	627.2
424.379	623.2
424.787	621.4
425.195	632.2
425.603	613.2
426.011	618.8
426.419	617.6
426.806	613.6
427.214	617
427.623	630.6
428.031	628.8
428.44	618
428.848	623.6
429.235	632.8
429.644	613.6
430.053	619.4
430.461	633.6
430.87	647.6
431.279	640.8
431.666	630.2
432.075	634.2
432.484	650.2
432.893	652.4
433.302	671.6
433.711	703.6
434.099	663
434.508	668.6
434.918	673.2
435.327	702
435.737	708
436.125	710.8
436.534	716.6
436.944	730
437.353	734.8
437.763	760.2
438.173	760.4
438.561	775.8
438.971	751.2
439.381	778.6
439.791	784.6
440.201	770.6
440.589	799.6
440.999	809.4
441.409	835
441.819	814.8
442.23	844
442.619	833.2
443.029	854
443.439	848
443.85	852
444.26	883.2
444.649	862
445.06	870.8
445.471	861.4
445.881	872.2
446.292	894.8
446.682	911.4
447.092	874
447.503	939
447.914	897.6
448.325	894
448.715	893.8
449.126	904.4
449.537	884.6
449.948	881
450.338	894.8
450.75	905.8
451.161	905.4
451.572	914.4
451.984	903.4
452.374	896.4
452.786	909.4
453.197	936.4
453.609	926
453.999	907.2
454.411	905.4
454.823	926.6
455.235	931.2
455.647	914.8
456.037	927.8
456.449	911.8
456.862	929.8
457.274	935
457.665	913.6
458.077	934.4
458.489	964.4
458.902	928
459.293	944.6
459.705	933
460.118	922.2
460.53	942
460.921	942
461.334	941.2
461.747	940
462.16	942.8
462.551	949.2
462.964	941.4
463.377	931
463.79	936
464.182	940.6
464.595	944
465.008	934.2
465.421	939.6
465.813	929.2
466.226	941
466.64	924.6
467.053	968.4
467.445	955
467.859	955.6
468.272	939.8
468.686	950.6
469.078	940.4
469.492	936.8
469.906	938
470.298	946.8
470.712	928.8
471.126	981.4
471.54	923.6
471.933	936
472.347	942.2
472.761	928.6
473.175	928.8
473.568	914.2
473.982	923.8
474.397	927
474.79	929.6
475.204	946.4
475.619	922.4
476.033	935
476.426	920.4
476.841	913.6
477.256	941.6
477.649	903.8
478.064	904
478.479	910.6
478.872	898.4
479.287	883.8
479.702	911.8
480.118	907.4
480.511	902.6
480.927	900.6
481.342	899.4
481.736	908.8
482.151	893.8
482.566	909.6
482.96	903.8
483.376	922.6
483.792	895.6
484.186	896.8
484.602	888.8
485.017	887.2
485.412	894.8
485.827	894.8
486.243	889
486.638	917.6
487.054	892.6
487.47	899
487.865	881.8
488.281	875
488.697	861.2
489.092	872
489.508	856.8
489.925	867.2
490.32	857.2
490.736	865
491.153	871.4
491.548	864.4
491.964	863.2
492.381	840
492.776	853.6
493.193	853.2
493.61	857.8
494.006	847.4
494.422	856.8
494.84	834.4
495.235	859.2
495.652	851.6
496.069	839
496.465	830.6
496.883	842.4
497.3	850.6
497.696	831.6
498.113	828.6
498.509	823.2
498.927	819.8
499.344	818
499.741	826.6
500.158	831
500.576	822.2
500.973	824.4
501.39	801.2
501.787	808
502.205	822
502.623	808.8
503.02	793.6
503.438	804
503.856	807.8
504.253	800.4
504.671	803.4
505.068	795.6
505.486	798.4
505.905	817.2
506.302	792.6
506.72	799.4
507.118	788.6
507.536	788.6
507.955	783
508.352	786.2
508.771	795.8
509.169	781.8
509.587	780.2
510.006	776
510.404	774.8
510.823	767.8
511.221	769.4
511.64	771.2
512.038	772
512.457	762.2
512.877	763.4
513.275	749
513.694	759
514.092	762.6
514.512	762.4
514.91	772
515.33	754.6
515.749	755.2
516.148	760.6
516.568	758
516.966	752.2
517.386	742.6
517.785	744.4
518.205	746
518.603	734.4
519.024	725.6
519.444	732.8
519.843	749
520.263	747.8
520.662	732.4
521.082	733.2
521.481	742.2
521.902	728
522.301	733
522.722	725
523.121	719.4
523.542	717.8
523.963	725
524.362	724.6
524.783	712.2
525.183	711.4
525.604	724.6
526.003	690
526.425	699.8
526.824	707
527.246	711.8
527.646	711.4
528.067	704.6
528.467	702
528.888	704
529.289	697.6
529.71	700
530.11	701.4
530.532	687.6
530.932	695.2
531.354	691
531.755	725
532.176	705.8
532.577	696.6
532.999	697.2
533.4	694.6
533.822	705
534.223	702.8
534.645	689.2
535.046	687
535.468	688.8
535.869	708.2
536.292	688
536.693	721.4
537.115	690
537.516	688.6
537.939	689.4
538.34	708.6
538.742	700.2
539.165	694
539.566	685.4
539.989	678.6
540.391	677.2
540.814	679
541.216	675.6
541.639	684.2
542.041	679.6
542.464	680.4
542.866	674.4
543.268	666.6
543.691	684.6
544.093	681
544.517	701
544.919	663.4
545.343	695
545.745	664.2
546.147	677
546.571	670.4
546.974	664.4
547.398	659.8
547.8	679
548.224	657.2
548.627	660.8
549.03	669.6
549.454	660.8
549.857	651.6
550.281	650.4
550.684	656
551.087	667
551.512	660.2
551.915	660.4
552.34	654.4
552.743	652.6
553.146	652.8
553.571	652.8
553.975	675.8
554.399	642.6
554.803	694.6
555.207	647.2
555.632	646
556.036	651.4
556.461	645.8
556.865	649.6
557.268	645
557.694	643
558.098	653.6
558.502	650.4
558.927	644.6
559.332	649.4
559.736	642.8
560.162	648.4
560.566	644.8
560.992	648.6
561.396	644
561.801	642.8
562.227	645.6
562.631	640.8
563.036	647.8
563.462	640.4
563.867	645.8
564.272	636.2
564.698	637.4
565.103	631.2
565.508	658.2
565.935	641.6
566.34	631.4
566.745	646.6
567.172	638.4
567.577	653.2
567.982	652.8
568.409	636.6
568.815	624.8
569.22	635.4
569.626	645.4
570.053	618.6
570.459	638.8
570.865	639
571.292	637.2
571.698	631.2
572.104	617.6
572.531	615.8
572.937	636
573.343	626
573.75	622
574.177	633.4
574.583	635.4
574.99	622.6
575.396	628.2
575.824	614.2
576.231	632.6
576.637	619
577.065	648.2
577.472	607.4
577.879	618
578.286	633
578.714	618.6
579.121	619.2
579.528	622.8
579.935	635
580.364	618.4
580.771	608.8
581.178	618.6
581.585	628
582.014	629.2
582.421	618.6
582.829	618.2
583.236	628
583.644	619.4
584.073	617.2
584.481	620.6
584.889	620
585.296	623.4
585.726	612.8
586.134	608.6
586.542	614.4
586.95	627.2
587.358	604.4
587.787	619
588.196	620.2
588.604	621.2
589.012	618.8
589.421	612.8
589.851	619.8
590.259	612
590.668	618.6
591.076	643.6
591.485	608
591.894	613.6
592.324	635.2
592.733	634.6
593.142	595.6
593.551	611.2
593.96	652.4
594.369	601.4
594.8	603.4
595.209	612.4
595.618	598.2
596.028	598.4
596.437	596
596.847	611.4
597.256	615
597.687	616.6
598.097	614.8
598.507	596
598.917	612.2
599.327	612.4
599.736	614.8
600.146	615.8
600.556	616.8
600.988	625.8
601.398	606.8
601.808	621.4
602.219	598.8
602.629	605
603.039	607.2
603.45	630.8
603.86	609
604.271	620.6
604.703	620.8
605.114	607.4
605.525	613.4
605.935	615.8
606.346	623
606.757	609
607.168	599
607.579	597.4
607.99	618.4
608.402	606.8
608.813	606
609.224	607.4
609.636	595.6
610.047	602.4
610.48	608.8
610.892	611.6
611.303	612.4
611.715	609.8
612.127	593.6
612.539	602.6
612.95	604.6
613.362	594.2
613.774	598.8
614.186	598
614.599	590.2
615.011	615.2
615.423	605
615.835	599
616.248	597.8
616.66	610
617.073	597.2
617.485	601
617.898	617.2
618.311	605.8
618.723	598.6
619.136	627.6
619.549	614.8
619.962	627
620.375	597.4
620.788	607
621.201	591.8
621.614	600.8
622.028	597.4
622.441	595.2
622.854	611.4
623.268	594.6
623.681	604.4
624.095	594.4
624.509	606.4
624.922	603
625.336	584.8
625.728	596.4
626.142	596.8
626.556	612.2
626.97	600.6
627.384	595.8
627.799	595.2
628.213	608
628.627	597.6
629.041	596.8
629.456	599.6
629.87	599.8
630.285	612.4
630.699	604.2
631.093	603.2
631.507	607.2
631.922	610.4
632.337	616.2
632.752	587.6
633.167	598.4
633.582	586.8
633.997	593.6
634.412	597.4
634.806	598
635.221	591.2
635.637	606.6
636.052	591.8
636.468	597.2
636.883	611.8
637.299	593.6
637.715	594.4
638.109	600.8
638.525	585
638.941	613.6
639.357	602.2
639.773	609.2
640.189	594
640.584	590.2
641	607.8
641.416	591.4
641.832	596.8
642.249	593.4
642.665	590.2
643.06	595
643.477	603.6
643.894	576.8
644.31	595.4
644.727	595.6
645.123	596.6
645.54	588.2
645.957	586.4
646.374	595.4
646.77	602
647.187	628.6
647.604	600.6
648.021	586.8
648.439	594.2
648.835	596.2
649.252	599
649.67	592.2
650.088	592.4
650.484	601
650.902	602
651.32	600
651.738	594.4
652.134	601.2
652.552	620.4
652.971	599.6
653.389	586.8
653.786	605.6
654.204	618
654.622	592.8
655.019	597
655.438	596.6
655.857	602.8
656.275	599
656.673	592
657.091	598.4
657.51	592
657.908	596.2
658.327	605.8
658.746	582.8
659.144	594.2
659.563	601
659.982	591.6
660.38	585
660.8	594
661.219	602.6
661.617	594.6
662.037	601.4
662.457	608.8
662.855	582.2
663.275	626.4
663.695	591.4
664.094	591.4
664.514	595.6
664.934	594.2
665.333	597
665.753	591
666.152	578
666.572	583.2
666.993	603.2
667.392	592.4
667.812	594.6
668.212	592.8
668.632	597.6
669.053	587.4
669.453	588.2
669.874	594.2
670.273	601.4
670.694	589
671.116	613.2
671.515	602.8
671.937	591.4
672.337	585.6
672.758	596
673.158	599
673.58	581.6
673.98	587
674.402	614.2
674.824	584
675.224	577.8
675.646	580.2
676.047	591.8
676.469	585.8
676.869	595.2
677.292	591.2
677.693	581.6
678.115	584.8
678.516	592.6
678.939	598.4
679.34	590.4
679.762	598
680.164	605.6
680.586	580.4
680.988	593.2
681.411	609
681.812	585.8
682.236	577.2
682.637	587.4
683.061	579.2
683.462	586.8
683.864	587.2
684.288	591.4
684.69	577.6
685.114	610.2
685.516	591
685.94	577.8
686.342	603.4
686.766	591.8
687.168	575.4
687.571	603.2
687.995	591
688.398	577.4
688.822	582
689.225	602.8
689.628	610.4
690.052	583
690.456	605.4
690.88	591
691.284	578.2
691.687	593.6
692.112	583.6
692.515	580.4
692.919	591.6
693.344	591.8
693.747	593.6
694.173	585.2
694.577	601.6
694.98	588.2
695.406	585.2
695.81	591.6
696.214	591.6
696.64	591.8
697.044	590.8
697.448	602
697.874	590.6
698.279	586.4
698.684	574.8
699.11	581.8
699.514	584.2
699.919	582.8
700.324	584.6
700.75	584.4
701.156	594.2
701.561	600.2
701.987	591.6
702.393	595.6
702.798	603.8
703.203	593.4
703.63	574
704.036	592
704.442	594.2
704.847	588
705.274	584
705.68	594
706.086	604.4
706.492	576.8
706.92	591.2
707.326	597.6
707.732	587.6
708.139	578.8
708.545	584.6
708.973	590.2
709.38	590.6
709.786	572
710.193	607.8
710.6	588.8
711.028	581
711.435	586.8
711.842	583.2
712.249	585.8
712.656	590
713.064	596.8
713.492	580.4
713.9	584.6
714.307	591.4
714.715	590.4
715.123	582.2
715.53	587.4
715.938	596.8
716.367	587.8
716.775	590.4
717.184	573.8
717.592	580.6
718	585.6
718.408	621
718.816	619.8
719.225	587
719.633	576.4
720.042	573
720.472	581
720.881	602
721.29	592.4
721.699	573.6
722.108	586.8
722.517	582.2
722.926	587.6
723.335	588.2
723.744	589.4
724.154	590.2
724.563	581.2
724.973	583.4
725.382	589.2
725.792	589.4
726.202	586.8
726.612	611.2
727.022	594
727.432	583
779.813	590.2
780.223	637.2
780.634	593.2
781.044	585.2
781.454	585
781.865	604.4
782.276	576
782.686	600.6
783.097	590
783.508	584.4
783.919	598.4
784.33	593.8
784.741	600.2
785.152	579
785.563	576.8
785.974	583.8
786.386	600.4
786.776	590.4
787.188	586
787.599	576.4
788.011	582.2
788.423	584.8
788.835	585.2
789.247	579.2
789.659	581.2
790.071	582
790.483	629.2
790.874	587.6
791.286	590.2
791.699	582.4
792.111	592.8
792.524	586.2
792.937	590.6
793.349	575.2
793.741	577.4
794.154	581.4
794.567	595
794.98	584.6
795.393	577.2
795.785	604.6
796.198	578.8
796.612	593.4
797.026	579.8
797.439	571.8
797.831	581.8
798.245	569.8
798.659	579.4
799.073	580.6
799.487	582
799.88	587.4
800.294	591.4
800.708	592.8
801.123	591
801.516	603.4
801.93	577.2
802.345	572.6
802.76	592
803.153	595.4
803.568	601.2
803.983	598.2
804.377	585.2
804.792	581.8
805.207	578.2
805.601	585.8
806.016	612
806.432	586.8
806.826	606.4
807.242	596.6
807.658	589.2
808.052	581.2
808.468	584.8
808.884	578.8
809.279	580.4
809.695	595
810.111	602.8
810.506	588
810.922	610.8
811.339	573.2
811.734	589.2
812.151	579.8
812.546	577.2
812.963	579.8
813.38	595.4
813.776	587.2
814.193	610.8
814.589	573.6
815.006	575.4
815.402	576.4
815.82	571.2
816.237	581.4
816.633	587.8
817.051	579.2
817.448	592
817.866	581
818.262	603.6
818.68	571.2
819.077	576.4
819.495	582.2
819.892	630.6
820.311	575.8
820.708	577
821.127	576.6
821.524	592
821.943	593.2
822.34	602.4
822.759	583
823.157	583.2
823.576	598.2
823.974	597.4
824.393	609
824.791	576.2
825.189	577.8
825.609	579.6
826.007	586.8
826.427	570.6
826.826	576
827.246	587.8
827.644	572
828.043	597
828.463	589.8
828.862	585.8
829.261	587.8
829.682	575.2
830.081	585.4
830.502	565.4
830.901	584.6
831.301	590.8
831.722	568
832.121	578.6
832.521	580
832.943	584.8
833.342	573
833.742	568.6
834.164	579.2
834.564	574.6
834.965	587.6
835.386	584.2
835.787	578.8
836.188	585.2
836.588	573.8
837.01	581.6
837.411	581
837.812	594
838.213	580.8
838.636	580.4
839.037	652.8
839.438	588.2
839.84	581.4
840.263	588.6
840.664	592
841.066	586.6
841.468	590.2
841.891	577.4
842.293	587.2
842.695	585.4
843.098	595.8
843.5	584.2
843.902	600.6
844.326	591
844.729	588.6
845.131	605.6
845.534	580
845.937	593.4
846.34	604
846.764	578.6
847.167	589.8
847.571	578.2
847.974	574.6
848.377	576.8
848.781	631.2
849.184	595.4
849.588	586
849.992	577.2
850.396	580.4
850.821	602.4
851.225	590
851.63	580
852.034	590.8
852.438	583
852.843	608.6
853.247	575.2
853.652	571.6
854.057	608
854.462	586.2
854.867	588.6
855.272	606.4
855.677	585.6
856.082	575
856.487	570
856.893	589
857.298	581.8
857.704	582.2
858.11	590.4
858.516	590.4
858.922	584.4
