#lambda/nm	C1
208.295	508
208.67	459
209.045	425.4
209.419	428.4
209.794	609.4
210.169	598.8
210.544	723.2
210.919	620.6
211.295	609.8
211.67	618.4
212.045	611.2
212.421	617.4
212.796	648
213.172	617
213.547	605.6
213.923	611.6
214.299	611.4
214.675	625
215.051	624.2
215.427	622.8
215.803	635.4
216.179	625.2
216.555	609.8
216.932	617.2
217.308	623.6
217.684	618.6
218.061	621.2
218.438	620.6
218.814	612.4
219.191	622.2
219.568	610.8
219.945	611.6
220.322	630.8
220.699	609.6
221.076	622.6
221.453	613.8
221.83	608.8
222.208	611.2
222.585	609.8
222.962	614.8
223.34	615.6
223.717	613.4
224.095	609.4
224.473	614.4
224.851	610.8
225.229	601.8
225.607	631.8
225.985	617.4
226.363	616
226.741	613.4
227.119	612.2
227.497	630.4
227.876	605.8
228.254	623.6
228.633	614.8
229.011	620.6
229.39	621.6
229.769	622
230.148	617
230.527	648.8
230.905	618.4
231.284	622
231.664	608.8
232.043	635.8
232.422	626.4
232.801	608.6
233.181	624.4
233.56	608.4
233.94	616.6
234.319	606.2
234.699	612.4
235.079	658.4
235.458	659.2
235.838	645.4
236.218	613.6
236.598	614.2
236.978	613
237.358	606.2
237.738	611
238.119	623
238.499	614
238.88	615.2
239.26	630.8
239.641	609.8
240.021	613.6
240.402	615
240.783	608
241.163	613.2
241.544	620
241.925	619.8
242.306	626.2
242.687	621.8
243.069	626
243.45	619.2
243.831	602
244.212	615.2
244.594	649.4
244.975	627.2
245.357	624
245.739	614.8
246.12	618.6
246.502	631.8
246.884	616.4
247.266	616.2
247.648	618
248.03	633
248.412	629.4
248.794	618.6
249.176	609.8
249.559	634.8
249.941	611.6
250.323	606.4
250.706	610.6
251.089	618.6
251.471	616.6
251.854	611.6
252.237	624.6
252.62	632.2
253.002	611.6
253.385	613.6
253.769	634.8
254.152	613
254.535	620.6
254.918	608
255.301	616
255.685	611.8
256.068	607.4
256.452	639.8
256.835	630
257.219	620
257.603	621
257.986	613.6
258.37	616.8
258.754	601.6
259.138	622.2
259.522	627.6
259.906	615.4
260.29	623.2
260.675	610.2
261.059	621
261.443	606.2
261.828	627.2
262.212	622.4
262.597	599.6
262.981	612.6
263.366	624
263.751	617
264.136	605.8
264.521	609
264.906	603.2
265.291	619.2
265.676	617.6
266.061	624.4
266.446	633.2
266.831	617.4
267.217	624.4
267.602	616.2
267.987	615.6
268.373	614.8
268.759	629.8
269.144	624.6
269.53	609.8
269.916	606.4
270.302	611.4
270.688	626.8
271.074	625
271.46	631.4
271.846	643
272.232	625.8
272.618	616.6
273.004	613
273.391	622.4
273.777	626.8
274.164	622.8
274.55	631
274.937	621.4
275.324	612
275.71	628
276.097	620.2
276.484	612.6
276.871	620.4
277.258	623.6
277.645	608.8
278.032	608.4
278.419	609
278.807	620.8
279.194	612.6
279.581	614.2
279.969	623.6
280.356	627
280.744	608.6
281.131	644.6
281.519	623.8
281.907	613.2
282.295	604.2
282.682	630.4
283.07	620.8
283.458	631
283.846	631.4
284.235	625
284.623	624
285.011	613
285.399	621
285.788	611
286.176	606.2
286.565	623
286.953	613.6
287.342	620.2
287.731	610.6
288.119	608.2
288.508	615.4
288.897	618
289.286	604.4
289.675	617.2
290.064	630.6
290.453	616.6
290.821	620.4
291.21	628.6
291.599	605.8
291.989	613.6
292.378	616
292.768	635.6
293.157	621.2
293.547	622
293.936	617.4
294.326	613
294.716	625.4
295.106	611.6
295.496	613.8
295.886	623.6
296.276	621.8
296.666	613
297.056	610.2
297.446	607.8
297.836	633.8
298.227	614
298.617	616.8
299.008	626.6
299.398	616
299.789	612.4
300.179	626.6
300.57	629.4
300.961	616.6
301.352	618.4
301.742	622
302.133	617
302.524	620.4
302.915	620
303.307	611.6
303.698	626.4
304.089	623.6
304.48	613.2
304.872	624.6
305.263	617
305.655	611
306.046	625.8
306.438	625.8
306.829	616
307.221	634.2
307.613	620
308.005	621.4
308.397	631.6
308.789	635.2
309.181	643.2
309.573	630.6
309.965	630
310.357	615.2
310.749	630
311.142	608
311.534	613.4
311.926	626.2
312.319	612.8
312.711	607
313.104	627.6
313.497	627.8
313.889	651
314.282	639.8
314.675	644.4
315.068	625.8
315.461	627.4
315.854	646.2
316.247	621
316.64	631.4
317.033	612.4
317.405	622.2
317.798	621.8
318.192	616.4
318.585	605.6
318.979	628
319.372	613.2
319.766	616
320.16	628
320.553	627
320.947	639.2
321.341	620.8
321.735	618.8
322.129	600.2
322.523	641.4
322.917	607
323.311	628.4
323.705	619.2
324.099	630
324.494	634.2
324.888	623.4
325.282	613.8
325.677	626.8
326.071	628
326.466	626.4
326.861	615
327.255	627.4
327.65	637.6
328.045	631.2
328.44	629.4
328.835	621.4
329.23	620.6
329.625	634.2
330.02	616.4
330.415	639.2
330.81	625
331.206	622
331.601	611.4
331.996	635
332.37	634.2
332.766	609
333.161	642.4
333.557	613.8
333.953	615.6
334.348	953.8
334.744	629.2
335.14	609.8
335.536	614.4
335.932	638.2
336.328	612.4
336.724	636
337.12	617.8
337.516	623
337.913	616.6
338.309	628.4
338.705	621.8
339.102	628.2
339.498	616.4
339.895	630.6
340.291	612.6
340.688	629.4
341.085	609
341.481	610.4
341.878	617.2
342.275	649.4
342.672	608.6
343.069	612.6
343.466	599.8
343.842	628.2
344.239	617.4
344.636	618.8
345.033	611.8
345.431	619.4
345.828	623
346.225	613.8
346.623	656
347.02	620.6
347.418	623.6
347.816	632.8
348.213	605.8
348.611	627
349.009	615
349.407	627.8
349.805	608.6
350.203	607.4
350.601	633.4
350.999	607.8
351.397	663.8
351.795	618
352.193	625
352.57	626
352.969	631.6
353.367	614.4
353.766	604.4
354.164	617
354.563	624.8
354.961	614.4
355.36	615.8
355.759	623.4
356.158	608.6
356.557	608.2
356.956	609.4
357.355	601.6
357.754	623
358.153	618
358.552	636.2
358.951	611.8
359.35	629.2
359.75	618.8
360.149	601.8
360.527	598.4
360.926	597.2
361.326	616.6
361.726	614.8
362.125	607.4
362.525	618.2
362.925	605.6
363.325	614.4
363.724	613.4
364.124	606.4
364.524	607.8
364.924	612.6
365.324	618.8
365.725	595.6
366.125	618.8
366.525	609.6
366.904	605.2
367.304	583.8
367.705	627.6
368.105	629.2
368.506	615
368.906	623.6
369.307	615.4
369.708	614.4
370.108	604.4
370.509	612.4
370.91	600
371.311	607.6
371.712	612.8
372.113	606
372.514	598.8
372.894	602
373.295	594.6
373.696	625
374.097	624.8
374.499	637.2
374.9	603.6
375.301	604.8
375.703	611.2
376.105	594.4
376.506	612.4
376.908	611.6
377.309	615.2
377.711	600.8
378.113	612.2
378.493	606.4
378.895	604.2
379.297	620.8
379.699	593.4
380.102	613.4
380.504	606
380.906	601.2
381.308	630.2
381.71	603.8
382.113	625.2
382.515	609.2
382.918	614.4
383.299	615.8
383.701	615.6
384.104	617
384.507	593.4
384.909	610.4
385.312	595.2
385.715	600.8
386.118	606.6
386.521	594
386.924	621.8
387.327	600.4
387.709	599.8
388.112	591.4
388.515	606.6
388.918	608.4
389.322	610.4
389.725	602.2
390.129	624.2
390.532	618.8
390.936	606.2
391.339	597.2
391.743	616.8
392.125	610.2
392.529	613.8
392.933	618.8
393.337	607.4
393.74	611.8
394.144	603
394.548	592.2
394.953	606.2
395.357	614.6
395.761	606
396.144	615.4
396.548	603.6
396.952	610
397.357	609.8
397.761	610
398.166	604.4
398.57	605.8
398.975	600.2
399.379	610.2
399.763	653.4
400.168	603
400.572	601.2
400.977	613.4
401.382	626
401.787	610.6
402.192	615.2
402.597	625.4
403.002	595.6
403.386	625.8
403.791	617.6
404.197	595.8
404.602	607
405.007	612.8
405.413	603.4
405.818	612.2
406.224	599.8
406.608	613.6
407.014	597.2
407.42	618.6
407.825	608.6
408.231	620.2
408.637	605.6
409.043	621.4
409.449	609.6
409.834	599.4
410.24	615
410.646	618.6
411.052	611.6
411.458	613.6
411.865	616.8
412.271	619.2
412.677	614.4
413.062	614.6
413.469	605.8
413.875	631.8
414.282	624
414.689	615.4
415.095	620.2
415.502	598.8
415.888	617
416.294	591.2
416.701	649.4
417.108	611.6
417.515	615.4
417.923	605.4
418.33	632.8
418.715	627.8
419.123	598
419.53	600.2
419.937	616.2
420.345	619.2
420.752	615.4
421.16	623
421.546	613
421.953	620.2
422.361	600.6
422.769	611.8
423.177	601.8
423.585	630.8
423.992	629.2
424.379	624.8
424.787	626.8
425.195	630.4
425.603	615.8
426.011	621.8
426.419	625.8
426.806	620.8
427.214	621
427.623	626.2
428.031	630.8
428.44	622.4
428.848	629.2
429.235	635.4
429.644	627
430.053	622.6
430.461	643.4
430.87	655.6
431.279	640.2
431.666	636.8
432.075	644
432.484	647
432.893	640.2
433.302	671.2
433.711	706.6
434.099	678.6
434.508	669.8
434.918	667.4
435.327	694.2
435.737	703.4
436.125	711
436.534	719.6
436.944	723.2
437.353	737.8
437.763	753.4
438.173	740.6
438.561	761.4
438.971	754.8
439.381	772.8
439.791	773.4
440.201	763.8
440.589	793
440.999	802.6
441.409	803
441.819	801
442.23	818.6
442.619	820
443.029	832.2
443.439	826.6
443.85	848.8
444.26	854.2
444.649	848.6
445.06	845.2
445.471	845.8
445.881	864.8
446.292	880.4
446.682	882.2
447.092	853.2
447.503	926.4
447.914	875
448.325	879.6
448.715	887.8
449.126	887.8
449.537	894
449.948	895.2
450.338	894.6
450.75	904
451.161	908.8
451.572	895.8
451.984	901.8
452.374	889.6
452.786	900.6
453.197	906.4
453.609	910
453.999	888
454.411	893.8
454.823	921.4
455.235	909.2
455.647	907.4
456.037	905.6
456.449	890.8
456.862	902.4
457.274	905
457.665	905
458.077	912.2
458.489	934.4
458.902	903.6
459.293	912.4
459.705	918
460.118	917.8
460.53	925.6
460.921	927.8
461.334	920.4
461.747	917.2
462.16	931.2
462.551	930
462.964	917
463.377	908.8
463.79	906
464.182	927.2
464.595	912.4
465.008	917.2
465.421	914
465.813	921.2
466.226	919
466.64	913
467.053	980.8
467.445	932.8
467.859	945.2
468.272	920
468.686	934
469.078	928.4
469.492	900.6
469.906	914.2
470.298	931.4
470.712	915.8
471.126	971.4
471.54	898.6
471.933	914.6
472.347	921
472.761	912.2
473.175	903.2
473.568	920.4
473.982	903.2
474.397	913
474.79	905.4
475.204	903.2
475.619	909.6
476.033	913.4
476.426	910.6
476.841	897.8
477.256	927
477.649	893.8
478.064	893.6
478.479	898.2
478.872	890.4
479.287	894.4
479.702	890.8
480.118	898.8
480.511	893.4
480.927	895.8
481.342	883.8
481.736	890.4
482.151	879.8
482.566	908.6
482.96	890
483.376	889.2
483.792	869.6
484.186	877.8
484.602	869.8
485.017	866
485.412	865.8
485.827	870
486.243	882.6
486.638	902
487.054	876.2
487.47	874.2
487.865	864.6
488.281	862
488.697	868
489.092	861.2
489.508	856.8
489.925	868.4
490.32	861.2
490.736	861
491.153	853
491.548	847.6
491.964	855.4
492.381	831
492.776	854.2
493.193	846.6
493.61	853.2
494.006	843
494.422	851.2
494.84	827
495.235	852.6
495.652	835.6
496.069	830.8
496.465	817.4
496.883	820
497.3	848.8
497.696	821.6
498.113	832
498.509	813.4
498.927	816
499.344	810.4
499.741	809
500.158	820.2
500.576	814.2
500.973	810.8
501.39	798.4
501.787	773.8
502.205	803.2
502.623	799.6
503.02	785.6
503.438	797.4
503.856	785.6
504.253	792.8
504.671	798.2
505.068	783.6
505.486	782.8
505.905	801.4
506.302	783.6
506.72	791.2
507.118	770.4
507.536	773.4
507.955	787.4
508.352	786.2
508.771	794.8
509.169	784.2
509.587	761.4
510.006	772
510.404	754.6
510.823	753.6
511.221	770
511.64	763.4
512.038	765.6
512.457	755.6
512.877	762
513.275	749.4
513.694	756.8
514.092	754
514.512	758.2
514.91	748.2
515.33	748.8
515.749	736.4
516.148	746.4
516.568	740.4
516.966	744.8
517.386	734.2
517.785	747.2
518.205	737.4
518.603	724.4
519.024	727.2
519.444	736
519.843	736.6
520.263	736.6
520.662	733
521.082	731.4
521.481	732.2
521.902	729.8
522.301	723.6
522.722	716
523.121	723.6
523.542	702.4
523.963	716
524.362	716.2
524.783	723
525.183	711.8
525.604	712.2
526.003	701.8
526.425	697
526.824	712.6
527.246	723.2
527.646	724.8
528.067	702.8
528.467	708
528.888	715.2
529.289	703.4
529.71	713.6
530.11	698.2
530.532	698
530.932	692.4
531.354	692.2
531.755	722.8
532.176	705
532.577	693.4
532.999	687.8
533.4	681
533.822	697.8
534.223	696
534.645	691.6
535.046	688
535.468	683.4
535.869	707.6
536.292	689.8
536.693	718
537.115	679.2
537.516	674
537.939	680.4
538.34	699.6
538.742	692.8
539.165	679.2
539.566	685
539.989	670.2
540.391	675.4
540.814	673.2
541.216	675.8
541.639	692.4
542.041	681.8
542.464	681.4
542.866	665.4
543.268	663.8
543.691	684.2
544.093	680.2
544.517	687.2
544.919	655.2
545.343	692.8
545.745	658.8
546.147	670.4
546.571	666.8
546.974	656
547.398	664.6
547.8	680.2
548.224	661.8
548.627	656.4
549.03	665.2
549.454	651.2
549.857	648.4
550.281	648.4
550.684	652.6
551.087	661.8
551.512	662
551.915	662.4
552.34	653.6
552.743	652
553.146	658.2
553.571	654.6
553.975	672
554.399	635.8
554.803	700.4
555.207	648.4
555.632	649.4
556.036	650.8
556.461	635.4
556.865	647.6
557.268	650.2
557.694	646.6
558.098	649
558.502	648.8
558.927	639.8
559.332	645.6
559.736	641
560.162	645.8
560.566	635.4
560.992	639.2
561.396	639.8
561.801	635.2
562.227	638.4
562.631	636.8
563.036	642.8
563.462	650.6
563.867	644.8
564.272	628.2
564.698	642.4
565.103	626.8
565.508	658.4
565.935	633.6
566.34	626.6
566.745	644.2
567.172	633.6
567.577	653.6
567.982	639.6
568.409	633
568.815	622.2
569.22	626.4
569.626	632
570.053	610.6
570.459	629.6
570.865	636.8
571.292	637.8
571.698	635.6
572.104	622
572.531	627.4
572.937	632.6
573.343	625
573.75	618.4
574.177	629
574.583	632.2
574.99	626.2
575.396	633
575.824	618.6
576.231	640.2
576.637	621
577.065	647
577.472	627.8
577.879	627.6
578.286	634.8
578.714	615.6
579.121	622.6
579.528	631
579.935	629
580.364	626.2
580.771	604.6
581.178	610.2
581.585	619.8
582.014	623.4
582.421	604.6
582.829	615.8
583.236	617.6
583.644	608.8
584.073	617.6
584.481	620
584.889	615
585.296	626.4
585.726	615.4
586.134	614
586.542	610
586.95	633.4
587.358	607.8
587.787	615.4
588.196	627.6
588.604	609.6
589.012	608.4
589.421	602
589.851	609.6
590.259	618.2
590.668	609.6
591.076	652.4
591.485	602.4
591.894	614
592.324	626.8
592.733	627.8
593.142	601.2
593.551	605
593.96	618.4
594.369	598
594.8	600
595.209	602.2
595.618	597.8
596.028	607.4
596.437	605.6
596.847	606.4
597.256	610.8
597.687	600
598.097	610.6
598.507	603.4
598.917	607.4
599.327	610.8
599.736	611.6
600.146	614.2
600.556	608.8
600.988	621.2
601.398	603
601.808	613.6
602.219	595.8
602.629	604.6
603.039	601.4
603.45	640.4
603.86	603.8
604.271	622.6
604.703	609.4
605.114	603.2
605.525	605
605.935	609
606.346	624.8
606.757	608
607.168	607.2
607.579	594.2
607.99	612.4
608.402	602.2
608.813	605.4
609.224	599.8
609.636	597.2
610.047	603.2
610.48	600.4
610.892	610.4
611.303	605.4
611.715	607.2
612.127	608.2
612.539	599.8
612.95	605.8
613.362	598
613.774	592.4
614.186	594.8
614.599	604.8
615.011	613.6
615.423	608.8
615.835	603
616.248	594
616.66	610
617.073	596.8
617.485	603.2
617.898	605.8
618.311	603.6
618.723	597
619.136	634
619.549	609
619.962	625.2
620.375	599.2
620.788	604.2
621.201	587.2
621.614	609.6
622.028	604.8
622.441	608.8
622.854	616.4
623.268	597.6
623.681	602.8
624.095	603.8
624.509	605.2
624.922	599.6
625.336	593.6
625.728	597
626.142	612
626.556	611.6
626.97	607
627.384	596
627.799	598
628.213	617.2
628.627	595.8
629.041	597.4
629.456	587.8
629.87	598.2
630.285	603.8
630.699	607.2
631.093	597.2
631.507	613.4
631.922	596.2
632.337	611.6
632.752	588.8
633.167	601.6
633.582	596.6
633.997	597.6
634.412	596.8
634.806	603.2
635.221	589
635.637	611.2
636.052	591
636.468	609
636.883	623
637.299	598.4
637.715	589
638.109	602.8
638.525	589
638.941	606.8
639.357	601.2
639.773	606
640.189	592.4
640.584	599.2
641	602.8
641.416	588.4
641.832	594.4
642.249	591.4
642.665	589.2
643.06	604.6
643.477	603.6
643.894	586.2
644.31	584
644.727	596
645.123	593.6
645.54	593.6
645.957	608
646.374	604.6
646.77	597.6
647.187	620
647.604	604
648.021	582.2
648.439	587.8
648.835	599.8
649.252	592.6
649.67	595
650.088	598.6
650.484	600.4
650.902	596.4
651.32	596.8
651.738	593.4
652.134	600.6
652.552	615.2
652.971	603.8
653.389	589
653.786	611.2
654.204	619
654.622	596.4
655.019	598.8
655.438	602.2
655.857	594.8
656.275	595.4
656.673	595.4
657.091	601.4
657.51	582.2
657.908	596.4
658.327	604.6
658.746	578.2
659.144	588.2
659.563	605.6
659.982	593
660.38	586.2
660.8	598.8
661.219	610.8
661.617	599
662.037	593
662.457	612.6
662.855	572.6
663.275	626.6
663.695	595.4
664.094	592.8
664.514	592.4
664.934	584
665.333	597.2
665.753	584.8
666.152	575.8
666.572	580.4
666.993	599.4
667.392	578.2
667.812	594.4
668.212	587
668.632	589.6
669.053	577.6
669.453	597.6
669.874	592
670.273	596
670.694	591.8
671.116	604.2
671.515	601.8
671.937	590
672.337	593.4
672.758	592.4
673.158	591.2
673.58	584.8
673.98	598
674.402	606.2
674.824	589.4
675.224	581.6
675.646	583
676.047	586.8
676.469	594.6
676.869	595.6
677.292	586.4
677.693	584.2
678.115	581
678.516	588.6
678.939	593
679.34	588.4
679.762	608
680.164	601.4
680.586	582.8
680.988	584.8
681.411	614.8
681.812	584.4
682.236	584.6
682.637	583.2
683.061	575.6
683.462	592
683.864	589.6
684.288	594.2
684.69	569.8
685.114	597
685.516	605
685.94	582.4
686.342	596.2
686.766	586.2
687.168	585.2
687.571	599.6
687.995	588
688.398	580
688.822	587.4
689.225	611.8
689.628	613.8
690.052	592.2
690.456	590
690.88	588
691.284	583.4
691.687	592.6
692.112	577.2
692.515	576
692.919	583.8
693.344	586.6
693.747	585
694.173	574
694.577	593.6
694.98	591
695.406	582.6
695.81	591
696.214	585
696.64	590.8
697.044	590
697.448	600
697.874	589.4
698.279	582.2
698.684	585
699.11	591.2
699.514	583.2
699.919	590.2
700.324	594.2
700.75	590.8
701.156	591.8
701.561	601.2
701.987	600.6
702.393	598.8
702.798	599.8
703.203	595
703.63	587.8
704.036	582.6
704.442	595.4
704.847	581.6
705.274	585.6
705.68	597.4
706.086	593
706.492	579.6
706.92	586
707.326	597
707.732	586.6
708.139	586.8
708.545	582.2
708.973	583.2
709.38	584.6
709.786	572.6
710.193	605.8
710.6	585
711.028	580.6
711.435	585.2
711.842	593.2
712.249	581.4
712.656	585.2
713.064	599.4
713.492	583.6
713.9	585.4
714.307	593.6
714.715	581
715.123	588.2
715.53	592.8
715.938	600.6
716.367	589
716.775	586.8
717.184	582.4
717.592	582.6
718	594.2
718.408	615.8
718.816	631.8
719.225	587.8
719.633	593.6
720.042	582.4
720.472	589.4
720.881	610.6
721.29	591.6
721.699	581.2
722.108	591.8
722.517	591.6
722.926	587
723.335	596.2
723.744	594.8
724.154	582.4
724.563	589.8
724.973	593.6
725.382	585.2
725.792	582.2
726.202	586.4
726.612	612
727.022	582.2
727.432	581.2
779.813	589.8
780.223	632.4
780.634	592
781.044	577.6
781.454	586.8
781.865	597.8
782.276	579.8
782.686	603
783.097	579.2
783.508	584
783.919	591.6
784.33	601.8
784.741	599.4
785.152	576.8
785.563	582
785.974	587.2
786.386	598.4
786.776	591
787.188	589
787.599	582.4
788.011	591.4
788.423	595.8
788.835	583.6
789.247	578.2
789.659	581.2
790.071	578
790.483	623.8
790.874	580.8
791.286	600.2
791.699	586
792.111	585.6
792.524	585
792.937	585
793.349	578.6
793.741	585.2
794.154	574.6
794.567	603.4
794.98	580.8
795.393	569.4
795.785	595.2
796.198	579
796.612	586.8
797.026	587.8
797.439	568.8
797.831	593.8
798.245	577
798.659	580.6
799.073	583.8
799.487	576.8
799.88	586.4
800.294	588.4
800.708	596.8
801.123	582
801.516	608.8
801.93	576.2
802.345	571.6
802.76	585.2
803.153	601.6
803.568	589.4
803.983	596.4
804.377	587.6
804.792	575.8
805.207	577.4
805.601	580
806.016	620.6
806.432	575.8
806.826	614.6
807.242	596.4
807.658	594.6
808.052	586.6
808.468	581.6
808.884	581.6
809.279	583.2
809.695	599.6
810.111	598.2
810.506	587.4
810.922	601.2
811.339	579.6
811.734	589.6
812.151	584.6
812.546	573.8
812.963	575.8
813.38	582.2
813.776	576.8
814.193	605.4
814.589	574
815.006	575.2
815.402	584.4
815.82	577.8
816.237	582.6
816.633	589.8
817.051	579
817.448	590.4
817.866	574.6
818.262	602.8
818.68	580.2
819.077	570.4
819.495	576
819.892	620.2
820.311	582.2
820.708	580.8
821.127	577.8
821.524	596.4
821.943	595
822.34	588.4
822.759	588.6
823.157	586
823.576	601.8
823.974	591.2
824.393	611.2
824.791	582.4
825.189	577.4
825.609	578
826.007	585.6
826.427	574
826.826	585.6
827.246	582.6
827.644	561.8
828.043	595
828.463	576.8
828.862	589
829.261	582.6
829.682	569.8
830.081	582.6
830.502	577
830.901	580
831.301	594.2
831.722	569.4
832.121	581
832.521	571.6
832.943	585.2
833.342	577.4
833.742	572
834.164	585.6
834.564	573.2
834.965	587.8
835.386	576
835.787	587.2
836.188	580.4
836.588	588.2
837.01	578.6
837.411	579.4
837.812	588.6
838.213	592.6
838.636	577
839.037	655.2
839.438	590
839.84	580
840.263	580.8
840.664	589.2
841.066	579.6
841.468	584.6
841.891	570.2
842.293	589.2
842.695	586.6
843.098	589.2
843.5	574.6
843.902	589
844.326	582.2
844.729	594.8
845.131	599.6
845.534	586.6
845.937	593.2
846.34	596.8
846.764	572.6
847.167	593.4
847.571	570.4
847.974	585.6
848.377	585
848.781	622.6
849.184	586.6
849.588	572.6
849.992	582
850.396	585
850.821	599.6
851.225	588.6
851.63	577.6
852.034	593.6
852.438	583.4
852.843	653.2
853.247	570
853.652	576
854.057	595.6
854.462	585
854.867	584
855.272	610.8
855.677	591.4
856.082	565.2
856.487	573.8
856.893	577.4
857.298	581.2
