#lambda/nm	C1
208.295	507.6
208.67	464.6
209.045	424.6
209.419	424.4
209.794	600.2
210.169	594.8
210.544	716
210.919	620.6
211.295	600.8
211.67	611.4
212.045	614.4
212.421	611
212.796	642.8
213.172	600.4
213.547	611.4
213.923	609.2
214.299	599.2
214.675	629.2
215.051	612.8
215.427	625.4
215.803	630.2
216.179	617.2
216.555	608.8
216.932	612.2
217.308	616.4
217.684	614
218.061	619
218.438	608.8
218.814	604.8
219.191	620.8
219.568	613.4
219.945	603.6
220.322	622
220.699	610
221.076	617.8
221.453	610.8
221.83	601.4
222.208	607.2
222.585	609.2
222.962	616.2
223.34	621.8
223.717	612.4
224.095	608.2
224.473	616.6
224.851	608.6
225.229	606.2
225.607	632.8
225.985	609.2
226.363	614.6
226.741	619
227.119	615
227.497	627.8
227.876	594
228.254	626.6
228.633	617.4
229.011	615.8
229.39	618
229.769	626.8
230.148	622.4
230.527	635
230.905	619.2
231.284	612
231.664	616.2
232.043	626.6
232.422	617.6
232.801	609.2
233.181	619.8
233.56	615.2
233.94	617.6
234.319	608.6
234.699	618
235.079	655.4
235.458	650
235.838	638.6
236.218	604.2
236.598	605
236.978	605.6
237.358	608.6
237.738	605.4
238.119	618
238.499	599.8
238.88	606.8
239.26	629.2
239.641	594.4
240.021	605
240.402	604.8
240.783	598.8
241.163	601.2
241.544	610.8
241.925	608.6
242.306	622.4
242.687	612
243.069	618
243.45	624.4
243.831	604.6
244.212	611.6
244.594	641.8
244.975	615
245.357	614
245.739	600
246.12	622.8
246.502	634.8
246.884	606.4
247.266	611.2
247.648	611.6
248.03	637
248.412	619.2
248.794	618.8
249.176	607
249.559	620
249.941	607.2
250.323	608
250.706	605
251.089	616.2
251.471	622.4
251.854	617.4
252.237	612.8
252.62	620.8
253.002	620
253.385	628.2
253.769	628.6
254.152	620
254.535	624
254.918	598.2
255.301	605.4
255.685	610.6
256.068	597
256.452	634.2
256.835	619.8
257.219	616.6
257.603	626.2
257.986	608.8
258.37	613.8
258.754	598.2
259.138	619.4
259.522	622
259.906	606
260.29	617.8
260.675	616.4
261.059	616.2
261.443	598.4
261.828	617.2
262.212	621.2
262.597	610.4
262.981	613.6
263.366	619.6
263.751	618.4
264.136	616.8
264.521	610.2
264.906	607.8
265.291	617.4
265.676	612.8
266.061	619.2
266.446	631.6
266.831	619.4
267.217	633.8
267.602	620.8
267.987	617
268.373	613.4
268.759	623.6
269.144	624.8
269.53	612.6
269.916	613
270.302	613.2
270.688	631
271.074	614
271.46	628.4
271.846	661.4
272.232	617.8
272.618	606.4
273.004	613.4
273.391	625.6
273.777	631.8
274.164	619.6
274.55	627.8
274.937	617.2
275.324	620
275.71	616.4
276.097	628.6
276.484	602.8
276.871	613.6
277.258	620.6
277.645	609.4
278.032	616.6
278.419	610
278.807	621.2
279.194	610.2
279.581	609.8
279.969	614.8
280.356	614.6
280.744	614.8
281.131	639.2
281.519	632.4
281.907	614.4
282.295	609.6
282.682	630.6
283.07	618.6
283.458	624.6
283.846	626
284.235	628.2
284.623	626.2
285.011	612.6
285.399	624.6
285.788	617.2
286.176	605.8
286.565	630.2
286.953	609.2
287.342	613
287.731	606.8
288.119	610.6
288.508	615
288.897	615.8
289.286	603.2
289.675	617
290.064	627.4
290.453	609
290.821	618
291.21	629.8
291.599	599.8
291.989	620
292.378	621.8
292.768	637.2
293.157	620
293.547	623
293.936	607.6
294.326	615.2
294.716	623
295.106	617.4
295.496	622.4
295.886	615
296.276	616.4
296.666	612.2
297.056	610.8
297.446	604
297.836	635.8
298.227	608.4
298.617	620.6
299.008	635.8
299.398	617
299.789	614.8
300.179	614.8
300.57	634.8
300.961	616.6
301.352	612.8
301.742	621.2
302.133	623.8
302.524	615.2
302.915	618.6
303.307	607.6
303.698	633.4
304.089	627.8
304.48	612.8
304.872	624.4
305.263	618.2
305.655	614.2
306.046	621.8
306.438	619.6
306.829	609.8
307.221	626.4
307.613	621.4
308.005	624.4
308.397	632.4
308.789	636.2
309.181	636
309.573	634.4
309.965	629.2
310.357	606.6
310.749	631
311.142	603.2
311.534	609.4
311.926	621.6
312.319	619.4
312.711	602.2
313.104	627
313.497	610.4
313.889	653.4
314.282	629.6
314.675	639.2
315.068	619.2
315.461	620.4
315.854	636.4
316.247	616.2
316.64	612.8
317.033	603.8
317.405	627.2
317.798	616.6
318.192	618.4
318.585	614.4
318.979	618.4
319.372	616.2
319.766	611.6
320.16	620.6
320.553	633.6
320.947	636.8
321.341	610
321.735	618.6
322.129	603
322.523	638.8
322.917	612.4
323.311	631
323.705	623.8
324.099	618.2
324.494	633.4
324.888	624.6
325.282	618
325.677	626.4
326.071	622.8
326.466	629
326.861	623
327.255	630.8
327.65	632.6
328.045	631.6
328.44	613.8
328.835	610
329.23	620.4
329.625	638.4
330.02	619.8
330.415	638.6
330.81	622.4
331.206	618.2
331.601	618.8
331.996	625.2
332.37	630.8
332.766	603.8
333.161	634.8
333.557	613.2
333.953	621.4
334.348	990.8
334.744	611.4
335.14	617.2
335.536	606.2
335.932	627.8
336.328	614.8
336.724	620.2
337.12	609.2
337.516	622.4
337.913	610.2
338.309	626
338.705	613.2
339.102	624.2
339.498	604.6
339.895	628.8
340.291	604
340.688	619.6
341.085	596
341.481	614.6
341.878	610.4
342.275	640.8
342.672	607.6
343.069	615
343.466	602.8
343.842	622
344.239	608.6
344.636	609.6
345.033	604.6
345.431	599.6
345.828	608.2
346.225	614.4
346.623	645
347.02	615.2
347.418	622.8
347.816	624
348.213	610.8
348.611	624.4
349.009	612.8
349.407	619.6
349.805	602
350.203	604.6
350.601	627.4
350.999	611
351.397	669.6
351.795	600
352.193	620.4
352.57	620.4
352.969	624.4
353.367	608
353.766	598.4
354.164	607.8
354.563	622.4
354.961	613.2
355.36	610.4
355.759	604.2
356.158	602.6
356.557	606.8
356.956	602.8
357.355	599.4
357.754	610
358.153	616.6
358.552	632.4
358.951	615.2
359.35	619.8
359.75	604.8
360.149	601.8
360.527	602.8
360.926	602
361.326	604.6
361.726	603.4
362.125	608.8
362.525	617
362.925	610.2
363.325	614.6
363.724	609.4
364.124	602.6
364.524	605.4
364.924	612.2
365.324	624.6
365.725	593.2
366.125	612.4
366.525	607.4
366.904	597.4
367.304	592.2
367.705	620.2
368.105	613.8
368.506	611
368.906	604.4
369.307	607.6
369.708	611
370.108	601.2
370.509	617
370.91	601.8
371.311	601
371.712	608
372.113	608.4
372.514	602.2
372.894	606.2
373.295	602
373.696	622.8
374.097	613.2
374.499	632.2
374.9	610.2
375.301	607.8
375.703	607.4
376.105	603.2
376.506	614
376.908	616.6
377.309	606.6
377.711	607.6
378.113	603.4
378.493	605.4
378.895	607.8
379.297	614.6
379.699	592.4
380.102	611.6
380.504	604.6
380.906	609.6
381.308	630.6
381.71	607.2
382.113	608.8
382.515	604.2
382.918	613.4
383.299	609
383.701	612.8
384.104	606.4
384.507	588.8
384.909	617.4
385.312	600.6
385.715	597
386.118	607.4
386.521	593.4
386.924	620.8
387.327	606.2
387.709	599.4
388.112	593
388.515	600.2
388.918	604
389.322	608
389.725	603.2
390.129	631
390.532	607.8
390.936	607.4
391.339	601.6
391.743	613.4
392.125	602.6
392.529	614
392.933	619.6
393.337	607.8
393.74	594.4
394.144	605.6
394.548	606.6
394.953	601
395.357	615.4
395.761	609.6
396.144	604.6
396.548	599.8
396.952	615.4
397.357	602
397.761	603.4
398.166	601.6
398.57	593
398.975	599.6
399.379	620.4
399.763	649
400.168	605
400.572	606
400.977	602
401.382	619.6
401.787	609
402.192	626.4
402.597	621.2
403.002	587.4
403.386	623.2
403.791	623.6
404.197	597.2
404.602	606.4
405.007	603.6
405.413	599.6
405.818	604
406.224	604.2
406.608	598
407.014	594
407.42	617.2
407.825	605
408.231	615
408.637	603.2
409.043	608.6
409.449	602
409.834	600.8
410.24	601.2
410.646	617.6
411.052	612.6
411.458	610.6
411.865	612
412.271	604.6
412.677	605.6
413.062	605.2
413.469	599.6
413.875	632.6
414.282	619.2
414.689	607.6
415.095	613.6
415.502	605.6
415.888	604
416.294	595.4
416.701	651
417.108	596
417.515	613.8
417.923	609.2
418.33	627
418.715	616.4
419.123	611
419.53	606.8
419.937	606.4
420.345	626.4
420.752	608
421.16	622.2
421.546	612.2
421.953	620
422.361	604.6
422.769	595.8
423.177	601.4
423.585	627.4
423.992	636.4
424.379	619.2
424.787	623
425.195	626.6
425.603	604.8
426.011	616.6
426.419	621.6
426.806	621.6
427.214	614.4
427.623	623.6
428.031	622
428.44	619.6
428.848	617.4
429.235	625.2
429.644	618.4
430.053	610
430.461	627.2
430.87	643
431.279	614.6
431.666	613.6
432.075	616.4
432.484	630.2
432.893	616
433.302	640.6
433.711	668.4
434.099	623.8
434.508	622
434.918	610.6
435.327	633
435.737	636.8
436.125	636.8
436.534	628.8
436.944	650.8
437.353	647.2
437.763	664.6
438.173	645.2
438.561	664.4
438.971	639.2
439.381	657.6
439.791	670.4
440.201	656.6
440.589	676.8
440.999	682.8
441.409	683
441.819	676.2
442.23	695.8
442.619	700.8
443.029	699.4
443.439	710.4
443.85	713
444.26	729.4
444.649	716
445.06	727.2
445.471	715
445.881	729
446.292	753.2
446.682	753.2
447.092	723.4
447.503	779.8
447.914	739.2
448.325	744
448.715	747.2
449.126	744.2
449.537	751.8
449.948	752.8
450.338	746.2
450.75	756.4
451.161	764
451.572	762.2
451.984	758.8
452.374	740
452.786	762.8
453.197	752.6
453.609	754.2
453.999	750
454.411	759
454.823	773.8
455.235	773.6
455.647	765.8
456.037	760.2
456.449	753.6
456.862	748.6
457.274	759.4
457.665	762.8
458.077	781.8
458.489	795.4
458.902	759.4
459.293	770.4
459.705	761.6
460.118	760.4
460.53	776.6
460.921	764.2
461.334	777.2
461.747	771.8
462.16	778.2
462.551	782
462.964	780.2
463.377	762.4
463.79	773.6
464.182	779
464.595	762.4
465.008	782.6
465.421	771.4
465.813	774.4
466.226	780.8
466.64	773.2
467.053	826.8
467.445	780
467.859	798.6
468.272	780.4
468.686	789.8
469.078	780.6
469.492	766.2
469.906	773.8
470.298	781.8
470.712	784.4
471.126	819.6
471.54	774.4
471.933	775.8
472.347	781.2
472.761	774.6
473.175	762.6
473.568	768.6
473.982	773.4
474.397	779.2
474.79	774.2
475.204	792.2
475.619	767.2
476.033	779.8
476.426	775.8
476.841	773.6
477.256	795
477.649	761.8
478.064	762.6
478.479	763.8
478.872	754.6
479.287	753.4
479.702	757.2
480.118	758.6
480.511	763.4
480.927	750.2
481.342	759
481.736	764.2
482.151	761.4
482.566	772.2
482.96	761.8
483.376	776.2
483.792	752.8
484.186	763.6
484.602	756
485.017	760
485.412	759.4
485.827	762.8
486.243	758.6
486.638	780.6
487.054	767.2
487.47	763.6
487.865	743.8
488.281	748.6
488.697	743
489.092	747
489.508	756.4
489.925	758.2
490.32	733.6
490.736	754.6
491.153	754.6
491.548	743.8
491.964	759.8
492.381	734.2
492.776	741.4
493.193	741.8
493.61	747.8
494.006	748.8
494.422	746.8
494.84	727.4
495.235	745.6
495.652	730.8
496.069	730.6
496.465	727.2
496.883	737.2
497.3	751.8
497.696	734.6
498.113	738.2
498.509	710
498.927	723.2
499.344	715.2
499.741	717.6
500.158	731.2
500.576	738
500.973	727
501.39	713
501.787	713.8
502.205	723
502.623	701.4
503.02	697
503.438	705
503.856	710.2
504.253	716.6
504.671	704
505.068	694.2
505.486	706.2
505.905	726.2
506.302	711.4
506.72	717.6
507.118	694.8
507.536	699.8
507.955	694.6
508.352	705.2
508.771	701.6
509.169	704
509.587	689.4
510.006	704.8
510.404	683.2
510.823	693.2
511.221	689.4
511.64	693.6
512.038	707.2
512.457	694.2
512.877	700.2
513.275	682
513.694	688.6
514.092	686.4
514.512	691.6
514.91	694.8
515.33	685.8
515.749	696
516.148	691.6
516.568	685.4
516.966	685.4
517.386	674
517.785	681.4
518.205	685.8
518.603	679.2
519.024	677
519.444	681.6
519.843	688.2
520.263	689
520.662	686.4
521.082	667.8
521.481	675.2
521.902	668.6
522.301	668.6
522.722	680
523.121	668.4
523.542	676
523.963	673.8
524.362	668.6
524.783	679.6
525.183	665.4
525.604	674.6
526.003	667.6
526.425	662.4
526.824	674
527.246	666.4
527.646	678.2
528.067	677.2
528.467	666.8
528.888	674.4
529.289	666
529.71	665.4
530.11	669.2
530.532	650.6
530.932	660.4
531.354	645.2
531.755	686.6
532.176	661.8
532.577	653.6
532.999	648.2
533.4	658.4
533.822	673.6
534.223	663
534.645	647.6
535.046	649
535.468	651.2
535.869	666.6
536.292	650.8
536.693	684.2
537.115	645.6
537.516	643.2
537.939	652.2
538.34	675
538.742	667.4
539.165	654.8
539.566	655.4
539.989	633.8
540.391	652
540.814	648.2
541.216	650.4
541.639	652.4
542.041	651.2
542.464	654.2
542.866	636.6
543.268	632.6
543.691	651.8
544.093	646.4
544.517	677.8
544.919	626.4
545.343	664.8
545.745	638.4
546.147	642.8
546.571	639
546.974	639.6
547.398	643.4
547.8	654
548.224	635.2
548.627	632.8
549.03	648.2
549.454	630.2
549.857	619.4
550.281	632.8
550.684	631.8
551.087	648.6
551.512	637.2
551.915	652.2
552.34	641
552.743	638.2
553.146	643.6
553.571	636.2
553.975	658.2
554.399	629.6
554.803	686.6
555.207	630.4
555.632	628.6
556.036	644
556.461	627.2
556.865	631.2
557.268	634.2
557.694	622.2
558.098	628
558.502	636.4
558.927	626.2
559.332	636
559.736	633.4
560.162	633.2
560.566	631.4
560.992	638.6
561.396	628
561.801	630
562.227	629.6
562.631	625
563.036	626.4
563.462	635.4
563.867	625.6
564.272	621
564.698	639
565.103	614.2
565.508	651.8
565.935	626.4
566.34	623.2
566.745	632.4
567.172	619.8
567.577	645.6
567.982	639.2
568.409	623.6
568.815	617.4
569.22	616.2
569.626	627.2
570.053	608.6
570.459	622.2
570.865	627
571.292	622.8
571.698	625
572.104	612
572.531	617.6
572.937	623.8
573.343	624
573.75	612.8
574.177	624.2
574.583	630.2
574.99	621.8
575.396	617.2
575.824	619.2
576.231	624.4
576.637	618.2
577.065	635
577.472	619.8
577.879	612.8
578.286	634
578.714	604.4
579.121	611.2
579.528	619.2
579.935	628.4
580.364	617.8
580.771	602.4
581.178	602.8
581.585	614.6
582.014	623.6
582.421	609.2
582.829	617.6
583.236	626.4
583.644	613.6
584.073	609.2
584.481	614.6
584.889	610.4
585.296	624.8
585.726	610.4
586.134	602
586.542	606.6
586.95	624.8
587.358	608.2
587.787	612.8
588.196	622.2
588.604	613.6
589.012	610.6
589.421	607.4
589.851	606.8
590.259	616
590.668	606.8
591.076	643.8
591.485	593.8
591.894	605.2
592.324	625.8
592.733	622.2
593.142	588.4
593.551	604.4
593.96	642.2
594.369	598.8
594.8	589.2
595.209	602
595.618	593
596.028	603.2
596.437	587.2
596.847	606.6
597.256	606.8
597.687	610.2
598.097	603.8
598.507	591.8
598.917	610.2
599.327	605.6
599.736	593.2
600.146	604.6
600.556	604.2
600.988	611
601.398	594
601.808	608.2
602.219	595.6
602.629	601
603.039	595.8
603.45	616.8
603.86	597.4
604.271	615.4
604.703	594.6
605.114	588.4
605.525	596.8
605.935	609.8
606.346	620.8
606.757	607.4
607.168	605.8
607.579	597
607.99	615.6
608.402	595.4
608.813	603.6
609.224	591.6
609.636	584
610.047	591.6
610.48	597.4
610.892	603.8
611.303	610
611.715	593.6
612.127	593.6
612.539	591
612.95	595
613.362	588.2
613.774	586.4
614.186	597.8
614.599	584
615.011	605.4
615.423	592
615.835	590.2
616.248	585
616.66	608.8
617.073	598.6
617.485	597
617.898	599
618.311	609.2
618.723	596.4
619.136	633.4
619.549	607.6
619.962	628
620.375	594.4
620.788	602.6
621.201	585.8
621.614	601.2
622.028	596.4
622.441	594.8
622.854	614
623.268	590.6
623.681	590.2
624.095	591
624.509	608.2
624.922	600
625.336	591.8
625.728	594.6
626.142	610.2
626.556	613
626.97	602.4
627.384	594
627.799	588.2
628.213	601
628.627	590.8
629.041	592.6
629.456	594.6
629.87	587
630.285	610
630.699	602.2
631.093	586
631.507	593.8
631.922	600.8
632.337	604.6
632.752	586.2
633.167	593
633.582	589.6
633.997	585.6
634.412	589.2
634.806	595
635.221	576.2
635.637	603.4
636.052	580.2
636.468	600.6
636.883	612.6
637.299	588.2
637.715	581.6
638.109	585.8
638.525	582.6
638.941	605.2
639.357	596.2
639.773	604.4
640.189	584.6
640.584	594.6
641	593
641.416	575.4
641.832	595.2
642.249	595.8
642.665	587.4
643.06	591.2
643.477	602.6
643.894	578.8
644.31	587.2
644.727	592.2
645.123	592.8
645.54	580
645.957	586.2
646.374	605.8
646.77	600
647.187	626
647.604	593
648.021	579.8
648.439	579.2
648.835	594.4
649.252	592.6
649.67	585.8
650.088	595.6
650.484	589.2
650.902	591.2
651.32	585.6
651.738	593.8
652.134	603.2
652.552	609.8
652.971	605.8
653.389	588.8
653.786	600.6
654.204	607.4
654.622	580.8
655.019	595.4
655.438	592.8
655.857	593
656.275	589.4
656.673	581.6
657.091	602.8
657.51	578.6
657.908	599.4
658.327	609.8
658.746	576.4
659.144	591.4
659.563	615.8
659.982	594.4
660.38	584
660.8	583.2
661.219	598.8
661.617	595.2
662.037	592
662.457	604.2
662.855	575.4
663.275	620.8
663.695	591
664.094	588.4
664.514	593
664.934	585
665.333	602.6
665.753	594.4
666.152	582.4
666.572	584.4
666.993	605
667.392	583.8
667.812	590.8
668.212	582.2
668.632	608.2
669.053	583.4
669.453	602.4
669.874	587.6
670.273	591
670.694	588.4
671.116	604.4
671.515	596.8
671.937	584.4
672.337	588.2
672.758	581.6
673.158	603.4
673.58	582.6
673.98	586.4
674.402	591.4
674.824	590.8
675.224	590.6
675.646	578
676.047	589.6
676.469	583.4
676.869	600
677.292	587.6
677.693	580
678.115	587.2
678.516	590.8
678.939	588.8
679.34	576.6
679.762	599.4
680.164	594
680.586	586.8
680.988	597.6
681.411	616.8
681.812	585.2
682.236	579.6
682.637	586.6
683.061	576.6
683.462	591.4
683.864	591.6
684.288	590
684.69	581.8
685.114	596.4
685.516	599.8
685.94	587.2
686.342	597
686.766	574.2
687.168	591.2
687.571	607
687.995	595.8
688.398	591.6
688.822	585.2
689.225	604
689.628	611.2
690.052	585
690.456	591.8
690.88	590.8
691.284	571
691.687	586.2
692.112	586.2
692.515	584.4
692.919	580.2
693.344	589
693.747	577.6
694.173	581.4
694.577	590.6
694.98	578.6
695.406	583.8
695.81	582.2
696.214	589
696.64	583.6
697.044	591.6
697.448	593.8
697.874	590.6
698.279	580.8
698.684	577.6
699.11	575
699.514	585.6
699.919	583.2
700.324	572.4
700.75	584.8
701.156	590.8
701.561	594.6
701.987	583.6
702.393	595
702.798	599.2
703.203	585
703.63	576.4
704.036	582.2
704.442	588.6
704.847	571
705.274	587
705.68	585.4
706.086	592
706.492	574.6
706.92	585.2
707.326	596.6
707.732	582.6
708.139	579.8
708.545	578.6
708.973	578
709.38	579.6
709.786	573.4
710.193	601.6
710.6	587.4
711.028	577.2
711.435	588.8
711.842	594.4
712.249	582
712.656	589.4
713.064	587.6
713.492	580.2
713.9	582.4
714.307	595.6
714.715	588.8
715.123	587.8
715.53	591.6
715.938	591.6
716.367	591
716.775	582.8
717.184	577.4
717.592	579.8
718	589.6
718.408	609.6
718.816	621
719.225	592
719.633	585.8
720.042	585.8
720.472	589.6
720.881	610.4
721.29	591
721.699	572
722.108	587.2
722.517	585.2
722.926	578.4
723.335	595.4
723.744	589.2
724.154	581.8
724.563	591.8
724.973	591.8
725.382	588.6
725.792	576.4
726.202	570.8
726.612	594.6
727.022	579.6
727.432	576.2
779.813	575.8
780.223	627.4
780.634	580.4
781.044	576.2
781.454	584.2
781.865	601.2
782.276	580.4
782.686	592.6
783.097	578.4
783.508	585.2
783.919	582.4
784.33	590.6
784.741	596.6
785.152	576.8
785.563	577
785.974	577
786.386	589.4
786.776	584
787.188	585.6
787.599	572.6
788.011	592.4
788.423	588.8
788.835	587
789.247	569.8
789.659	577
790.071	570.8
790.483	617.4
790.874	572.6
791.286	588.4
791.699	571.2
792.111	579.6
792.524	589.4
792.937	584
793.349	576.8
793.741	575.8
794.154	584.2
794.567	596.2
794.98	585.2
795.393	572
795.785	603
796.198	580.2
796.612	585
797.026	578
797.439	563.8
797.831	580.4
798.245	574.8
798.659	581
799.073	584.6
799.487	579
799.88	585.4
800.294	580.4
800.708	585.8
801.123	584.6
801.516	598
801.93	563.4
802.345	572
802.76	586.2
803.153	596.2
803.568	594.6
803.983	594
804.377	586
804.792	572
805.207	568.6
805.601	582.6
806.016	620.2
806.432	576
806.826	613.6
807.242	597.4
807.658	588.8
808.052	588.6
808.468	578.8
808.884	570.2
809.279	581.2
809.695	593.4
810.111	605.2
810.506	587.2
810.922	602.6
811.339	585.6
811.734	590.6
812.151	573.8
812.546	581.2
812.963	567.6
813.38	588.2
813.776	588.2
814.193	606.6
814.589	580
815.006	584.2
815.402	578
815.82	583.8
816.237	581.4
816.633	588.2
817.051	580.4
817.448	582.8
817.866	567.6
818.262	594
818.68	587.6
819.077	581
819.495	579.8
819.892	623.8
820.311	576.8
820.708	570.8
821.127	583.8
821.524	595.4
821.943	585
822.34	600.2
822.759	580.4
823.157	587.4
823.576	595.2
823.974	596.8
824.393	627.6
824.791	585.6
825.189	572.8
825.609	582.2
826.007	585.4
826.427	571
826.826	576.2
827.246	586.2
827.644	567
828.043	598.4
828.463	578.6
828.862	585.2
829.261	592.8
829.682	573.8
830.081	587.2
830.502	569.2
830.901	584.4
831.301	595.2
831.722	576.8
832.121	582
832.521	575
832.943	581.4
833.342	581.4
833.742	572.8
834.164	577
834.564	571.4
834.965	584.8
835.386	584.4
835.787	578.4
836.188	577.6
836.588	587
837.01	578.4
837.411	575.4
837.812	594.2
838.213	578.8
838.636	579.4
839.037	647.4
839.438	590.8
839.84	582.4
840.263	582.8
840.664	582
841.066	581.8
841.468	581
841.891	572.8
842.293	592.2
842.695	584.4
843.098	588.2
843.5	572
843.902	585
844.326	578
844.729	578.4
845.131	577.8
845.534	578
845.937	585.6
846.34	600.2
846.764	569.4
847.167	587.2
847.571	568.2
847.974	572.8
848.377	579.2
848.781	617.4
849.184	590.2
849.588	578.4
849.992	570.6
850.396	585.4
850.821	592.4
851.225	577.4
851.63	583.8
852.034	575
852.438	581.2
852.843	662.8
853.247	568.4
853.652	565.2
854.057	596.8
854.462	582.2
854.867	588.4
855.272	613
855.677	581.4
