#lambda/nm	C1
208.295	506.2
208.67	468.6
209.045	425.6
209.419	426.8
209.794	610
210.169	597.6
210.544	721.2
210.919	613
211.295	609.4
211.67	612.6
212.045	616.6
212.421	613.2
212.796	659.6
213.172	607.4
213.547	609.2
213.923	610
214.299	603.2
214.675	615.4
215.051	620.6
215.427	630.2
215.803	626.2
216.179	622.2
216.555	605.4
216.932	629.8
217.308	615.2
217.684	609
218.061	626
218.438	619
218.814	612.8
219.191	623.4
219.568	609
219.945	616.2
220.322	626.8
220.699	618.4
221.076	616.2
221.453	622.2
221.83	608.6
222.208	610.8
222.585	609.6
222.962	614
223.34	625
223.717	618.8
224.095	612.8
224.473	617.8
224.851	609.4
225.229	603.2
225.607	626.8
225.985	600.8
226.363	616.6
226.741	615.6
227.119	611.4
227.497	623.8
227.876	601.6
228.254	616.4
228.633	617.8
229.011	610.4
229.39	623.6
229.769	612.4
230.148	620.8
230.527	636.6
230.905	614
231.284	624
231.664	605.6
232.043	621.6
232.422	620.4
232.801	610.2
233.181	620.2
233.56	608.2
233.94	619.2
234.319	602.2
234.699	613
235.079	652.2
235.458	659
235.838	636.4
236.218	607.8
236.598	599.2
236.978	603.4
237.358	611.6
237.738	616
238.119	616.6
238.499	606.2
238.88	613.6
239.26	633.4
239.641	594.6
240.021	608.2
240.402	618.4
240.783	605.8
241.163	612.2
241.544	630
241.925	614.6
242.306	625.6
242.687	615.6
243.069	617.2
243.45	625
243.831	615.2
244.212	610.6
244.594	654.2
244.975	630
245.357	614.2
245.739	609.8
246.12	618
246.502	631.6
246.884	614.6
247.266	615.8
247.648	621
248.03	638.6
248.412	619
248.794	630
249.176	614.6
249.559	617.6
249.941	604.8
250.323	605
250.706	615
251.089	620.4
251.471	621.8
251.854	614.4
252.237	615.8
252.62	626
253.002	614.8
253.385	614.6
253.769	633.2
254.152	617.6
254.535	622.8
254.918	604
255.301	616.2
255.685	612.6
256.068	608
256.452	638.2
256.835	622.4
257.219	621
257.603	635.6
257.986	610.2
258.37	607.8
258.754	603
259.138	623.4
259.522	622.6
259.906	611.8
260.29	625.2
260.675	615.8
261.059	614.8
261.443	604.8
261.828	618
262.212	619
262.597	609.4
262.981	611.2
263.366	623.8
263.751	612.2
264.136	604.8
264.521	613
264.906	613.4
265.291	627.6
265.676	608.6
266.061	623.6
266.446	630.4
266.831	616.8
267.217	631.4
267.602	616
267.987	613.8
268.373	605
268.759	627
269.144	621
269.53	618
269.916	611.2
270.302	604.8
270.688	627.2
271.074	621.2
271.46	619.4
271.846	648.8
272.232	621.6
272.618	605.4
273.004	618.4
273.391	625.8
273.777	637
274.164	623.4
274.55	624.6
274.937	619.4
275.324	613.4
275.71	626.6
276.097	624
276.484	613.4
276.871	619
277.258	617.8
277.645	609.4
278.032	608.6
278.419	614
278.807	628.4
279.194	610.6
279.581	613.4
279.969	617.2
280.356	624.2
280.744	621.4
281.131	645.2
281.519	618.4
281.907	613.6
282.295	613.2
282.682	624.8
283.07	617.8
283.458	622.8
283.846	630.4
284.235	623.8
284.623	637.8
285.011	604.4
285.399	622.2
285.788	622.6
286.176	607.4
286.565	634.6
286.953	621
287.342	623.6
287.731	613.2
288.119	614.2
288.508	612.6
288.897	617.8
289.286	610.8
289.675	625.6
290.064	628.2
290.453	616.4
290.821	614.8
291.21	625.4
291.599	604.8
291.989	620
292.378	627.6
292.768	623.4
293.157	617.6
293.547	627.2
293.936	611.8
294.326	607.8
294.716	625.2
295.106	615.4
295.496	622.8
295.886	623
296.276	625
296.666	607.8
297.056	618.2
297.446	606
297.836	641.6
298.227	613.6
298.617	608.8
299.008	634.6
299.398	615.6
299.789	614
300.179	623
300.57	629.8
300.961	610.4
301.352	616.2
301.742	620
302.133	622.4
302.524	623.6
302.915	616
303.307	612.6
303.698	628.8
304.089	629.2
304.48	608.8
304.872	621.4
305.263	619.4
305.655	611
306.046	624.6
306.438	618.4
306.829	613.8
307.221	625.6
307.613	631.6
308.005	632.8
308.397	628.4
308.789	630.4
309.181	638.6
309.573	633.4
309.965	630
310.357	615
310.749	633.2
311.142	609.6
311.534	612
311.926	623.8
312.319	624.8
312.711	612.8
313.104	628.6
313.497	614.8
313.889	659.2
314.282	634
314.675	643.8
315.068	617.4
315.461	621.2
315.854	645.2
316.247	629.4
316.64	611.4
317.033	621
317.405	626.8
317.798	622.6
318.192	618.6
318.585	614.4
318.979	613.8
319.372	608
319.766	616.8
320.16	632.6
320.553	630
320.947	638.2
321.341	611.2
321.735	617.8
322.129	610.2
322.523	635.4
322.917	614.8
323.311	624.4
323.705	623
324.099	617.4
324.494	635.8
324.888	623.8
325.282	612.6
325.677	636.8
326.071	625.2
326.466	627
326.861	622.2
327.255	631.6
327.65	631.2
328.045	634.8
328.44	628.6
328.835	623.6
329.23	612.8
329.625	638.4
330.02	610
330.415	633
330.81	619.6
331.206	618.8
331.601	616.6
331.996	619
332.37	640.8
332.766	608.6
333.161	643.6
333.557	617.4
333.953	620.6
334.348	994
334.744	620.2
335.14	610.6
335.536	614.6
335.932	631.8
336.328	627.4
336.724	628.6
337.12	619.8
337.516	627.4
337.913	624.8
338.309	631.8
338.705	617.8
339.102	629.6
339.498	610.4
339.895	636.2
340.291	617.4
340.688	620.8
341.085	615.8
341.481	618.6
341.878	613.6
342.275	638.8
342.672	608.6
343.069	615.8
343.466	603.4
343.842	633
344.239	607.4
344.636	617
345.033	612.6
345.431	610.6
345.828	615.6
346.225	618
346.623	650.8
347.02	618.2
347.418	621
347.816	626
348.213	600.2
348.611	630.8
349.009	610.6
349.407	624.6
349.805	605.2
350.203	607.4
350.601	627
350.999	608.2
351.397	672.2
351.795	617.8
352.193	624.8
352.57	631
352.969	624
353.367	596.2
353.766	618
354.164	611.6
354.563	626.6
354.961	613.6
355.36	611.2
355.759	617.4
356.158	604
356.557	612.2
356.956	604
357.355	598.8
357.754	610.8
358.153	625.2
358.552	632.6
358.951	618
359.35	620.4
359.75	606.4
360.149	604.8
360.527	601.8
360.926	603.2
361.326	617.6
361.726	601.4
362.125	608.6
362.525	622.4
362.925	606.4
363.325	609.2
363.724	608
364.124	609
364.524	600.6
364.924	601.8
365.324	619.6
365.725	591.6
366.125	616
366.525	599.2
366.904	600.4
367.304	593.6
367.705	622.2
368.105	622.2
368.506	616.8
368.906	604.4
369.307	617.2
369.708	610.4
370.108	601
370.509	611.8
370.91	591
371.311	619.6
371.712	616.8
372.113	610.4
372.514	597.4
372.894	604.8
373.295	596.4
373.696	614.8
374.097	617.6
374.499	633.6
374.9	607
375.301	604.6
375.703	610.8
376.105	597.6
376.506	612.4
376.908	618
377.309	603.6
377.711	613.4
378.113	595.4
378.493	608
378.895	600.2
379.297	614.8
379.699	600
380.102	606.2
380.504	609.2
380.906	613.2
381.308	631.6
381.71	601.8
382.113	619
382.515	612.2
382.918	611.4
383.299	607.8
383.701	623.8
384.104	610.6
384.507	591
384.909	605.4
385.312	598.4
385.715	598.6
386.118	605.6
386.521	590.8
386.924	615.4
387.327	608.2
387.709	596.8
388.112	592
388.515	606
388.918	606.4
389.322	611.2
389.725	604.4
390.129	633.6
390.532	616
390.936	609.8
391.339	601
391.743	611
392.125	605.4
392.529	619.6
392.933	618.6
393.337	618
393.74	612.2
394.144	612.8
394.548	600
394.953	602.2
395.357	616.6
395.761	613.8
396.144	610.6
396.548	607.4
396.952	603.4
397.357	611.4
397.761	603.6
398.166	600.6
398.57	607.8
398.975	604.6
399.379	614.4
399.763	655
400.168	606.6
400.572	607.8
400.977	610.2
401.382	625.6
401.787	618.8
402.192	624.2
402.597	631.4
403.002	593
403.386	620.4
403.791	621
404.197	607
404.602	609.8
405.007	604.4
405.413	607.2
405.818	608.2
406.224	598.2
406.608	604.8
407.014	598
407.42	626.4
407.825	605
408.231	613.2
408.637	619
409.043	619.6
409.449	598.6
409.834	600.4
410.24	610
410.646	621
411.052	612.4
411.458	608.8
411.865	626.8
412.271	621.4
412.677	612.4
413.062	618.8
413.469	596.4
413.875	631.6
414.282	627.2
414.689	617.6
415.095	614.6
415.502	605.4
415.888	611
416.294	592.6
416.701	649
417.108	606
417.515	616
417.923	609
418.33	630.6
418.715	617.8
419.123	606
419.53	600.6
419.937	616
420.345	624.2
420.752	603.8
421.16	619
421.546	608.4
421.953	610.6
422.361	602
422.769	606
423.177	605.6
423.585	628.4
423.992	630.2
424.379	624.6
424.787	617.4
425.195	634.4
425.603	610.2
426.011	620
426.419	635.8
426.806	620.8
427.214	620.6
427.623	624.8
428.031	623.4
428.44	616.8
428.848	623.4
429.235	630.6
429.644	610.2
430.053	614.6
430.461	637
430.87	647.4
431.279	627
431.666	607.4
432.075	618.6
432.484	627.6
432.893	614.4
433.302	635.6
433.711	661
434.099	629.4
434.508	629.6
434.918	623.8
435.327	652
435.737	649.8
436.125	657
436.534	659.8
436.944	666.6
437.353	666.6
437.763	685
438.173	668.4
438.561	681.6
438.971	674
439.381	694.6
439.791	690.4
440.201	678
440.589	704.4
440.999	711
441.409	720.4
441.819	712.8
442.23	734.6
442.619	733.4
443.029	743
443.439	745.6
443.85	749
444.26	768.8
444.649	760.4
445.06	758.8
445.471	743.8
445.881	765
446.292	781.4
446.682	789.8
447.092	763
447.503	823.4
447.914	786
448.325	787
448.715	786.8
449.126	781.4
449.537	784
449.948	782.8
450.338	798.8
450.75	802
451.161	788.8
451.572	805.2
451.984	800.2
452.374	781
452.786	811.6
453.197	803
453.609	812
453.999	797.6
454.411	801.4
454.823	822
455.235	809.2
455.647	803.6
456.037	814.6
456.449	795.2
456.862	819
457.274	817
457.665	803.4
458.077	820.8
458.489	832.8
458.902	813.6
459.293	810.4
459.705	818.6
460.118	813.8
460.53	818.6
460.921	817.4
461.334	822.4
461.747	823
462.16	824.6
462.551	824.4
462.964	827.4
463.377	810.6
463.79	828.8
464.182	843.4
464.595	817.6
465.008	830
465.421	835.6
465.813	820
466.226	830.4
466.64	835
467.053	879.6
467.445	846.4
467.859	859
468.272	846
468.686	854.6
469.078	831.2
469.492	821.6
469.906	840.2
470.298	837.8
470.712	828.4
471.126	873.2
471.54	827.6
471.933	826.8
472.347	828.4
472.761	829.4
473.175	827.6
473.568	835.6
473.982	810
474.397	825.2
474.79	837.4
475.204	847.2
475.619	833.8
476.033	833.6
476.426	832.4
476.841	831.2
477.256	856.4
477.649	827.8
478.064	825.2
478.479	824.2
478.872	826.6
479.287	813.2
479.702	811.8
480.118	830.6
480.511	827.8
480.927	805.8
481.342	817
481.736	822.8
482.151	813
482.566	841.2
482.96	821
483.376	822.6
483.792	807.2
484.186	823.4
484.602	804
485.017	816.8
485.412	814.8
485.827	820
486.243	814.8
486.638	830.4
487.054	818.4
487.47	825.8
487.865	804.8
488.281	803
488.697	793.8
489.092	800
489.508	798.2
489.925	811
490.32	791.2
490.736	801.4
491.153	809
491.548	795.4
491.964	808
492.381	785.6
492.776	793.8
493.193	790.8
493.61	797.4
494.006	793
494.422	792
494.84	773.6
495.235	789
495.652	785.2
496.069	783.4
496.465	769.6
496.883	784
497.3	794.8
497.696	774.4
498.113	778.6
498.509	763.8
498.927	767
499.344	762.2
499.741	750.2
500.158	773.6
500.576	774.6
500.973	752.2
501.39	749.6
501.787	752
502.205	756.6
502.623	749.2
503.02	740.2
503.438	753.2
503.856	744.4
504.253	756.4
504.671	751.4
505.068	741.4
505.486	753.2
505.905	763.6
506.302	747.6
506.72	754.8
507.118	731.4
507.536	742.2
507.955	745.2
508.352	738
508.771	744
509.169	740.2
509.587	732.6
510.006	733
510.404	720.6
510.823	723.6
511.221	721.6
511.64	718.4
512.038	745.4
512.457	723.2
512.877	726.2
513.275	719
513.694	725.4
514.092	706.4
514.512	712.6
514.91	725.4
515.33	718.8
515.749	717.6
516.148	723.2
516.568	713.6
516.966	709.2
517.386	704.6
517.785	707.4
518.205	704.2
518.603	696.6
519.024	698.2
519.444	701.2
519.843	711.8
520.263	712.4
520.662	701.6
521.082	702.2
521.481	701.6
521.902	701.4
522.301	708.8
522.722	688.2
523.121	702.6
523.542	689
523.963	690.6
524.362	705.6
524.783	692.4
525.183	693.4
525.604	691.2
526.003	684.4
526.425	692.6
526.824	695
527.246	704.8
527.646	693.6
528.067	691.8
528.467	683.4
528.888	689
529.289	686
529.71	684
530.11	674.2
530.532	666.4
530.932	675
531.354	669.4
531.755	696.8
532.176	684.6
532.577	671.8
532.999	672.4
533.4	666.4
533.822	688.4
534.223	681.6
534.645	673.6
535.046	662.2
535.468	657
535.869	678.4
536.292	656.4
536.693	694
537.115	666.2
537.516	660.8
537.939	660.6
538.34	674.8
538.742	687.2
539.165	661
539.566	667.8
539.989	666.4
540.391	654.6
540.814	662.4
541.216	666.8
541.639	662.8
542.041	662.6
542.464	655.2
542.866	656.8
543.268	652.4
543.691	661.4
544.093	663.6
544.517	675.6
544.919	646.2
545.343	686.4
545.745	651
546.147	658
546.571	650.8
546.974	646.4
547.398	653.6
547.8	662.8
548.224	643.8
548.627	640.8
549.03	654.4
549.454	645.8
549.857	644.8
550.281	638
550.684	648.8
551.087	655.2
551.512	647.8
551.915	654.4
552.34	644.4
552.743	639.4
553.146	641.6
553.571	633.6
553.975	664
554.399	623
554.803	690.4
555.207	630.8
555.632	637
556.036	639.8
556.461	623.2
556.865	633.2
557.268	630.2
557.694	629.8
558.098	640
558.502	639.8
558.927	627
559.332	634.8
559.736	628.2
560.162	632.4
560.566	624.6
560.992	632.8
561.396	634.4
561.801	628.4
562.227	626.6
562.631	620.8
563.036	636.2
563.462	639
563.867	631.6
564.272	625
564.698	631.2
565.103	622.4
565.508	650.6
565.935	627
566.34	619.6
566.745	636.4
567.172	631
567.577	642.6
567.982	626.2
568.409	632.8
568.815	619.8
569.22	628.2
569.626	630.2
570.053	596.8
570.459	627.2
570.865	630.2
571.292	634.2
571.698	626.8
572.104	611.4
572.531	622.2
572.937	632.8
573.343	620
573.75	616.4
574.177	620.2
574.583	624.2
574.99	619.2
575.396	623.6
575.824	625.8
576.231	620.2
576.637	617.2
577.065	636.6
577.472	618.2
577.879	611.6
578.286	632.8
578.714	612.2
579.121	614.8
579.528	620.6
579.935	626
580.364	628.8
580.771	605.6
581.178	611.2
581.585	625.6
582.014	620.6
582.421	611.8
582.829	617.6
583.236	619.8
583.644	606.8
584.073	613
584.481	615.8
584.889	612.2
585.296	615.2
585.726	613.2
586.134	606.8
586.542	610.2
586.95	635.8
587.358	601.8
587.787	610.4
588.196	622
588.604	614.8
589.012	613
589.421	604.4
589.851	603.8
590.259	608.6
590.668	611.4
591.076	646.4
591.485	602.2
591.894	600.4
592.324	628
592.733	623
593.142	600
593.551	602.2
593.96	614.4
594.369	600.6
594.8	601.8
595.209	611
595.618	595.2
596.028	594.4
596.437	598.6
596.847	602.4
597.256	610.6
597.687	600.2
598.097	598.8
598.507	593.6
598.917	599.8
599.327	604
599.736	604.8
600.146	614.2
600.556	610
600.988	624.8
601.398	600.6
601.808	617.6
602.219	590.4
602.629	607.4
603.039	602.4
603.45	629
603.86	603.4
604.271	607.6
604.703	608
605.114	604.6
605.525	605
605.935	614
606.346	626.4
606.757	603.2
607.168	610.6
607.579	595.6
607.99	613.8
608.402	601.2
608.813	607
609.224	597
609.636	579
610.047	597.6
610.48	609.4
610.892	608.6
611.303	618
611.715	603.2
612.127	589.8
612.539	593.8
612.95	608
613.362	579.6
613.774	586.8
614.186	602.2
614.599	590.4
615.011	602.2
615.423	597.2
615.835	591.4
616.248	583.2
616.66	606.4
617.073	590.4
617.485	592.6
617.898	604.4
618.311	600.6
618.723	595.4
619.136	627
619.549	608.8
619.962	618
620.375	600.6
620.788	598.8
621.201	594
621.614	602.2
622.028	593
622.441	596.2
622.854	607.6
623.268	597.6
623.681	599.4
624.095	588.6
624.509	602.6
624.922	601.8
625.336	593.6
625.728	600
626.142	612.6
626.556	618.6
626.97	600.4
627.384	603
627.799	590.2
628.213	607.4
628.627	595.2
629.041	597
629.456	589.6
629.87	591.2
630.285	607.8
630.699	608.4
631.093	595
631.507	594.4
631.922	600.8
632.337	604.2
632.752	588.2
633.167	599.8
633.582	594.6
633.997	586.2
634.412	590.2
634.806	588.8
635.221	587.2
635.637	611
636.052	576.2
636.468	598.4
636.883	623
637.299	592
637.715	590.8
638.109	587.2
638.525	582.6
638.941	608
639.357	594.2
639.773	597.8
640.189	591.6
640.584	594.2
641	599.4
641.416	583
641.832	588.6
642.249	592.2
642.665	588.2
643.06	600.8
643.477	601
643.894	583.4
644.31	597.8
644.727	599.4
645.123	594
645.54	587.2
645.957	598.4
646.374	602.4
646.77	589
647.187	623.4
647.604	594.8
648.021	588.8
648.439	576.2
648.835	592
649.252	586.8
649.67	587.8
650.088	591
650.484	605.2
650.902	588.2
651.32	603.2
651.738	587.2
652.134	594.6
652.552	605.4
652.971	600.8
653.389	585
653.786	598
654.204	609.4
654.622	587.4
655.019	595.8
655.438	586
655.857	591
656.275	590.4
656.673	579
657.091	598.4
657.51	588.6
657.908	601.2
658.327	609.2
658.746	586.2
659.144	589.6
659.563	600.6
659.982	591.8
660.38	582.2
660.8	589.6
661.219	601.8
661.617	591.4
662.037	595.8
662.457	606.8
662.855	578.6
663.275	626.2
663.695	594.6
664.094	583
664.514	584.2
664.934	582
665.333	596.8
665.753	590
666.152	590
666.572	586.4
666.993	604.2
667.392	591.2
667.812	580.8
668.212	582.2
668.632	607.4
669.053	585.6
669.453	590.6
669.874	587.4
670.273	589.4
670.694	594.8
671.116	605.4
671.515	593.6
671.937	580
672.337	585.4
672.758	584.6
673.158	610
673.58	577.4
673.98	589.2
674.402	604
674.824	588.8
675.224	584.2
675.646	576
676.047	587.4
676.469	590.8
676.869	600.2
677.292	598.4
677.693	588.8
678.115	579.6
678.516	595.8
678.939	591.6
679.34	586.8
679.762	602.4
680.164	594.4
680.586	584.8
680.988	597
681.411	626.8
681.812	586.6
682.236	578
682.637	583.4
683.061	576.8
683.462	589.6
683.864	588.8
684.288	597.2
684.69	584.8
685.114	606.6
685.516	608.6
685.94	580.4
686.342	599
686.766	586
687.168	585.8
687.571	601
687.995	595.4
688.398	587.4
688.822	586
689.225	606.6
689.628	604
690.052	586.2
690.456	591.4
690.88	590.2
691.284	574.2
691.687	596.4
692.112	580.4
692.515	588.2
692.919	590.4
693.344	593
693.747	587.6
694.173	585.8
694.577	602.4
694.98	590.4
695.406	586.2
695.81	589.8
696.214	600
696.64	590
697.044	592.2
697.448	596.2
697.874	588
698.279	594.4
698.684	580.4
699.11	577.2
699.514	582.4
699.919	582.6
700.324	576
700.75	583.4
701.156	590.4
701.561	597.4
701.987	595.8
702.393	599
702.798	598.6
703.203	592.8
703.63	585.4
704.036	590.6
704.442	592.4
704.847	581.6
705.274	591.4
705.68	598
706.086	596.8
706.492	582.6
706.92	592.4
707.326	595
707.732	586.4
708.139	577.4
708.545	583.2
708.973	579.8
709.38	594.4
709.786	580.4
710.193	604.8
710.6	588.4
711.028	578
711.435	584
711.842	585.6
712.249	584.8
712.656	587.6
713.064	597
713.492	580
713.9	584.2
714.307	591.8
714.715	584.2
715.123	593
715.53	585.2
715.938	595.8
716.367	588.2
716.775	589.8
717.184	574.2
717.592	579.4
718	601.4
718.408	620.6
718.816	637.2
719.225	590.2
719.633	585.6
720.042	574.8
720.472	581
720.881	605.2
721.29	594.8
721.699	577.6
722.108	583
722.517	583.8
722.926	582.4
723.335	601
723.744	585.6
724.154	589.4
724.563	587.4
724.973	586
725.382	589.6
725.792	586
726.202	576.4
726.612	613.8
727.022	587.4
727.432	583.8
779.813	580.2
780.223	625.6
780.634	575.6
781.044	582.6
781.454	588.4
781.865	597.2
782.276	579
782.686	586.2
783.097	580.8
783.508	588.6
783.919	592.8
784.33	603.8
784.741	602.2
785.152	575.4
785.563	578.4
785.974	577.4
786.386	598
786.776	583.8
787.188	588
787.599	581
788.011	591.2
788.423	593.4
788.835	581.4
789.247	576.4
789.659	577.2
790.071	586.4
790.483	621.6
790.874	574.4
791.286	598.4
791.699	579.8
792.111	580
792.524	583.6
792.937	579.8
793.349	580.2
793.741	576
794.154	580.8
794.567	607.2
794.98	590.4
795.393	571
795.785	602.6
796.198	579.2
796.612	577
797.026	584
797.439	571.2
797.831	589.2
798.245	575.4
798.659	573.8
799.073	574.8
799.487	564
799.88	579
800.294	584.2
800.708	583.4
801.123	581.2
801.516	594.4
801.93	571.2
802.345	568.6
802.76	584.4
803.153	600
803.568	593
803.983	596
804.377	582.4
804.792	578.8
805.207	569.2
805.601	584.4
806.016	620
806.432	581
806.826	612.2
807.242	589.6
807.658	589.4
808.052	587
808.468	570
808.884	582.8
809.279	588.8
809.695	603.4
810.111	594.6
810.506	587.8
810.922	599.6
811.339	573.6
811.734	591.4
812.151	575.6
812.546	578
812.963	578.2
813.38	593.4
813.776	590.8
814.193	601.6
814.589	568.4
815.006	575.8
815.402	589
815.82	580.4
816.237	583
816.633	590.2
817.051	570.8
817.448	585
817.866	573.6
818.262	607.4
818.68	579.6
819.077	587.2
819.495	587.8
819.892	627.4
820.311	579.8
820.708	574.8
821.127	578.8
821.524	601.8
821.943	582
822.34	592.8
822.759	583.8
823.157	579
823.576	603
823.974	598.8
824.393	630.2
824.791	584
825.189	583.2
825.609	579.2
826.007	580.6
826.427	572
826.826	579.8
827.246	589.4
827.644	574.2
828.043	592.6
828.463	580
828.862	590.8
829.261	586.6
829.682	567
830.081	592.6
830.502	574.8
830.901	591.8
831.301	599.6
831.722	566.2
832.121	585
832.521	579
832.943	578.6
833.342	594
833.742	579.8
834.164	583.8
834.564	575.2
834.965	580.4
835.386	580.6
835.787	580.4
836.188	582.6
836.588	583.8
837.01	587.2
837.411	576.6
837.812	589.6
838.213	591.8
838.636	575.6
839.037	651.2
839.438	584
839.84	584.6
840.263	586.4
840.664	583.2
841.066	574.2
841.468	591.2
841.891	571
842.293	589.6
842.695	579.6
843.098	592.8
843.5	581.6
843.902	592.8
844.326	585.8
844.729	583.2
845.131	590.6
845.534	580.4
845.937	599.6
846.34	603.4
846.764	579
847.167	586.6
847.571	570.6
847.974	588.2
848.377	581
848.781	629.2
849.184	589.6
849.588	576
849.992	579.4
850.396	584.4
850.821	603.4
851.225	587.4
851.63	578.6
852.034	593.6
852.438	572.8
852.843	658.4
853.247	574
853.652	573.6
854.057	590.8
854.462	592.6
854.867	587.6
855.272	605.6
855.677	593.6
856.082	572.2
856.487	568.6
856.893	584
