#lambda/nm	C1
208.295	516.2
208.67	465.8
209.045	423.8
209.419	432
209.794	612.2
210.169	603.2
210.544	723.8
210.919	623.2
211.295	605
211.67	611.8
212.045	609.6
212.421	604.6
212.796	640
213.172	607.4
213.547	610.6
213.923	617.8
214.299	603.6
214.675	621.2
215.051	616.6
215.427	630.2
215.803	633.8
216.179	619.6
216.555	609.8
216.932	626.6
217.308	627.4
217.684	613
218.061	622.6
218.438	612
218.814	604
219.191	623
219.568	610.8
219.945	607
220.322	628.2
220.699	620.4
221.076	617.6
221.453	615.8
221.83	601
222.208	619
222.585	607.2
222.962	610.8
223.34	618.6
223.717	607.8
224.095	607.2
224.473	614.4
224.851	605.2
225.229	611
225.607	622.2
225.985	601.8
226.363	621.6
226.741	610
227.119	615.4
227.497	621.2
227.876	598.8
228.254	623
228.633	621.6
229.011	616.6
229.39	621.2
229.769	614
230.148	617
230.527	631.6
230.905	617.8
231.284	623
231.664	606.8
232.043	631.6
232.422	622.4
232.801	605
233.181	621.6
233.56	623
233.94	618.2
234.319	596
234.699	615.2
235.079	657.2
235.458	656.2
235.838	625.4
236.218	608
236.598	599.4
236.978	605.6
237.358	610
237.738	606.6
238.119	623.2
238.499	609.8
238.88	606.6
239.26	626.2
239.641	598.2
240.021	612.2
240.402	622
240.783	614.4
241.163	619.2
241.544	615.2
241.925	617.8
242.306	628.2
242.687	616
243.069	613.4
243.45	622.6
243.831	614
244.212	608
244.594	655.4
244.975	626.4
245.357	621.4
245.739	610.4
246.12	612.8
246.502	628.2
246.884	608
247.266	610
247.648	616.2
248.03	639.4
248.412	612.6
248.794	616
249.176	605
249.559	626.6
249.941	611.4
250.323	598
250.706	609.6
251.089	611.4
251.471	623
251.854	625.2
252.237	614.6
252.62	628
253.002	619.2
253.385	616.8
253.769	629.8
254.152	610.2
254.535	621.2
254.918	617
255.301	613
255.685	618
256.068	605
256.452	642.2
256.835	625.6
257.219	627.4
257.603	631
257.986	602.4
258.37	623
258.754	604
259.138	620.4
259.522	627.6
259.906	611.2
260.29	606.6
260.675	626.6
261.059	619.8
261.443	606.2
261.828	626.4
262.212	627
262.597	607.4
262.981	609.4
263.366	624.4
263.751	622.8
264.136	606
264.521	619.8
264.906	619.2
265.291	629.2
265.676	614.8
266.061	619.2
266.446	639.4
266.831	624.2
267.217	632.6
267.602	624.6
267.987	619
268.373	613.6
268.759	634.4
269.144	623.4
269.53	618
269.916	620
270.302	605.8
270.688	610.4
271.074	620.6
271.46	633
271.846	645.6
272.232	624.8
272.618	608.8
273.004	613.8
273.391	618.2
273.777	627
274.164	617.6
274.55	636.4
274.937	616.8
275.324	608.4
275.71	625.6
276.097	621.2
276.484	617.6
276.871	618
277.258	622
277.645	606
278.032	616.8
278.419	613.2
278.807	624.4
279.194	606.6
279.581	608.6
279.969	627.6
280.356	618.6
280.744	624
281.131	643.8
281.519	635
281.907	610.4
282.295	609
282.682	635.2
283.07	621.6
283.458	617.8
283.846	626.8
284.235	626
284.623	622.2
285.011	609
285.399	623.8
285.788	610.2
286.176	618.6
286.565	627.6
286.953	606
287.342	613.2
287.731	609.2
288.119	606
288.508	603.4
288.897	620.2
289.286	603.2
289.675	616
290.064	624.6
290.453	611
290.821	614.8
291.21	632.8
291.599	612.6
291.989	611
292.378	628.6
292.768	638.4
293.157	618.2
293.547	625
293.936	614
294.326	615
294.716	617
295.106	612.4
295.496	622.8
295.886	626.4
296.276	610.8
296.666	609.2
297.056	611.4
297.446	609
297.836	637
298.227	623.8
298.617	619
299.008	633.2
299.398	614
299.789	614.2
300.179	629.8
300.57	630.2
300.961	613.2
301.352	616.6
301.742	624.8
302.133	617.6
302.524	624.8
302.915	619.2
303.307	608.2
303.698	628.6
304.089	617.4
304.48	609.8
304.872	622.8
305.263	612.8
305.655	618.8
306.046	622.8
306.438	620.8
306.829	608.6
307.221	634.6
307.613	619.2
308.005	622.6
308.397	627.4
308.789	641.4
309.181	635.6
309.573	631.4
309.965	622
310.357	616.6
310.749	622.8
311.142	611.8
311.534	611.6
311.926	628.2
312.319	621.6
312.711	614.8
313.104	633.6
313.497	607
313.889	648
314.282	633.6
314.675	639.4
315.068	614
315.461	626.8
315.854	649.8
316.247	618.6
316.64	622.4
317.033	622.4
317.405	629.6
317.798	612.8
318.192	621.6
318.585	613.2
318.979	624
319.372	606.6
319.766	611.8
320.16	620.2
320.553	629.8
320.947	636.8
321.341	613
321.735	614.8
322.129	609.4
322.523	631.4
322.917	606.2
323.311	627.4
323.705	616
324.099	628.4
324.494	629.8
324.888	624.2
325.282	617
325.677	626.2
326.071	627.8
326.466	623.6
326.861	610.6
327.255	622
327.65	633.6
328.045	641
328.44	626.6
328.835	621.6
329.23	608.6
329.625	650.4
330.02	607.6
330.415	634.4
330.81	623.2
331.206	619
331.601	614.8
331.996	632.2
332.37	633
332.766	612.2
333.161	642
333.557	613
333.953	622.6
334.348	925.8
334.744	614.2
335.14	621.4
335.536	610.6
335.932	636.6
336.328	615
336.724	625.2
337.12	622.8
337.516	625.6
337.913	618.8
338.309	638
338.705	616.2
339.102	626.6
339.498	608.8
339.895	634.2
340.291	615.6
340.688	621.4
341.085	611.4
341.481	621.4
341.878	613.2
342.275	639.8
342.672	613.2
343.069	612.6
343.466	594.6
343.842	622.4
344.239	611.8
344.636	611.6
345.033	605.8
345.431	616.4
345.828	613.6
346.225	608.8
346.623	655.8
347.02	610.2
347.418	624.8
347.816	626
348.213	602.2
348.611	614.4
349.009	603.8
349.407	625.6
349.805	601.6
350.203	601.4
350.601	628.8
350.999	608
351.397	662.4
351.795	608.6
352.193	621.4
352.57	615.6
352.969	621.6
353.367	609.8
353.766	613.6
354.164	613.4
354.563	623.4
354.961	616.2
355.36	604.8
355.759	610.6
356.158	608.2
356.557	607.2
356.956	607.2
357.355	603.8
357.754	621.8
358.153	610.8
358.552	635
358.951	614.4
359.35	625.8
359.75	606
360.149	598.4
360.527	594.6
360.926	602.8
361.326	609
361.726	615
362.125	603.6
362.525	611.6
362.925	608
363.325	615.8
363.724	609.8
364.124	614.2
364.524	605.2
364.924	604.4
365.324	619.8
365.725	607.4
366.125	619.2
366.525	611.6
366.904	603
367.304	604.2
367.705	622.6
368.105	625.2
368.506	606.6
368.906	607
369.307	608.2
369.708	624.6
370.108	603
370.509	623
370.91	606
371.311	607
371.712	607
372.113	605.4
372.514	599.8
372.894	611.4
373.295	608.2
373.696	621.6
374.097	626.2
374.499	641.8
374.9	611.6
375.301	605.2
375.703	613.4
376.105	607
376.506	610.6
376.908	617.6
377.309	609.8
377.711	606.2
378.113	602.8
378.493	609
378.895	604.2
379.297	620.8
379.699	597.4
380.102	613
380.504	606.4
380.906	608.6
381.308	626.4
381.71	606.2
382.113	625
382.515	604.4
382.918	606
383.299	605.6
383.701	619.6
384.104	605.8
384.507	585.4
384.909	607.8
385.312	592.6
385.715	594.2
386.118	604.8
386.521	597.6
386.924	612.4
387.327	603.2
387.709	601.2
388.112	593
388.515	601
388.918	599.2
389.322	615.2
389.725	600.2
390.129	625.2
390.532	607.4
390.936	602
391.339	608
391.743	621.8
392.125	606
392.529	611.8
392.933	625.2
393.337	607.6
393.74	609.8
394.144	616.8
394.548	605.6
394.953	603.8
395.357	614.6
395.761	606.4
396.144	614.8
396.548	607.4
396.952	609.6
397.357	614.6
397.761	600.8
398.166	602.2
398.57	600.4
398.975	595.2
399.379	606
399.763	653.6
400.168	607.4
400.572	610
400.977	608
401.382	617.8
401.787	609.8
402.192	625
402.597	618.4
403.002	599
403.386	626.8
403.791	614.2
404.197	607.8
404.602	612
405.007	601.2
405.413	602.6
405.818	604.8
406.224	604.2
406.608	604.6
407.014	601.2
407.42	627
407.825	600.4
408.231	615.4
408.637	615.6
409.043	624.4
409.449	612.6
409.834	608.4
410.24	608.6
410.646	611
411.052	617.4
411.458	614.6
411.865	618.8
412.271	611.2
412.677	621.6
413.062	611.8
413.469	597.8
413.875	629.4
414.282	623.8
414.689	607.8
415.095	618.4
415.502	607.4
415.888	609
416.294	588.4
416.701	653.2
417.108	604
417.515	610.2
417.923	603
418.33	626.2
418.715	613
419.123	608.4
419.53	598.2
419.937	609.8
420.345	618.2
420.752	599.2
421.16	624.2
421.546	604.6
421.953	612.2
422.361	602.6
422.769	611.6
423.177	594
423.585	639.8
423.992	629.2
424.379	621.4
424.787	622.2
425.195	635.6
425.603	613.6
426.011	622.4
426.419	628
426.806	619
427.214	615.6
427.623	624.2
428.031	625.8
428.44	608.8
428.848	617.4
429.235	624.6
429.644	609.8
430.053	613.6
430.461	628.6
430.87	637.6
431.279	621.4
431.666	606.6
432.075	617.8
432.484	615.2
432.893	618.6
433.302	624.6
433.711	651.4
434.099	620.6
434.508	619.4
434.918	603.8
435.327	629.6
435.737	617.4
436.125	623
436.534	627.4
436.944	626.4
437.353	632.8
437.763	645
438.173	623.6
438.561	642.2
438.971	618.2
439.381	631
439.791	652.4
440.201	622
440.589	643.8
440.999	650.8
441.409	650.6
441.819	638.8
442.23	656.8
442.619	663.8
443.029	655.6
443.439	663.4
443.85	673.4
444.26	684
444.649	673.2
445.06	665
445.471	672.4
445.881	681
446.292	690.4
446.682	696.8
447.092	669.4
447.503	738.2
447.914	681.4
448.325	694.4
448.715	694.8
449.126	692.8
449.537	700.6
449.948	698.4
450.338	695.8
450.75	706.8
451.161	703.2
451.572	710
451.984	704.8
452.374	687
452.786	698.8
453.197	712
453.609	718.4
453.999	701.4
454.411	700.2
454.823	733.6
455.235	723.4
455.647	710.2
456.037	720.4
456.449	697.4
456.862	714.2
457.274	717.4
457.665	707
458.077	719.4
458.489	754.2
458.902	718.8
459.293	728.8
459.705	723.2
460.118	720.8
460.53	722
460.921	723.6
461.334	729
461.747	719
462.16	737.2
462.551	738.6
462.964	745
463.377	713.2
463.79	731.4
464.182	743
464.595	731
465.008	736.4
465.421	740.6
465.813	731.2
466.226	748.2
466.64	726.6
467.053	787.8
467.445	751.6
467.859	766.2
468.272	752
468.686	755
469.078	735.2
469.492	726.8
469.906	746.8
470.298	759.2
470.712	741
471.126	792.2
471.54	730.4
471.933	748.2
472.347	741.4
472.761	736.6
473.175	738.8
473.568	736.4
473.982	737
474.397	742.8
474.79	734.4
475.204	745.8
475.619	745.6
476.033	747
476.426	741.2
476.841	732.2
477.256	764
477.649	731.2
478.064	735.8
478.479	741.6
478.872	743.8
479.287	726
479.702	730.4
480.118	728.6
480.511	729.8
480.927	739.6
481.342	733.4
481.736	737
482.151	731
482.566	743.6
482.96	742.4
483.376	749.8
483.792	723.4
484.186	744.6
484.602	739.2
485.017	737.8
485.412	737.6
485.827	742.2
486.243	729
486.638	759.4
487.054	753.6
487.47	745.6
487.865	734
488.281	738
488.697	723
489.092	730.4
489.508	726.4
489.925	742.6
490.32	728.6
490.736	740.8
491.153	732.4
491.548	726.8
491.964	740.6
492.381	717.6
492.776	734.6
493.193	731.6
493.61	743.6
494.006	720.2
494.422	724
494.84	715.6
495.235	736.2
495.652	721.6
496.069	714.2
496.465	718.4
496.883	717.6
497.3	742.8
497.696	718.2
498.113	727.2
498.509	705.4
498.927	709.4
499.344	705.8
499.741	699.8
500.158	722.8
500.576	733.6
500.973	712
501.39	698.8
501.787	703.4
502.205	708.4
502.623	709.8
503.02	690.6
503.438	704.6
503.856	701.2
504.253	703.6
504.671	701.4
505.068	694.8
505.486	708.8
505.905	709.4
506.302	702.6
506.72	707.4
507.118	689
507.536	698.2
507.955	698.2
508.352	688.6
508.771	700.6
509.169	697.4
509.587	692
510.006	692.2
510.404	680.4
510.823	688.4
511.221	683.8
511.64	681.4
512.038	690
512.457	692.8
512.877	687.4
513.275	675.2
513.694	681.2
514.092	675
514.512	681.4
514.91	685.8
515.33	675.2
515.749	675.2
516.148	680.6
516.568	672.6
516.966	671.6
517.386	669
517.785	672.8
518.205	666.2
518.603	671.4
519.024	663.4
519.444	678.6
519.843	687
520.263	676
520.662	678.4
521.082	672.4
521.481	668.4
521.902	667.2
522.301	670.4
522.722	674.4
523.121	666.4
523.542	663.4
523.963	665.4
524.362	670
524.783	665
525.183	666
525.604	674
526.003	664.2
526.425	662.2
526.824	680.2
527.246	661.6
527.646	662
528.067	668.4
528.467	663.6
528.888	658
529.289	655.2
529.71	663
530.11	657.6
530.532	656.2
530.932	651
531.354	639.4
531.755	684.6
532.176	659.6
532.577	653.4
532.999	656.8
533.4	657
533.822	659.6
534.223	662.6
534.645	649
535.046	646.6
535.468	642.8
535.869	659.2
536.292	636
536.693	679
537.115	650.2
537.516	647.4
537.939	638
538.34	661.2
538.742	656.4
539.165	644
539.566	647
539.989	628.2
540.391	640.6
540.814	642.6
541.216	653.2
541.639	640
542.041	648.8
542.464	638
542.866	637
543.268	629.2
543.691	655
544.093	651.4
544.517	657.4
544.919	624.8
545.343	660.6
545.745	629
546.147	649.8
546.571	630
546.974	635.6
547.398	635
547.8	660.4
548.224	638.2
548.627	638
549.03	643.6
549.454	635.2
549.857	626.2
550.281	624.2
550.684	628.8
551.087	643.8
551.512	637.4
551.915	639
552.34	631.2
552.743	629
553.146	637.8
553.571	635.8
553.975	641.8
554.399	624.6
554.803	668.8
555.207	621
555.632	623
556.036	644.6
556.461	619.6
556.865	632.4
557.268	626.4
557.694	622.8
558.098	643
558.502	626.8
558.927	627.4
559.332	630
559.736	623
560.162	628
560.566	627.4
560.992	636
561.396	621.6
561.801	621.2
562.227	628.8
562.631	625.4
563.036	630.4
563.462	623
563.867	626.6
564.272	618.8
564.698	634.2
565.103	605.8
565.508	642.8
565.935	621.6
566.34	621.4
566.745	625.8
567.172	625.4
567.577	639
567.982	629.8
568.409	619
568.815	611.4
569.22	619.4
569.626	635
570.053	606.2
570.459	620.8
570.865	617.8
571.292	626.2
571.698	627.6
572.104	615.6
572.531	611.4
572.937	625.4
573.343	616.8
573.75	608.4
574.177	630
574.583	622.6
574.99	606.8
575.396	619
575.824	607.8
576.231	621.8
576.637	609.8
577.065	634
577.472	610
577.879	611.8
578.286	631.2
578.714	598
579.121	604.8
579.528	605.8
579.935	622.4
580.364	606.4
580.771	595.8
581.178	604
581.585	607
582.014	621.4
582.421	605.6
582.829	599.4
583.236	615.4
583.644	594.6
584.073	596.8
584.481	615.2
584.889	599
585.296	616.8
585.726	609
586.134	599.6
586.542	607
586.95	616.6
587.358	604.2
587.787	603.2
588.196	625.4
588.604	605.6
589.012	608.8
589.421	597.6
589.851	597.4
590.259	609.6
590.668	597.8
591.076	636.4
591.485	598.6
591.894	602.4
592.324	614.4
592.733	623.8
593.142	595.6
593.551	595.8
593.96	609.4
594.369	592.4
594.8	587.4
595.209	599.4
595.618	589.8
596.028	604.6
596.437	593.6
596.847	596.4
597.256	604.2
597.687	599.6
598.097	598.2
598.507	601.4
598.917	608.6
599.327	606.4
599.736	600
600.146	607.8
600.556	605
600.988	612.4
601.398	602.2
601.808	612
602.219	590.8
602.629	604.4
603.039	592.4
603.45	635.4
603.86	607
604.271	610.8
604.703	600.6
605.114	599.8
605.525	597.6
605.935	605.6
606.346	618.2
606.757	592.6
607.168	591
607.579	588.8
607.99	609.2
608.402	599.6
608.813	604.8
609.224	593.8
609.636	587.2
610.047	590.6
610.48	600.8
610.892	607.2
611.303	600.2
611.715	595.8
612.127	591.4
612.539	594
612.95	595.2
613.362	590.8
613.774	589
614.186	588
614.599	593.8
615.011	600.8
615.423	600
615.835	585.2
616.248	594.2
616.66	600.2
617.073	591.4
617.485	588.8
617.898	607.4
618.311	599.2
618.723	596.4
619.136	630
619.549	605
619.962	613.4
620.375	591.6
620.788	606.8
621.201	594.8
621.614	602.2
622.028	604.4
622.441	594.8
622.854	603.4
623.268	597.2
623.681	601.4
624.095	603.2
624.509	609
624.922	606.8
625.336	582.8
625.728	596.6
626.142	611
626.556	606.2
626.97	601
627.384	592
627.799	594.8
628.213	609
628.627	593.2
629.041	597.4
629.456	601.2
629.87	604.2
630.285	590.4
630.699	608
631.093	589.4
631.507	600.8
631.922	599
632.337	610.6
632.752	577.4
633.167	591
633.582	589.2
633.997	584.4
634.412	588.2
634.806	590
635.221	594
635.637	603.4
636.052	585.4
636.468	590.2
636.883	610.6
637.299	589
637.715	579.2
638.109	597.4
638.525	583.6
638.941	606.2
639.357	596.2
639.773	605
640.189	583.4
640.584	593
641	602.2
641.416	587.2
641.832	589.2
642.249	589
642.665	584.4
643.06	597.2
643.477	609.6
643.894	581.2
644.31	590.6
644.727	592.2
645.123	586.8
645.54	587
645.957	594
646.374	595
646.77	590.4
647.187	617.6
647.604	585.2
648.021	578.8
648.439	585.2
648.835	594.4
649.252	592.2
649.67	590.6
650.088	592.2
650.484	597.4
650.902	597.8
651.32	598.6
651.738	583.8
652.134	596.8
652.552	615.6
652.971	606
653.389	589.4
653.786	599.4
654.204	609.4
654.622	591.6
655.019	593.4
655.438	597.8
655.857	591.4
656.275	595
656.673	585.8
657.091	595
657.51	581.6
657.908	599.8
658.327	612
658.746	590.6
659.144	589.8
659.563	595.6
659.982	599
660.38	584.6
660.8	594.6
661.219	600.6
661.617	601.6
662.037	593
662.457	608.8
662.855	585.2
663.275	622.4
663.695	590.8
664.094	589.2
664.514	592.6
664.934	579.4
665.333	600.8
665.753	591.4
666.152	574.6
666.572	594.2
666.993	610.6
667.392	598.2
667.812	591
668.212	588.6
668.632	604.6
669.053	584.4
669.453	590.6
669.874	589.8
670.273	593.6
670.694	580.4
671.116	600.4
671.515	606.2
671.937	596.2
672.337	577.4
672.758	585
673.158	601
673.58	583.6
673.98	598.8
674.402	598.4
674.824	582.4
675.224	585.4
675.646	576.2
676.047	576.2
676.469	584
676.869	593.8
677.292	586.8
677.693	576
678.115	584
678.516	584.6
678.939	591.8
679.34	583.2
679.762	603.2
680.164	594.4
680.586	580.4
680.988	592.2
681.411	616.2
681.812	586
682.236	575.6
682.637	575.2
683.061	580.4
683.462	590.4
683.864	594.6
684.288	593.8
684.69	582.2
685.114	592.6
685.516	597
685.94	584.6
686.342	597.6
686.766	586.2
687.168	588
687.571	605.8
687.995	585
688.398	582.2
688.822	592.2
689.225	605
689.628	600
690.052	587.2
690.456	594.4
690.88	587.8
691.284	581.6
691.687	592
692.112	571.4
692.515	579.2
692.919	586.2
693.344	593.8
693.747	588
694.173	583.4
694.577	604.8
694.98	584.4
695.406	585.8
695.81	588.6
696.214	583.6
696.64	593.8
697.044	588
697.448	601
697.874	589.4
698.279	592.8
698.684	578.4
699.11	578.8
699.514	581.8
699.919	581.8
700.324	575
700.75	595.8
701.156	593.2
701.561	597.8
701.987	590.6
702.393	601.4
702.798	596.2
703.203	580.6
703.63	582.6
704.036	593
704.442	588.2
704.847	578.6
705.274	579.2
705.68	591
706.086	597.6
706.492	574.2
706.92	579.8
707.326	589.4
707.732	578.4
708.139	579
708.545	572.8
708.973	582.4
709.38	583.4
709.786	578.2
710.193	595.4
710.6	586.6
711.028	580.8
711.435	584.2
711.842	585
712.249	583.4
712.656	589.8
713.064	592.6
713.492	583
713.9	585
714.307	590.4
714.715	592.2
715.123	595.4
715.53	586.4
715.938	599.2
716.367	594.4
716.775	578.6
717.184	581.6
717.592	590.6
718	593.2
718.408	616.6
718.816	628.4
719.225	591
719.633	588.4
720.042	582.8
720.472	588.6
720.881	602.4
721.29	595
721.699	578.6
722.108	589.8
722.517	588.6
722.926	589.4
723.335	601.4
723.744	584.6
724.154	590.2
724.563	588.8
724.973	586.6
725.382	591
725.792	587
726.202	583.2
726.612	605.4
727.022	585.6
727.432	584.6
779.813	586.2
780.223	628.6
780.634	584
781.044	568.6
781.454	584.4
781.865	593.6
782.276	572.8
782.686	592.8
783.097	584.2
783.508	581.4
783.919	584
784.33	591.2
784.741	593.4
785.152	581
785.563	576.8
785.974	576.2
786.386	597.8
786.776	579
787.188	583.4
787.599	572.6
788.011	594.8
788.423	589
788.835	582.4
789.247	577.2
789.659	581.6
790.071	583.6
790.483	616.6
790.874	574.6
791.286	590.2
791.699	580
792.111	587.6
792.524	586.8
792.937	585.6
793.349	584.8
793.741	581.2
794.154	578.6
794.567	605.4
794.98	581.2
795.393	573.6
795.785	603.4
796.198	574.8
796.612	576.4
797.026	581.8
797.439	576.4
797.831	582.8
798.245	571.4
798.659	584
799.073	584.4
799.487	583
799.88	589.8
800.294	580.2
800.708	584.4
801.123	584.4
801.516	598
801.93	580
802.345	567.6
802.76	579.8
803.153	606.2
803.568	592.2
803.983	592
804.377	578.8
804.792	572
805.207	578.8
805.601	584.4
806.016	611.4
806.432	577.6
806.826	610
807.242	587.6
807.658	589.2
808.052	576.8
808.468	576.4
808.884	569.6
809.279	585.4
809.695	592.6
810.111	606.2
810.506	585.4
810.922	599.8
811.339	575.6
811.734	590.8
812.151	582
812.546	583.8
812.963	577
813.38	579.8
813.776	583.6
814.193	606.2
814.589	584.8
815.006	578.4
815.402	566
815.82	570.8
816.237	589.6
816.633	578.8
817.051	574.8
817.448	585.4
817.866	576.6
818.262	603
818.68	586.4
819.077	571.8
819.495	584.4
819.892	620.2
820.311	571.8
820.708	581.8
821.127	578.4
821.524	592.4
821.943	579.2
822.34	603.6
822.759	595.2
823.157	577.8
823.576	605
823.974	591
824.393	633.4
824.791	576.6
825.189	571
825.609	573.2
826.007	575.8
826.427	572.6
826.826	580
827.246	584
827.644	572.6
828.043	591
828.463	572.8
828.862	584.8
829.261	587.2
829.682	562.6
830.081	585.2
830.502	580
830.901	589.2
831.301	600.4
831.722	573.6
832.121	582.2
832.521	576
832.943	581.2
833.342	578.2
833.742	577.8
834.164	580.8
834.564	573.6
834.965	584.2
835.386	577.4
835.787	570.4
836.188	587.6
836.588	578.4
837.01	579.4
837.411	570.4
837.812	585
838.213	580.8
838.636	569
839.037	651
839.438	587.6
839.84	590
840.263	590.6
840.664	583.8
841.066	573.6
841.468	586.2
841.891	571.6
842.293	592.8
842.695	589.8
843.098	589
843.5	572.4
843.902	576
844.326	594
844.729	586
845.131	589.2
845.534	582.2
845.937	596.8
846.34	595.4
846.764	581.2
847.167	581.4
847.571	576
847.974	594.8
848.377	581.8
848.781	638.2
849.184	590.6
849.588	574
849.992	576.2
850.396	578.4
850.821	603.2
851.225	585
851.63	583
852.034	595.8
852.438	581.2
852.843	610.8
853.247	581.8
853.652	571.2
854.057	596
854.462	581.8
854.867	588.8
855.272	612.4
855.677	590
856.082	578.8
856.487	572.6
856.893	589.4
857.298	580
