#lambda/nm	C1
208.295	510
208.67	462.8
209.045	428.6
209.419	434.8
209.794	610.8
210.169	591
210.544	716
210.919	613.8
211.295	610
211.67	614.8
212.045	616.8
212.421	609.6
212.796	654.8
213.172	606.2
213.547	609.4
213.923	614.2
214.299	608.2
214.675	619.2
215.051	609.2
215.427	623.2
215.803	634.4
216.179	623.2
216.555	615
216.932	619.6
217.308	621.4
217.684	616.6
218.061	617.6
218.438	622.4
218.814	614.4
219.191	617.6
219.568	606.2
219.945	615.4
220.322	626.6
220.699	613
221.076	630.8
221.453	617.6
221.83	614.6
222.208	606.8
222.585	610
222.962	613.4
223.34	616.8
223.717	611.8
224.095	610.2
224.473	618.4
224.851	619.8
225.229	612
225.607	625.6
225.985	603.6
226.363	620
226.741	615.4
227.119	607.2
227.497	624.8
227.876	601.2
228.254	621.2
228.633	621.6
229.011	618.4
229.39	611.4
229.769	608
230.148	618
230.527	629.2
230.905	621.2
231.284	620.4
231.664	608
232.043	629.8
232.422	621.4
232.801	599.6
233.181	626
233.56	611
233.94	618.2
234.319	598.8
234.699	615
235.079	655.6
235.458	638.6
235.838	626.6
236.218	610.6
236.598	607.8
236.978	606
237.358	614
237.738	610.4
238.119	616.2
238.499	607.4
238.88	621.6
239.26	633.4
239.641	609.2
240.021	620.8
240.402	614
240.783	619.2
241.163	609.2
241.544	613.8
241.925	618.2
242.306	635.4
242.687	624.4
243.069	629
243.45	622.2
243.831	611.2
244.212	608
244.594	656
244.975	625.4
245.357	628.6
245.739	611.6
246.12	615.4
246.502	628.6
246.884	615.6
247.266	610.8
247.648	620.8
248.03	633.8
248.412	625
248.794	621
249.176	618
249.559	628.8
249.941	614
250.323	612.6
250.706	600.6
251.089	615.4
251.471	625
251.854	617.4
252.237	616.4
252.62	618.4
253.002	613.2
253.385	623.8
253.769	632
254.152	624.8
254.535	622.2
254.918	606.4
255.301	608.8
255.685	615.6
256.068	601
256.452	634.8
256.835	618.6
257.219	627.8
257.603	624.2
257.986	603.2
258.37	620.4
258.754	599
259.138	627
259.522	624.8
259.906	603.8
260.29	623.2
260.675	614
261.059	617.8
261.443	605.2
261.828	621.8
262.212	619.8
262.597	602
262.981	605
263.366	613.8
263.751	612
264.136	609.8
264.521	607.8
264.906	592.8
265.291	616.6
265.676	608.6
266.061	618.6
266.446	626.6
266.831	611.4
267.217	628
267.602	614
267.987	613
268.373	612.2
268.759	618
269.144	620.6
269.53	618
269.916	611.6
270.302	608.2
270.688	616.2
271.074	622
271.46	623.8
271.846	651.4
272.232	619.8
272.618	611.6
273.004	614.6
273.391	628.8
273.777	624.6
274.164	619.2
274.55	625.6
274.937	626.8
275.324	615.8
275.71	626.6
276.097	615.2
276.484	602.6
276.871	613.8
277.258	624.6
277.645	604.6
278.032	613.6
278.419	607.2
278.807	625.6
279.194	611.4
279.581	606.4
279.969	619.4
280.356	611
280.744	611
281.131	648.6
281.519	625.8
281.907	623.4
282.295	613.2
282.682	629.2
283.07	622.6
283.458	621.6
283.846	622.6
284.235	627.4
284.623	625.2
285.011	605.8
285.399	620.2
285.788	618.2
286.176	606.6
286.565	630.6
286.953	612.2
287.342	609.8
287.731	608.8
288.119	607.2
288.508	615.8
288.897	611.4
289.286	598.8
289.675	625.4
290.064	623
290.453	614.2
290.821	618.2
291.21	627.6
291.599	614
291.989	625.6
292.378	625.4
292.768	635.2
293.157	626.2
293.547	628.6
293.936	615.6
294.326	610.2
294.716	619.2
295.106	616.6
295.496	615.4
295.886	617.8
296.276	610.6
296.666	610.6
297.056	606
297.446	603.6
297.836	627
298.227	620.8
298.617	616.6
299.008	634.2
299.398	612.2
299.789	614
300.179	623.2
300.57	629.2
300.961	609.8
301.352	610
301.742	630.8
302.133	620.2
302.524	616.6
302.915	623
303.307	610.2
303.698	631.4
304.089	628.2
304.48	619.2
304.872	622
305.263	628.6
305.655	613.8
306.046	628.6
306.438	624
306.829	608.6
307.221	637
307.613	623.8
308.005	628.4
308.397	629.6
308.789	639
309.181	648.4
309.573	639.2
309.965	632.4
310.357	618.2
310.749	635.6
311.142	610
311.534	619.6
311.926	633.8
312.319	618
312.711	608.4
313.104	636
313.497	621.4
313.889	657.8
314.282	640.8
314.675	642.2
315.068	619.2
315.461	624.8
315.854	644
316.247	630.6
316.64	616
317.033	620.6
317.405	628.4
317.798	617
318.192	622.4
318.585	610.2
318.979	628.2
319.372	612.6
319.766	617.4
320.16	627
320.553	632.4
320.947	635.6
321.341	618.2
321.735	615.8
322.129	603.6
322.523	647.8
322.917	610.2
323.311	630.6
323.705	629
324.099	624.2
324.494	634.4
324.888	625
325.282	612
325.677	622
326.071	625
326.466	624.8
326.861	626.2
327.255	625.8
327.65	636.4
328.045	635
328.44	614.2
328.835	618.8
329.23	611
329.625	636.8
330.02	610.4
330.415	638.8
330.81	615.8
331.206	623.2
331.601	613.8
331.996	625.8
332.37	644.2
332.766	612.6
333.161	640.2
333.557	619.8
333.953	622.8
334.348	908.2
334.744	620
335.14	615.8
335.536	619.2
335.932	628.4
336.328	622.8
336.724	637.8
337.12	617.4
337.516	624.8
337.913	610.6
338.309	631
338.705	622.4
339.102	627
339.498	620.2
339.895	637.4
340.291	621
340.688	615.4
341.085	608.6
341.481	614.2
341.878	615.6
342.275	635.6
342.672	612.4
343.069	619
343.466	603.4
343.842	625.4
344.239	610.4
344.636	619.8
345.033	611.8
345.431	608.8
345.828	615.4
346.225	607.4
346.623	652.4
347.02	618.4
347.418	623.2
347.816	630.4
348.213	617.2
348.611	623.6
349.009	602
349.407	618.2
349.805	603.4
350.203	600.8
350.601	627.2
350.999	606.2
351.397	690.4
351.795	617
352.193	630.2
352.57	623
352.969	628
353.367	605.8
353.766	607.6
354.164	607.6
354.563	633
354.961	616
355.36	607
355.759	614
356.158	605.8
356.557	606.6
356.956	611.8
357.355	607.4
357.754	613.6
358.153	625.2
358.552	634.2
358.951	600.6
359.35	618.8
359.75	612.4
360.149	595.6
360.527	599.4
360.926	602.2
361.326	608.4
361.726	614.2
362.125	600.4
362.525	606
362.925	601.8
363.325	603.2
363.724	608.2
364.124	598.6
364.524	606.2
364.924	605
365.324	618.4
365.725	592.4
366.125	612.8
366.525	607.8
366.904	598.8
367.304	591.6
367.705	625.2
368.105	626.2
368.506	606.2
368.906	613.2
369.307	612.2
369.708	613
370.108	596.2
370.509	621.6
370.91	607.2
371.311	601.8
371.712	609.4
372.113	612.2
372.514	597.8
372.894	604.4
373.295	607.2
373.696	623.4
374.097	610.8
374.499	636
374.9	607.6
375.301	605.6
375.703	614.8
376.105	603
376.506	612.6
376.908	613
377.309	605.6
377.711	610
378.113	605.4
378.493	611.4
378.895	598.6
379.297	613.2
379.699	603.6
380.102	609.6
380.504	612.4
380.906	606.2
381.308	634.4
381.71	604.2
382.113	615.2
382.515	613
382.918	618.4
383.299	617
383.701	616.2
384.104	608.2
384.507	591.4
384.909	609.4
385.312	598.4
385.715	595.6
386.118	607.8
386.521	601.4
386.924	622.4
387.327	607.6
387.709	593.2
388.112	590.6
388.515	609.4
388.918	609
389.322	616.4
389.725	610.8
390.129	636.4
390.532	616.2
390.936	612.2
391.339	596
391.743	609.4
392.125	607.6
392.529	609.6
392.933	625.8
393.337	616.6
393.74	614
394.144	606.6
394.548	590.8
394.953	609.4
395.357	610.2
395.761	602.6
396.144	602
396.548	607.4
396.952	605
397.357	603.6
397.761	604
398.166	596.4
398.57	606.2
398.975	598.2
399.379	605.8
399.763	666.4
400.168	609.4
400.572	603
400.977	603.2
401.382	625.8
401.787	619
402.192	616.8
402.597	623.2
403.002	595.2
403.386	629
403.791	620.8
404.197	611.4
404.602	609.4
405.007	606.6
405.413	594.4
405.818	604.4
406.224	605.4
406.608	605.6
407.014	602
407.42	623.8
407.825	603
408.231	618.6
408.637	614.8
409.043	629.8
409.449	610.2
409.834	602.4
410.24	606.2
410.646	626
411.052	625
411.458	610.4
411.865	619
412.271	619.2
412.677	613.4
413.062	621.2
413.469	607
413.875	636
414.282	618.6
414.689	606.2
415.095	615.4
415.502	604.6
415.888	610.6
416.294	595.8
416.701	651.6
417.108	600.6
417.515	617
417.923	608
418.33	625.2
418.715	621.4
419.123	617
419.53	604
419.937	612.8
420.345	625
420.752	596.8
421.16	632
421.546	610.8
421.953	612.8
422.361	606.4
422.769	609.6
423.177	601
423.585	623.4
423.992	628.2
424.379	619.6
424.787	613
425.195	639.8
425.603	604.8
426.011	626.2
426.419	629
426.806	613.4
427.214	614.6
427.623	625.4
428.031	626.2
428.44	614.2
428.848	618.4
429.235	627.6
429.644	620.4
430.053	618.6
430.461	624
430.87	642.2
431.279	623.2
431.666	612.6
432.075	624.6
432.484	624
432.893	615
433.302	636.4
433.711	667.4
434.099	633.2
434.508	624.4
434.918	620.8
435.327	634.4
435.737	634.2
436.125	641.8
436.534	648.6
436.944	647.6
437.353	648
437.763	669.2
438.173	635.4
438.561	669.6
438.971	654.8
439.381	676.6
439.791	676
440.201	659.8
440.589	690
440.999	703.2
441.409	700.6
441.819	679.2
442.23	707.6
442.619	708.8
443.029	703
443.439	712.6
443.85	730.4
444.26	725.6
444.649	717.2
445.06	714.4
445.471	715.6
445.881	731.8
446.292	738.2
446.682	754.2
447.092	727
447.503	789
447.914	736.4
448.325	735
448.715	743.2
449.126	745.4
449.537	747.2
449.948	748.4
450.338	750
450.75	767.4
451.161	761.6
451.572	770.4
451.984	752.8
452.374	745
452.786	756
453.197	770.6
453.609	768
453.999	758.6
454.411	758.6
454.823	772.8
455.235	764.2
455.647	752
456.037	760.8
456.449	743.2
456.862	760.6
457.274	768.8
457.665	747.8
458.077	767.2
458.489	797
458.902	768
459.293	762.6
459.705	765.6
460.118	771.2
460.53	772.4
460.921	765.8
461.334	764.4
461.747	767.6
462.16	782.8
462.551	786.2
462.964	781
463.377	763
463.79	775.6
464.182	794.6
464.595	769.4
465.008	795.4
465.421	793.4
465.813	780
466.226	795.4
466.64	772
467.053	827.4
467.445	791
467.859	811.4
468.272	798.6
468.686	810.4
469.078	787.2
469.492	776.2
469.906	796
470.298	789.4
470.712	787.6
471.126	842.4
471.54	776.4
471.933	775.2
472.347	788.2
472.761	786.2
473.175	780.8
473.568	778
473.982	767.6
474.397	787.2
474.79	789.8
475.204	788.4
475.619	780.2
476.033	793.2
476.426	784.6
476.841	777.2
477.256	812.8
477.649	782.2
478.064	774
478.479	780.6
478.872	781.6
479.287	764.2
479.702	784.4
480.118	779.6
480.511	781.2
480.927	776.8
481.342	773.2
481.736	787.6
482.151	764.8
482.566	783.2
482.96	780
483.376	794.2
483.792	770.6
484.186	784.8
484.602	771.6
485.017	777.6
485.412	770.8
485.827	778.8
486.243	763.2
486.638	795.2
487.054	779.6
487.47	785.6
487.865	769.6
488.281	765.6
488.697	757.8
489.092	761.4
489.508	760
489.925	774.2
490.32	752.8
490.736	764.2
491.153	764.6
491.548	760.2
491.964	767
492.381	749.2
492.776	756.4
493.193	763.4
493.61	763.4
494.006	762.2
494.422	758.8
494.84	747.8
495.235	755.2
495.652	747.2
496.069	751.6
496.465	741.8
496.883	745.4
497.3	774.4
497.696	738
498.113	755.8
498.509	724.8
498.927	730
499.344	742
499.741	732
500.158	750.2
500.576	753.4
500.973	747.2
501.39	732.2
501.787	731
502.205	743.4
502.623	716.8
503.02	716.6
503.438	720.8
503.856	729
504.253	728.4
504.671	725.8
505.068	725.4
505.486	713.8
505.905	743.6
506.302	727.2
506.72	737
507.118	716.4
507.536	725.2
507.955	715.4
508.352	717.4
508.771	720
509.169	728.4
509.587	717
510.006	720.6
510.404	698.2
510.823	703.4
511.221	707
511.64	707.8
512.038	720.4
512.457	713.4
512.877	711.2
513.275	703.2
513.694	700.6
514.092	695.4
514.512	697.4
514.91	709.2
515.33	705.4
515.749	692
516.148	700.2
516.568	705
516.966	696
517.386	686.2
517.785	701.8
518.205	684.2
518.603	687.6
519.024	681.6
519.444	689.4
519.843	691.4
520.263	692.2
520.662	689.2
521.082	681
521.481	685
521.902	682
522.301	679.6
522.722	677.2
523.121	686
523.542	680.6
523.963	685
524.362	678.4
524.783	674
525.183	672.8
525.604	675
526.003	681.6
526.425	670.8
526.824	681.2
527.246	683
527.646	690.6
528.067	684.6
528.467	671.2
528.888	678
529.289	671.2
529.71	665.4
530.11	665.6
530.532	665
530.932	658
531.354	652.4
531.755	696.2
532.176	669.2
532.577	654
532.999	658.6
533.4	657.8
533.822	679.8
534.223	671.4
534.645	658.2
535.046	654.4
535.468	662
535.869	665
536.292	655.4
536.693	682.2
537.115	667.6
537.516	662.4
537.939	655
538.34	675.6
538.742	664.4
539.165	654.8
539.566	650.2
539.989	646.4
540.391	657.4
540.814	649
541.216	652.6
541.639	656.4
542.041	660.2
542.464	639.6
542.866	643.8
543.268	630.4
543.691	660.4
544.093	665.2
544.517	661.4
544.919	639.2
545.343	668.6
545.745	635.6
546.147	648.4
546.571	641.2
546.974	633.4
547.398	650
547.8	656.2
548.224	641.2
548.627	638
549.03	646.2
549.454	641.2
549.857	632.6
550.281	626.2
550.684	639.2
551.087	652.4
551.512	643.2
551.915	645.6
552.34	628.2
552.743	628
553.146	629.6
553.571	629.6
553.975	639.8
554.399	625.8
554.803	675.2
555.207	624
555.632	623.8
556.036	636.8
556.461	625
556.865	629.6
557.268	631
557.694	625.4
558.098	631
558.502	636.2
558.927	612.6
559.332	633.2
559.736	624.2
560.162	630.2
560.566	629.6
560.992	634.6
561.396	630.2
561.801	628.8
562.227	626.4
562.631	622
563.036	630.4
563.462	627.6
563.867	621.2
564.272	616.8
564.698	632.8
565.103	618.2
565.508	650.4
565.935	635
566.34	624
566.745	639.4
567.172	626.8
567.577	649.6
567.982	626.2
568.409	627.8
568.815	609.8
569.22	624.6
569.626	628.4
570.053	601
570.459	628.2
570.865	621.4
571.292	621
571.698	627.4
572.104	613.2
572.531	611.2
572.937	620.2
573.343	608.8
573.75	619.2
574.177	617.8
574.583	625.6
574.99	618
575.396	622
575.824	617
576.231	628.6
576.637	612.4
577.065	644.2
577.472	613.6
577.879	613.4
578.286	626.4
578.714	607.4
579.121	611.2
579.528	612.4
579.935	622.8
580.364	611.8
580.771	604
581.178	602.4
581.585	616.8
582.014	621.2
582.421	609.2
582.829	610
583.236	627.6
583.644	603
584.073	607.8
584.481	612.6
584.889	599
585.296	620.6
585.726	618
586.134	603.8
586.542	608
586.95	623.8
587.358	598.8
587.787	608.2
588.196	615.2
588.604	601.2
589.012	615.4
589.421	602.6
589.851	595.8
590.259	609
590.668	600
591.076	636.6
591.485	596
591.894	609.2
592.324	624.2
592.733	617.8
593.142	601.2
593.551	606.4
593.96	613.8
594.369	599.6
594.8	602.4
595.209	601.4
595.618	588.8
596.028	593.4
596.437	595.8
596.847	603.6
597.256	611
597.687	610.6
598.097	609.4
598.507	594.6
598.917	603.6
599.327	606
599.736	603
600.146	611.2
600.556	599.2
600.988	619.4
601.398	600
601.808	619
602.219	597.4
602.629	604.4
603.039	606.8
603.45	630.6
603.86	609.2
604.271	611.6
604.703	602.6
605.114	610.8
605.525	601.6
605.935	605
606.346	623.6
606.757	608.8
607.168	606
607.579	595.4
607.99	609.2
608.402	610.2
608.813	606.6
609.224	599.4
609.636	591.4
610.047	599
610.48	599.4
610.892	607
611.303	606.6
611.715	599
612.127	589.6
612.539	595.4
612.95	602.8
613.362	596
613.774	597.6
614.186	588.4
614.599	594.2
615.011	604.6
615.423	602.8
615.835	589
616.248	584.2
616.66	605.4
617.073	584
617.485	600
617.898	606.4
618.311	592.4
618.723	600
619.136	619.4
619.549	609
619.962	614.6
620.375	590.6
620.788	599
621.201	594.6
621.614	606
622.028	596.4
622.441	602.2
622.854	612.4
623.268	593.8
623.681	604.2
624.095	596.8
624.509	609
624.922	599.4
625.336	595.2
625.728	589.4
626.142	604.8
626.556	605.4
626.97	599.8
627.384	601.6
627.799	597.8
628.213	598.8
628.627	593.8
629.041	593.6
629.456	591
629.87	608.4
630.285	606.4
630.699	610
631.093	601.6
631.507	592.4
631.922	595.4
632.337	609.6
632.752	592.8
633.167	595
633.582	588.8
633.997	594.2
634.412	591.4
634.806	597.4
635.221	590.2
635.637	610.2
636.052	580.4
636.468	593.8
636.883	615.6
637.299	588.6
637.715	575.8
638.109	599.2
638.525	575.2
638.941	610.8
639.357	601
639.773	607.6
640.189	592.4
640.584	589.6
641	599.2
641.416	589.6
641.832	593
642.249	592
642.665	596.4
643.06	605.4
643.477	607.4
643.894	581.8
644.31	594.4
644.727	594
645.123	595.6
645.54	594
645.957	597.4
646.374	605.4
646.77	585.2
647.187	621.6
647.604	589.4
648.021	582.2
648.439	586.8
648.835	592.6
649.252	590
649.67	589
650.088	591.2
650.484	594.4
650.902	590
651.32	601.6
651.738	585.4
652.134	596.4
652.552	604.6
652.971	594.4
653.389	590
653.786	603.4
654.204	599.2
654.622	576.8
655.019	598.6
655.438	596.6
655.857	588.8
656.275	594.6
656.673	578.4
657.091	605.6
657.51	586.6
657.908	600
658.327	606.6
658.746	573.6
659.144	597
659.563	615
659.982	600.8
660.38	588.2
660.8	593.4
661.219	599.4
661.617	605.2
662.037	590.8
662.457	612.4
662.855	582
663.275	629.8
663.695	593
664.094	591
664.514	597.6
664.934	584.6
665.333	595.2
665.753	585.4
666.152	576.2
666.572	583.4
666.993	596.2
667.392	586.4
667.812	582.8
668.212	587.2
668.632	600.2
669.053	583.4
669.453	589.2
669.874	590.2
670.273	597.8
670.694	569.2
671.116	601
671.515	591.4
671.937	589.4
672.337	581.2
672.758	588.8
673.158	596.2
673.58	585.8
673.98	590.4
674.402	599.6
674.824	583.2
675.224	582.2
675.646	583.2
676.047	588.4
676.469	592.2
676.869	590.4
677.292	602.8
677.693	592.4
678.115	582.6
678.516	596.4
678.939	591.2
679.34	587.8
679.762	598.4
680.164	597
680.586	576.6
680.988	595.6
681.411	609.8
681.812	586.2
682.236	584.8
682.637	580.4
683.061	582.6
683.462	594.2
683.864	582
684.288	597.6
684.69	580.8
685.114	598
685.516	594.6
685.94	573
686.342	598.4
686.766	583.4
687.168	595.2
687.571	599.2
687.995	596.2
688.398	582.6
688.822	580.6
689.225	605
689.628	604.8
690.052	587.8
690.456	590
690.88	587.8
691.284	584.8
691.687	597.6
692.112	585
692.515	581.4
692.919	593.8
693.344	592
693.747	585.4
694.173	578.8
694.577	598.8
694.98	585.4
695.406	583.4
695.81	590.8
696.214	595.8
696.64	596.6
697.044	598.4
697.448	594.8
697.874	579.4
698.279	589.2
698.684	583.4
699.11	585
699.514	583
699.919	588.2
700.324	589.2
700.75	589.2
701.156	588.6
701.561	602.4
701.987	590.8
702.393	596.8
702.798	594
703.203	584
703.63	588.8
704.036	583
704.442	590
704.847	579.8
705.274	583.4
705.68	595
706.086	596.6
706.492	577.8
706.92	590.4
707.326	609.4
707.732	587.8
708.139	574.4
708.545	576.2
708.973	585.8
709.38	586.2
709.786	577.2
710.193	603.6
710.6	589.2
711.028	576.6
711.435	578.2
711.842	587.4
712.249	580.2
712.656	581
713.064	596
713.492	572.2
713.9	581.6
714.307	592.2
714.715	587.4
715.123	588.4
715.53	585
715.938	595.6
716.367	591
716.775	588.4
717.184	580.8
717.592	595.6
718	590.2
718.408	624.2
718.816	634
719.225	588.4
719.633	589.4
720.042	576.8
720.472	579.8
720.881	608.2
721.29	590
721.699	581.2
722.108	595.2
722.517	580.8
722.926	581.2
723.335	600.8
723.744	588.6
724.154	591.6
724.563	588.2
724.973	598.4
725.382	590
725.792	583.4
726.202	576.2
726.612	605.8
727.022	589.2
727.432	588.2
779.813	587.6
780.223	623
780.634	580.2
781.044	580.6
781.454	585.4
781.865	602.6
782.276	574.4
782.686	603.6
783.097	585
783.508	589.8
783.919	586
784.33	599.2
784.741	593.2
785.152	585.2
785.563	578
785.974	580.2
786.386	597.2
786.776	584.4
787.188	581.4
787.599	582
788.011	594.4
788.423	597.4
788.835	582.8
789.247	580.2
789.659	575.4
790.071	582
790.483	623.2
790.874	584.6
791.286	587.4
791.699	576.4
792.111	584.2
792.524	592.6
792.937	584.8
793.349	577.2
793.741	578.6
794.154	579.8
794.567	594.2
794.98	579.2
795.393	576
795.785	602.2
796.198	575.2
796.612	581.8
797.026	572.2
797.439	566.2
797.831	583.4
798.245	569.4
798.659	580.8
799.073	577.8
799.487	573.2
799.88	587.2
800.294	579.8
800.708	591.4
801.123	595.8
801.516	609.8
801.93	575.4
802.345	567
802.76	587.6
803.153	596.2
803.568	588.8
803.983	596.6
804.377	584
804.792	575.2
805.207	568.2
805.601	589.4
806.016	618.4
806.432	581.2
806.826	611.4
807.242	591.4
807.658	585
808.052	585.4
808.468	581.2
808.884	581.6
809.279	587.8
809.695	598.2
810.111	605.6
810.506	590.8
810.922	604.6
811.339	584.4
811.734	582.8
812.151	583.2
812.546	578.6
812.963	581.2
813.38	589.2
813.776	576.6
814.193	595.8
814.589	580.4
815.006	582
815.402	567.4
815.82	575.4
816.237	576
816.633	582.2
817.051	576.4
817.448	589.4
817.866	573
818.262	595
818.68	573.8
819.077	579.2
819.495	585.6
819.892	618
820.311	580.2
820.708	585
821.127	575.6
821.524	596.2
821.943	589.2
822.34	599.8
822.759	578.8
823.157	580.8
823.576	600.6
823.974	592.8
824.393	600.6
824.791	583.6
825.189	574.6
825.609	577
826.007	582.4
826.427	569.6
826.826	582.8
827.246	587.4
827.644	573.2
828.043	593.4
828.463	579.4
828.862	590.8
829.261	584
829.682	578.4
830.081	596.6
830.502	576
830.901	585.2
831.301	589.6
831.722	572.8
832.121	580.4
832.521	575.6
832.943	586.6
833.342	585
833.742	575.6
834.164	584
834.564	568
834.965	585.8
835.386	581.4
835.787	578.2
836.188	578
836.588	582.2
837.01	580.6
837.411	575.4
837.812	585.2
838.213	588
838.636	580
839.037	648
839.438	582.6
839.84	584
840.263	583.4
840.664	580.2
841.066	584.2
841.468	585
841.891	574.4
842.293	594
842.695	590
843.098	596.4
843.5	582.2
843.902	583.6
844.326	591.8
844.729	588.4
845.131	582.6
845.534	579.8
845.937	595.4
846.34	593.6
846.764	581.4
847.167	591.4
847.571	572.2
847.974	581.4
848.377	575
848.781	626.4
849.184	587.8
849.588	576.4
849.992	580
850.396	580.4
850.821	605.6
851.225	586.8
851.63	576.6
852.034	589.2
852.438	575.8
852.843	662.6
853.247	581
853.652	572.2
854.057	595.4
854.462	591.2
854.867	585.8
855.272	609.2
855.677	586
856.082	573.4
