#lambda/nm	C1
208.295	507.4
208.67	460.8
209.045	430.4
209.419	433.4
209.794	616.6
210.169	601.6
210.544	713.6
210.919	618
211.295	602.2
211.67	612.8
212.045	605
212.421	614.4
212.796	644.4
213.172	609.8
213.547	619.4
213.923	613.2
214.299	609
214.675	616.2
215.051	620.6
215.427	621.2
215.803	637.2
216.179	620
216.555	607.8
216.932	620.4
217.308	621.4
217.684	616.2
218.061	622.4
218.438	612.4
218.814	609
219.191	627.8
219.568	610.6
219.945	615.2
220.322	623
220.699	612.6
221.076	624.2
221.453	621.4
221.83	611.2
222.208	617.2
222.585	616.4
222.962	613.4
223.34	626.8
223.717	617
224.095	605.8
224.473	605.2
224.851	612.8
225.229	609.2
225.607	641.4
225.985	606.6
226.363	619.8
226.741	628.6
227.119	612.6
227.497	631
227.876	614.4
228.254	613.4
228.633	617.4
229.011	617.4
229.39	619.4
229.769	616
230.148	616.6
230.527	636.4
230.905	622.8
231.284	625.8
231.664	603.8
232.043	637
232.422	617.6
232.801	612.2
233.181	628.4
233.56	614.4
233.94	623.4
234.319	603.6
234.699	621.6
235.079	654
235.458	658.6
235.838	634
236.218	606.4
236.598	597.2
236.978	613.4
237.358	615.4
237.738	613.6
238.119	628.4
238.499	603.8
238.88	613.2
239.26	627.6
239.641	602
240.021	615.2
240.402	616.6
240.783	614.2
241.163	610
241.544	624.2
241.925	616.4
242.306	633.8
242.687	618
243.069	623.6
243.45	625.4
243.831	611.8
244.212	615
244.594	658.6
244.975	629.6
245.357	615
245.739	609.2
246.12	616.4
246.502	631.8
246.884	609
247.266	618
247.648	612.4
248.03	640.8
248.412	620.8
248.794	615
249.176	606.2
249.559	622.2
249.941	602.6
250.323	592.4
250.706	606.4
251.089	611.4
251.471	607.8
251.854	607.4
252.237	610.6
252.62	618.6
253.002	618.4
253.385	613.2
253.769	636.6
254.152	611
254.535	616.4
254.918	602
255.301	613.4
255.685	613.8
256.068	602.4
256.452	636.6
256.835	624.6
257.219	620
257.603	624.4
257.986	605
258.37	622.8
258.754	601.4
259.138	618.8
259.522	632.6
259.906	607.6
260.29	622.6
260.675	612.6
261.059	609.2
261.443	606.8
261.828	617.2
262.212	611.2
262.597	609.4
262.981	607.4
263.366	616
263.751	614.2
264.136	609.8
264.521	603.4
264.906	608.2
265.291	624.6
265.676	607.2
266.061	625.4
266.446	635.6
266.831	619
267.217	633.8
267.602	616.2
267.987	611.6
268.373	611.2
268.759	627.8
269.144	625
269.53	613.8
269.916	616.4
270.302	613.8
270.688	624
271.074	620.4
271.46	626.4
271.846	645.8
272.232	620.2
272.618	607.4
273.004	607.6
273.391	626.2
273.777	632.2
274.164	611.4
274.55	625.2
274.937	624.6
275.324	613.2
275.71	624.8
276.097	620
276.484	609.4
276.871	618.2
277.258	623.6
277.645	610.8
278.032	616
278.419	618.2
278.807	621.4
279.194	613.2
279.581	611.4
279.969	625.8
280.356	617.6
280.744	619.4
281.131	644
281.519	628.8
281.907	624.4
282.295	606.4
282.682	627.2
283.07	625.6
283.458	626.4
283.846	635.4
284.235	642.6
284.623	623
285.011	608.4
285.399	619.2
285.788	623.6
286.176	607.6
286.565	629
286.953	616.6
287.342	611
287.731	601.8
288.119	608.6
288.508	614.8
288.897	619.4
289.286	604.4
289.675	620.8
290.064	631.6
290.453	614.4
290.821	621
291.21	634.6
291.599	607.2
291.989	616
292.378	615.2
292.768	646.2
293.157	624.8
293.547	625.4
293.936	616.8
294.326	609.2
294.716	615.6
295.106	612.2
295.496	628.8
295.886	623.6
296.276	622
296.666	607.4
297.056	616
297.446	601.8
297.836	626.4
298.227	614
298.617	615.4
299.008	632.6
299.398	619.6
299.789	610
300.179	620.6
300.57	635
300.961	624.8
301.352	615.6
301.742	625.8
302.133	619
302.524	620.6
302.915	619.6
303.307	605.2
303.698	630.4
304.089	624.4
304.48	626.8
304.872	626.6
305.263	617.6
305.655	610.6
306.046	623.8
306.438	621.4
306.829	609.8
307.221	625.6
307.613	622.4
308.005	627.8
308.397	627
308.789	641.8
309.181	632.6
309.573	625.2
309.965	625.2
310.357	611.2
310.749	626.6
311.142	605.4
311.534	610.2
311.926	628.8
312.319	616.4
312.711	610.4
313.104	624.4
313.497	611.4
313.889	654.6
314.282	634.4
314.675	649.4
315.068	618
315.461	631.8
315.854	649.6
316.247	621
316.64	623.8
317.033	617.2
317.405	625.6
317.798	622
318.192	617
318.585	612.8
318.979	630.2
319.372	607.4
319.766	616.6
320.16	635.8
320.553	635.4
320.947	643
321.341	613.2
321.735	623.2
322.129	605.2
322.523	645.6
322.917	606.4
323.311	628.2
323.705	621.8
324.099	620.8
324.494	630.8
324.888	630.4
325.282	615.2
325.677	631.6
326.071	633.2
326.466	633.8
326.861	624
327.255	635
327.65	639.2
328.045	635.2
328.44	619.8
328.835	622.8
329.23	610.4
329.625	641.6
330.02	608.6
330.415	640.2
330.81	615.6
331.206	625
331.601	617
331.996	621.8
332.37	637.2
332.766	614.6
333.161	642.2
333.557	613.8
333.953	612
334.348	990.8
334.744	614.2
335.14	613
335.536	623.4
335.932	624.4
336.328	621.2
336.724	637.8
337.12	625
337.516	628.4
337.913	625.6
338.309	632.4
338.705	625
339.102	627.2
339.498	611.2
339.895	625.8
340.291	608.8
340.688	622.4
341.085	607.6
341.481	624
341.878	613.8
342.275	638
342.672	615.6
343.069	612.6
343.466	602.4
343.842	628
344.239	617.2
344.636	617.6
345.033	612.6
345.431	605
345.828	615
346.225	596.4
346.623	644.8
347.02	612
347.418	617.8
347.816	628.8
348.213	605.2
348.611	611
349.009	610.2
349.407	617.6
349.805	605.6
350.203	595
350.601	628.2
350.999	611.6
351.397	665.6
351.795	610.8
352.193	625.4
352.57	621.2
352.969	631.2
353.367	603.4
353.766	610.4
354.164	609.6
354.563	614
354.961	616.4
355.36	606.8
355.759	608.4
356.158	594.6
356.557	605.2
356.956	608.6
357.355	594.6
357.754	620.6
358.153	610.2
358.552	636.4
358.951	608.6
359.35	620.6
359.75	608
360.149	603.2
360.527	599
360.926	605.6
361.326	606.4
361.726	608.2
362.125	604.2
362.525	615.2
362.925	602.6
363.325	606.8
363.724	612.4
364.124	606.4
364.524	610.8
364.924	605
365.324	627.8
365.725	598.2
366.125	618.6
366.525	603.8
366.904	604.4
367.304	592.8
367.705	630.8
368.105	625.8
368.506	603.4
368.906	619.6
369.307	607.6
369.708	620
370.108	598
370.509	619.2
370.91	604.6
371.311	603.2
371.712	613.4
372.113	603.6
372.514	606.8
372.894	618.8
373.295	608.2
373.696	620.4
374.097	625.8
374.499	641.8
374.9	620.6
375.301	599.8
375.703	621
376.105	601.8
376.506	618
376.908	613.2
377.309	612.2
377.711	618.8
378.113	610.2
378.493	614.4
378.895	615
379.297	622
379.699	600.2
380.102	610
380.504	616.2
380.906	610.4
381.308	646.2
381.71	607.4
382.113	623
382.515	605.2
382.918	609.2
383.299	606.6
383.701	615.4
384.104	608
384.507	597.4
384.909	602.4
385.312	601.2
385.715	597.6
386.118	617
386.521	593.4
386.924	621.4
387.327	605
387.709	603
388.112	599.8
388.515	605.2
388.918	607.2
389.322	614.4
389.725	606.8
390.129	631.2
390.532	611
390.936	603.2
391.339	600.4
391.743	605
392.125	604.6
392.529	617
392.933	624.8
393.337	613.6
393.74	610.4
394.144	606.2
394.548	612.6
394.953	605.8
395.357	617
395.761	600.6
396.144	616
396.548	607.4
396.952	610.8
397.357	611
397.761	606.6
398.166	597.8
398.57	606.2
398.975	601.2
399.379	615.2
399.763	656.6
400.168	607.6
400.572	612
400.977	607.8
401.382	624
401.787	613.8
402.192	623.4
402.597	627.2
403.002	590.8
403.386	621
403.791	630
404.197	607.4
404.602	604
405.007	608
405.413	600.4
405.818	603.4
406.224	607.2
406.608	607.8
407.014	596.8
407.42	620.6
407.825	602.6
408.231	621.2
408.637	612.8
409.043	622.8
409.449	604.4
409.834	603.2
410.24	610.6
410.646	622.2
411.052	619.2
411.458	607.4
411.865	626.4
412.271	623.4
412.677	611.2
413.062	617
413.469	599.8
413.875	644
414.282	617.2
414.689	613.2
415.095	620.4
415.502	603.4
415.888	615.2
416.294	600.8
416.701	652.8
417.108	604.8
417.515	612
417.923	606.4
418.33	620.6
418.715	617
419.123	608.6
419.53	601.8
419.937	611
420.345	623.4
420.752	609
421.16	621.6
421.546	607
421.953	626.6
422.361	604.2
422.769	615.4
423.177	604.6
423.585	631.2
423.992	631.8
424.379	623.8
424.787	624.2
425.195	627.4
425.603	609.8
426.011	624.2
426.419	628.8
426.806	610
427.214	615
427.623	622.4
428.031	629.2
428.44	622.2
428.848	629.6
429.235	624.4
429.644	611.4
430.053	617.6
430.461	626
430.87	638.6
431.279	620.8
431.666	611.6
432.075	607.8
432.484	617.6
432.893	609.4
433.302	630.6
433.711	657.6
434.099	615.4
434.508	612.4
434.918	610.4
435.327	625
435.737	621.8
436.125	621.4
436.534	624.6
436.944	629.6
437.353	630.8
437.763	654
438.173	620.6
438.561	635
438.971	617.6
439.381	630.2
439.791	640.4
440.201	624.8
440.589	646.4
440.999	649.2
441.409	644
441.819	640.4
442.23	652.8
442.619	656.6
443.029	644.8
443.439	664.6
443.85	666
444.26	668.8
444.649	669.6
445.06	665
445.471	656.8
445.881	667
446.292	679
446.682	694
447.092	664.2
447.503	727.2
447.914	679.2
448.325	687.8
448.715	682
449.126	685.8
449.537	687.2
449.948	682.6
450.338	699
450.75	706
451.161	695.6
451.572	703.6
451.984	693.8
452.374	685
452.786	698.8
453.197	700.6
453.609	713.4
453.999	693.4
454.411	701.2
454.823	715.4
455.235	714.6
455.647	707.2
456.037	719.6
456.449	698.6
456.862	715
457.274	721.6
457.665	704
458.077	716
458.489	744.8
458.902	720.4
459.293	722.2
459.705	719.6
460.118	718.2
460.53	727.6
460.921	716.8
461.334	729.6
461.747	717.6
462.16	737.4
462.551	729.8
462.964	734.8
463.377	708.6
463.79	729
464.182	735.8
464.595	728.8
465.008	732.6
465.421	735.2
465.813	740
466.226	748
466.64	730.4
467.053	774.6
467.445	749.6
467.859	763.6
468.272	745.6
468.686	761.2
469.078	744.8
469.492	741.6
469.906	743.8
470.298	759.4
470.712	738
471.126	796.6
471.54	737
471.933	741.2
472.347	737.4
472.761	740.6
473.175	737.6
473.568	740.8
473.982	741.8
474.397	749.2
474.79	744.2
475.204	749.2
475.619	745.2
476.033	744.8
476.426	744.2
476.841	741.4
477.256	769.6
477.649	740.6
478.064	734.2
478.479	742
478.872	739.8
479.287	724
479.702	733.4
480.118	750.2
480.511	747.8
480.927	739
481.342	743.8
481.736	745.8
482.151	741
482.566	757.4
482.96	745.2
483.376	747.6
483.792	733.4
484.186	741.6
484.602	739.4
485.017	738.2
485.412	735.4
485.827	753.8
486.243	742.8
486.638	758.4
487.054	738.6
487.47	755.6
487.865	741.8
488.281	738
488.697	735.8
489.092	734.6
489.508	729.8
489.925	749
490.32	729.4
490.736	744.2
491.153	737
491.548	733.8
491.964	741.4
492.381	725.2
492.776	731.2
493.193	723.6
493.61	733.6
494.006	724.6
494.422	745.4
494.84	721.2
495.235	743.2
495.652	730
496.069	715.4
496.465	703.6
496.883	716.4
497.3	753.4
497.696	715
498.113	729.6
498.509	709.6
498.927	705
499.344	703
499.741	703.2
500.158	710.8
500.576	722.4
500.973	715
501.39	710.6
501.787	697.4
502.205	711.4
502.623	707.8
503.02	696
503.438	695.8
503.856	697.2
504.253	714
504.671	722.8
505.068	697.6
505.486	701.6
505.905	725.4
506.302	711
506.72	714.2
507.118	699.2
507.536	700
507.955	692.6
508.352	698.4
508.771	711.2
509.169	707.4
509.587	697.8
510.006	693
510.404	684.4
510.823	688
511.221	686.2
511.64	696.6
512.038	707.8
512.457	694.2
512.877	685.8
513.275	685.6
513.694	691.8
514.092	681.4
514.512	687.2
514.91	690.4
515.33	681.2
515.749	687.4
516.148	685.6
516.568	693
516.966	680.2
517.386	668.2
517.785	683.6
518.205	675.8
518.603	674
519.024	671.6
519.444	677
519.843	679.6
520.263	689.4
520.662	678.8
521.082	673
521.481	672.8
521.902	680.6
522.301	675.6
522.722	673.8
523.121	668.2
523.542	670.2
523.963	667.2
524.362	668.6
524.783	670.2
525.183	662
525.604	668.2
526.003	663.6
526.425	661.8
526.824	667.8
527.246	668.6
527.646	675.4
528.067	668.8
528.467	662
528.888	660
529.289	661.2
529.71	654.4
530.11	648.8
530.532	653.8
530.932	643.8
531.354	644.2
531.755	677.4
532.176	662.2
532.577	654.8
532.999	658
533.4	651
533.822	658.4
534.223	660.2
534.645	642.8
535.046	648.2
535.468	652.6
535.869	665.4
536.292	641.8
536.693	690.4
537.115	650.6
537.516	645
537.939	651.6
538.34	664.6
538.742	659.6
539.165	645
539.566	641
539.989	635
540.391	641.4
540.814	644.2
541.216	647.4
541.639	631.8
542.041	643.4
542.464	639
542.866	631
543.268	628.2
543.691	645
544.093	645.6
544.517	653.6
544.919	628.4
545.343	660.6
545.745	636.8
546.147	641.8
546.571	642.6
546.974	621.8
547.398	645.2
547.8	644
548.224	632.2
548.627	622.8
549.03	644.2
549.454	627
549.857	626.4
550.281	625.8
550.684	615.4
551.087	635.4
551.512	633.4
551.915	632.4
552.34	625.2
552.743	627.8
553.146	624.2
553.571	627.6
553.975	644.8
554.399	620.4
554.803	680.6
555.207	631.8
555.632	631.6
556.036	635.2
556.461	622.4
556.865	634.4
557.268	625
557.694	629.6
558.098	629.2
558.502	635
558.927	614.6
559.332	632.8
559.736	627.8
560.162	635
560.566	628
560.992	641
561.396	620.6
561.801	620.4
562.227	615.4
562.631	620.4
563.036	627.8
563.462	632
563.867	620
564.272	604.2
564.698	626.2
565.103	615
565.508	636.6
565.935	620.2
566.34	622.8
566.745	638.2
567.172	614.6
567.577	645.4
567.982	635.4
568.409	631
568.815	619
569.22	613.8
569.626	628.6
570.053	606.4
570.459	631.4
570.865	628.2
571.292	625.2
571.698	618.8
572.104	598.4
572.531	612.6
572.937	627.4
573.343	626.6
573.75	613.8
574.177	615.8
574.583	624.4
574.99	602.6
575.396	618
575.824	616
576.231	619.6
576.637	611
577.065	641
577.472	602.8
577.879	609.4
578.286	625.2
578.714	608.8
579.121	616.2
579.528	617.6
579.935	626.2
580.364	613.6
580.771	594
581.178	605
581.585	622.2
582.014	619.2
582.421	598.6
582.829	605.2
583.236	621.2
583.644	607.6
584.073	609.8
584.481	612
584.889	608.2
585.296	605.8
585.726	612.2
586.134	600.4
586.542	604.6
586.95	632.4
587.358	601.8
587.787	608.4
588.196	615.8
588.604	610.8
589.012	603.4
589.421	595.4
589.851	601.2
590.259	614.6
590.668	605.4
591.076	637.6
591.485	603.4
591.894	607.8
592.324	624.4
592.733	612.4
593.142	598.8
593.551	606
593.96	634.6
594.369	594.6
594.8	594.2
595.209	599
595.618	583.2
596.028	596.8
596.437	592.8
596.847	607.2
597.256	605.4
597.687	606
598.097	606.2
598.507	588.4
598.917	600.4
599.327	604
599.736	605
600.146	612
600.556	603.6
600.988	617.2
601.398	601.8
601.808	611
602.219	586.2
602.629	602
603.039	604.4
603.45	626.6
603.86	604
604.271	612.2
604.703	604.6
605.114	598
605.525	598.6
605.935	601.8
606.346	623.6
606.757	601.4
607.168	593
607.579	596
607.99	608.4
608.402	599.6
608.813	604
609.224	592.6
609.636	586.8
610.047	593.8
610.48	606.2
610.892	601.6
611.303	608.8
611.715	598.4
612.127	592.4
612.539	596.8
612.95	600.4
613.362	587.2
613.774	585
614.186	598.4
614.599	593.4
615.011	606.6
615.423	592
615.835	596.8
616.248	593.6
616.66	601.4
617.073	593.4
617.485	595.8
617.898	601
618.311	607.8
618.723	591.6
619.136	624.6
619.549	606.4
619.962	614.4
620.375	593.8
620.788	604.4
621.201	592.8
621.614	602.2
622.028	597.8
622.441	605.2
622.854	599.2
623.268	595
623.681	597.6
624.095	597
624.509	598.2
624.922	598.6
625.336	581.8
625.728	593.4
626.142	611.4
626.556	613.6
626.97	604.2
627.384	591.4
627.799	607
628.213	608.6
628.627	594.6
629.041	594.8
629.456	595.6
629.87	590.2
630.285	610
630.699	602
631.093	592.4
631.507	604.2
631.922	597.6
632.337	611.8
632.752	585.6
633.167	596.2
633.582	593.4
633.997	597
634.412	590.8
634.806	592.2
635.221	583
635.637	596.2
636.052	587.2
636.468	596.8
636.883	603.4
637.299	583
637.715	573.2
638.109	589.4
638.525	577
638.941	602.4
639.357	586
639.773	588.2
640.189	582.2
640.584	582.4
641	592.2
641.416	576.8
641.832	593
642.249	590.8
642.665	587.2
643.06	602.2
643.477	599.4
643.894	577
644.31	589.6
644.727	588.4
645.123	600
645.54	580.4
645.957	589.2
646.374	610
646.77	594.4
647.187	623.2
647.604	594.4
648.021	578.6
648.439	593.4
648.835	587.8
649.252	590.2
649.67	579.6
650.088	600.4
650.484	593.8
650.902	596.4
651.32	597
651.738	591
652.134	598.8
652.552	612.6
652.971	599.4
653.389	586.4
653.786	605.2
654.204	622.4
654.622	578.4
655.019	596
655.438	593.8
655.857	590.8
656.275	597.8
656.673	589.8
657.091	593.6
657.51	588.4
657.908	599.2
658.327	600
658.746	583.8
659.144	586.2
659.563	605.2
659.982	592
660.38	584.6
660.8	584.6
661.219	604.6
661.617	596.6
662.037	595.6
662.457	606
662.855	583.2
663.275	622.8
663.695	598.6
664.094	587.6
664.514	594.4
664.934	584.4
665.333	595.8
665.753	581.4
666.152	585.2
666.572	583.4
666.993	598
667.392	588.4
667.812	597.4
668.212	581.6
668.632	604.8
669.053	592.2
669.453	593.8
669.874	585.6
670.273	593
670.694	589.8
671.116	600
671.515	601.6
671.937	591
672.337	585.6
672.758	586.2
673.158	601.4
673.58	578
673.98	593.6
674.402	598.2
674.824	596.8
675.224	579.8
675.646	585.6
676.047	581.2
676.469	597
676.869	590.6
677.292	590.6
677.693	588.8
678.115	584.8
678.516	600
678.939	587.2
679.34	598.6
679.762	607.2
680.164	598.2
680.586	585.4
680.988	591.2
681.411	609.4
681.812	583
682.236	585.6
682.637	580.6
683.061	588.8
683.462	594.6
683.864	592.4
684.288	595.4
684.69	582
685.114	605.4
685.516	597.4
685.94	588
686.342	596.6
686.766	583.8
687.168	580.8
687.571	610.6
687.995	586
688.398	581.6
688.822	581.8
689.225	609
689.628	605.6
690.052	587
690.456	593.4
690.88	593.4
691.284	577.4
691.687	593.4
692.112	583.2
692.515	579.2
692.919	594
693.344	590
693.747	584.6
694.173	578.8
694.577	596.2
694.98	586.4
695.406	588.6
695.81	596.4
696.214	582.6
696.64	595.4
697.044	586.6
697.448	608.2
697.874	591.8
698.279	584.2
698.684	578.4
699.11	575.2
699.514	592
699.919	584.6
700.324	579
700.75	596.6
701.156	588.8
701.561	602.8
701.987	591.8
702.393	598.2
702.798	598.6
703.203	590.8
703.63	580.2
704.036	585.4
704.442	587
704.847	579.8
705.274	584
705.68	583.2
706.086	583.4
706.492	579.8
706.92	591.8
707.326	599.2
707.732	581
708.139	586.8
708.545	579.8
708.973	579
709.38	589.4
709.786	577
710.193	603.8
710.6	594.6
711.028	581.4
711.435	594.8
711.842	585.2
712.249	586.4
712.656	587.4
713.064	597.6
713.492	575.2
713.9	584.8
714.307	581.6
714.715	589.8
715.123	595.6
715.53	586.8
715.938	597.2
716.367	589.4
716.775	576.8
717.184	585
717.592	586.6
718	597.8
718.408	614.6
718.816	629.4
719.225	591.4
719.633	592.4
720.042	577.4
720.472	590.4
720.881	608
721.29	592.2
721.699	578.6
722.108	600.2
722.517	592
722.926	586
723.335	601.4
723.744	589.8
724.154	592.2
724.563	587.8
724.973	594.4
725.382	596.4
725.792	590.6
726.202	573.2
726.612	608.6
727.022	581.4
727.432	585.4
779.813	576.4
780.223	629.8
780.634	584.8
781.044	585.2
781.454	582
781.865	605.6
782.276	576.8
782.686	595.4
783.097	580
783.508	587.8
783.919	586.8
784.33	591.8
784.741	597
785.152	572.4
785.563	567.4
785.974	565.8
786.386	593.4
786.776	577.4
787.188	578.6
787.599	575.4
788.011	585.2
788.423	585.2
788.835	574.6
789.247	566.8
789.659	565
790.071	577.6
790.483	624.8
790.874	573
791.286	581.8
791.699	577.4
792.111	578.4
792.524	582
792.937	581
793.349	569.8
793.741	576.2
794.154	579.2
794.567	596.6
794.98	576.6
795.393	568.4
795.785	589.4
796.198	571.2
796.612	580.4
797.026	577.2
797.439	559.6
797.831	570.6
798.245	574.6
798.659	576
799.073	573
799.487	584.4
799.88	572.6
800.294	577.6
800.708	594.2
801.123	588
801.516	610.4
801.93	564.6
802.345	574.6
802.76	580.8
803.153	607.8
803.568	594.4
803.983	590.2
804.377	584.2
804.792	577.6
805.207	570.2
805.601	590.2
806.016	618.8
806.432	574
806.826	607.8
807.242	594.2
807.658	590.2
808.052	584.8
808.468	584.8
808.884	582.4
809.279	583.6
809.695	587
810.111	609.6
810.506	591
810.922	601.8
811.339	585.4
811.734	587.8
812.151	586.8
812.546	583.8
812.963	583
813.38	584.4
813.776	583
814.193	599.4
814.589	581.8
815.006	576.8
815.402	573.6
815.82	580.6
816.237	587
816.633	578.2
817.051	586
817.448	587
817.866	576.6
818.262	602.4
818.68	576.4
819.077	579.2
819.495	583.2
819.892	618.6
820.311	582
820.708	584.6
821.127	577.6
821.524	597
821.943	582.8
822.34	599
822.759	587.2
823.157	585.6
823.576	595.4
823.974	594.2
824.393	632.2
824.791	576.4
825.189	574
825.609	575.2
826.007	586.6
826.427	577.4
826.826	579
827.246	584.8
827.644	571.6
828.043	595.4
828.463	574.4
828.862	596.6
829.261	584.6
829.682	575.6
830.081	595
830.502	580.6
830.901	588.4
831.301	601.4
831.722	574
832.121	589
832.521	584.2
832.943	578.4
833.342	584.6
833.742	570.6
834.164	582.2
834.564	578.6
834.965	584.2
835.386	580.4
835.787	583
836.188	583
836.588	585
837.01	578.2
837.411	573.2
837.812	590.2
838.213	589
838.636	572.2
839.037	652.2
839.438	588
839.84	579.4
840.263	594.2
840.664	592.4
841.066	585.4
841.468	580.8
841.891	577.6
842.293	586.8
842.695	581.8
843.098	590.4
843.5	575.6
843.902	588.2
844.326	585.4
844.729	584.4
845.131	594.6
845.534	585.4
845.937	594.8
846.34	598.4
846.764	578.6
847.167	589.6
847.571	580.4
847.974	584
848.377	587.2
848.781	627.2
849.184	591.4
849.588	578.8
849.992	576.6
850.396	592.6
850.821	597.8
851.225	586.8
851.63	583.6
852.034	587.6
852.438	586.6
852.843	664
853.247	576.4
853.652	575.6
854.057	595.4
854.462	590
854.867	586.6
855.272	615.2
