#lambda/nm	C1
208.295	509.6
208.67	469.8
209.045	425.8
209.419	432.8
209.794	619.4
210.169	596.8
210.544	725
210.919	616
211.295	601.6
211.67	621.4
212.045	609.4
212.421	611.8
212.796	651.4
213.172	609.8
213.547	610
213.923	610.2
214.299	604.6
214.675	619
215.051	619.8
215.427	619.8
215.803	633.2
216.179	623.6
216.555	606
216.932	621.8
217.308	624.8
217.684	611.8
218.061	625.4
218.438	625.8
218.814	609.4
219.191	618.8
219.568	598.2
219.945	614.8
220.322	618
220.699	617
221.076	623.4
221.453	616.4
221.83	610
222.208	611.2
222.585	616
222.962	620.6
223.34	621
223.717	613.6
224.095	604
224.473	617.4
224.851	611.4
225.229	598.2
225.607	623.6
225.985	599.4
226.363	618
226.741	611.6
227.119	610.4
227.497	625.2
227.876	599.2
228.254	623.8
228.633	617.4
229.011	617.4
229.39	621.8
229.769	616.8
230.148	623.8
230.527	633.4
230.905	614
231.284	621.6
231.664	616.6
232.043	622.8
232.422	621.8
232.801	611.8
233.181	615.6
233.56	612.8
233.94	619.2
234.319	604
234.699	615
235.079	650
235.458	655.6
235.838	630.2
236.218	608.8
236.598	604
236.978	604.4
237.358	605.4
237.738	608.4
238.119	618
238.499	606.4
238.88	614.4
239.26	636
239.641	606.4
240.021	613.2
240.402	614.6
240.783	608.4
241.163	618
241.544	613.8
241.925	617.8
242.306	628.4
242.687	626.4
243.069	619.4
243.45	623.6
243.831	611.2
244.212	617.8
244.594	658.4
244.975	626.8
245.357	615.8
245.739	616.4
246.12	618.8
246.502	626.4
246.884	616
247.266	610.4
247.648	614.6
248.03	638
248.412	614.8
248.794	622.2
249.176	612.4
249.559	627.4
249.941	605.4
250.323	601.4
250.706	608.4
251.089	617.2
251.471	620.6
251.854	625.4
252.237	612
252.62	619.2
253.002	610.6
253.385	615.4
253.769	632.6
254.152	620.4
254.535	622.4
254.918	608.6
255.301	611.6
255.685	610.6
256.068	607.8
256.452	638.4
256.835	629.8
257.219	630
257.603	622.8
257.986	606
258.37	623.8
258.754	606.6
259.138	623.6
259.522	622.8
259.906	617
260.29	620.4
260.675	613
261.059	621.8
261.443	606.8
261.828	622
262.212	621
262.597	605.2
262.981	606.2
263.366	626
263.751	618.6
264.136	613.2
264.521	609
264.906	606.8
265.291	635.4
265.676	614
266.061	615.8
266.446	631.8
266.831	623.8
267.217	640
267.602	628.2
267.987	623.2
268.373	613.2
268.759	631.6
269.144	625.4
269.53	619
269.916	615.2
270.302	613.4
270.688	627.8
271.074	622.8
271.46	627
271.846	639
272.232	630.2
272.618	611.4
273.004	613.8
273.391	622
273.777	634.2
274.164	615.4
274.55	630.6
274.937	619.6
275.324	613.2
275.71	627.4
276.097	623.6
276.484	610.8
276.871	620.8
277.258	627.4
277.645	607.8
278.032	611.2
278.419	609.8
278.807	613.8
279.194	603.6
279.581	611.8
279.969	612
280.356	609.6
280.744	617
281.131	637.2
281.519	621.6
281.907	597
282.295	612.8
282.682	623.4
283.07	615.4
283.458	628.2
283.846	626.2
284.235	624
284.623	623
285.011	604.6
285.399	619.2
285.788	617.6
286.176	604.6
286.565	625
286.953	608.8
287.342	613.4
287.731	604.4
288.119	619
288.508	613
288.897	614.8
289.286	602.2
289.675	617.4
290.064	625
290.453	620.4
290.821	620.2
291.21	628.8
291.599	613.8
291.989	615.8
292.378	619.4
292.768	626
293.157	625.8
293.547	627.4
293.936	608.2
294.326	605.2
294.716	617.8
295.106	609
295.496	625.4
295.886	627.4
296.276	618
296.666	618
297.056	607.8
297.446	608.6
297.836	631.8
298.227	612.8
298.617	615.8
299.008	641.4
299.398	615.6
299.789	613.4
300.179	629
300.57	620.6
300.961	607.6
301.352	620.8
301.742	629.2
302.133	614.6
302.524	622.2
302.915	627
303.307	609.6
303.698	626
304.089	623.4
304.48	624
304.872	622.8
305.263	618
305.655	607.4
306.046	615.8
306.438	628.6
306.829	613.2
307.221	641
307.613	623.8
308.005	629.6
308.397	634.4
308.789	634.6
309.181	647
309.573	641.2
309.965	633.8
310.357	611.2
310.749	633.8
311.142	604.6
311.534	611
311.926	623.4
312.319	619.8
312.711	615.2
313.104	625.8
313.497	611.4
313.889	655.4
314.282	638.6
314.675	636.2
315.068	614
315.461	620
315.854	651.8
316.247	626.6
316.64	614.8
317.033	618.2
317.405	626
317.798	612.4
318.192	625.4
318.585	611.6
318.979	620.6
319.372	610
319.766	625
320.16	632.4
320.553	636
320.947	637.4
321.341	605.6
321.735	614.8
322.129	604.8
322.523	644.2
322.917	610.4
323.311	624.8
323.705	620.8
324.099	617
324.494	624.4
324.888	632
325.282	612
325.677	617.8
326.071	622.4
326.466	630.4
326.861	611.6
327.255	624
327.65	632.8
328.045	632.2
328.44	624.4
328.835	623.8
329.23	608
329.625	636
330.02	616.2
330.415	634.4
330.81	621.4
331.206	630
331.601	614.4
331.996	627
332.37	637.2
332.766	615
333.161	642.6
333.557	622.6
333.953	626.4
334.348	1046
334.744	625.6
335.14	616.2
335.536	613.6
335.932	635
336.328	624.6
336.724	630.8
337.12	616.4
337.516	620.4
337.913	624.4
338.309	634
338.705	618
339.102	635.2
339.498	618.6
339.895	637.6
340.291	611.4
340.688	629.8
341.085	619
341.481	615.6
341.878	615.8
342.275	634.4
342.672	617
343.069	613.6
343.466	609.2
343.842	629
344.239	624.2
344.636	622.6
345.033	609.6
345.431	607.2
345.828	615.6
346.225	612.4
346.623	654
347.02	616.8
347.418	619.4
347.816	629.2
348.213	611.2
348.611	622.2
349.009	617.4
349.407	641.8
349.805	609.2
350.203	605.6
350.601	630.8
350.999	612.6
351.397	670.8
351.795	611.2
352.193	626.8
352.57	634.2
352.969	636.8
353.367	602.6
353.766	611.4
354.164	612.6
354.563	625
354.961	618
355.36	607.8
355.759	615.8
356.158	606.4
356.557	613.2
356.956	599
357.355	599.8
357.754	620.2
358.153	624.2
358.552	645.6
358.951	613.8
359.35	634.2
359.75	608.6
360.149	601.2
360.527	603
360.926	598.6
361.326	615.8
361.726	615.2
362.125	608.6
362.525	622.4
362.925	608
363.325	614.2
363.724	609.8
364.124	603.4
364.524	604.8
364.924	608.2
365.324	618
365.725	596.6
366.125	613.2
366.525	610.2
366.904	600.2
367.304	595.4
367.705	626
368.105	619.6
368.506	605.2
368.906	606
369.307	612.4
369.708	610.6
370.108	588.8
370.509	618.6
370.91	607.8
371.311	613.8
371.712	608.2
372.113	616.2
372.514	597.8
372.894	604.8
373.295	607.6
373.696	629.8
374.097	624
374.499	639.6
374.9	610.4
375.301	603.8
375.703	612.6
376.105	610.4
376.506	612.4
376.908	609.6
377.309	608
377.711	603.6
378.113	598.2
378.493	599.8
378.895	595.6
379.297	616.2
379.699	593.4
380.102	604.6
380.504	609.6
380.906	599.8
381.308	633.8
381.71	604.4
382.113	611.2
382.515	601.4
382.918	612.4
383.299	612
383.701	617.8
384.104	615
384.507	598
384.909	597
385.312	592.2
385.715	594.6
386.118	613.2
386.521	595.4
386.924	617.2
387.327	607.2
387.709	597.4
388.112	589.8
388.515	599.4
388.918	602.8
389.322	609
389.725	603.4
390.129	636.2
390.532	613.6
390.936	602.2
391.339	593
391.743	604.8
392.125	607.4
392.529	625.4
392.933	619.2
393.337	608
393.74	607.4
394.144	601.8
394.548	597
394.953	603.8
395.357	616.4
395.761	609
396.144	613
396.548	605.6
396.952	612.6
397.357	609.6
397.761	603.8
398.166	604.6
398.57	616.2
398.975	601.4
399.379	624.2
399.763	659.8
400.168	612
400.572	614.8
400.977	609.8
401.382	633.4
401.787	616.6
402.192	622
402.597	621.6
403.002	600.2
403.386	626.4
403.791	617.6
404.197	607.4
404.602	609.6
405.007	607
405.413	615.2
405.818	615.6
406.224	605.2
406.608	610.2
407.014	600
407.42	625
407.825	603
408.231	618.2
408.637	604.4
409.043	619.8
409.449	600.6
409.834	601.8
410.24	611
410.646	617.8
411.052	621.4
411.458	615.2
411.865	624.8
412.271	624.2
412.677	609.2
413.062	612
413.469	605.4
413.875	636
414.282	623.8
414.689	618
415.095	618.2
415.502	604
415.888	615.8
416.294	601
416.701	653.4
417.108	607.2
417.515	616.8
417.923	608
418.33	624
418.715	607.8
419.123	609.4
419.53	611.2
419.937	608.8
420.345	620.6
420.752	599.6
421.16	619
421.546	610.8
421.953	616.4
422.361	598.8
422.769	609.2
423.177	599.2
423.585	633.4
423.992	626.6
424.379	617.2
424.787	618.6
425.195	637.2
425.603	605.6
426.011	620
426.419	623
426.806	602.4
427.214	612
427.623	625.2
428.031	631.6
428.44	622.6
428.848	623
429.235	634.6
429.644	630.6
430.053	621.6
430.461	636.8
430.87	647.6
431.279	647
431.666	626.6
432.075	642.6
432.484	648.2
432.893	642.6
433.302	665.6
433.711	687.4
434.099	659.4
434.508	662
434.918	660.4
435.327	685
435.737	681.6
436.125	695.8
436.534	699
436.944	718
437.353	717.6
437.763	734.6
438.173	721.4
438.561	743.4
438.971	719.4
439.381	746.2
439.791	751.8
440.201	720
440.589	761.8
440.999	767.2
441.409	777
441.819	764.6
442.23	796.8
442.619	796.2
443.029	789.4
443.439	796.2
443.85	816
444.26	822.8
444.649	823.8
445.06	810.2
445.471	814.6
445.881	828.8
446.292	847.4
446.682	842.4
447.092	822.8
447.503	885.4
447.914	848
448.325	833.4
448.715	849.4
449.126	842.2
449.537	841.2
449.948	854.6
450.338	860.8
450.75	869
451.161	860.8
451.572	862.6
451.984	848.4
452.374	844
452.786	852.8
453.197	864
453.609	885.8
453.999	838.4
454.411	853
454.823	873.2
455.235	865.8
455.647	851.8
456.037	866.6
456.449	856.4
456.862	874.2
457.274	864.2
457.665	851.4
458.077	867
458.489	911.2
458.902	867.2
459.293	869.8
459.705	877
460.118	874.6
460.53	876.6
460.921	866.4
461.334	887.2
461.747	873.4
462.16	879.2
462.551	880
462.964	884.2
463.377	869.8
463.79	875.6
464.182	888.2
464.595	879.8
465.008	875.8
465.421	885.8
465.813	877
466.226	890.8
466.64	880.8
467.053	941
467.445	891.4
467.859	894
468.272	900.2
468.686	895.4
469.078	881.2
469.492	876.8
469.906	883.8
470.298	876.8
470.712	868.4
471.126	915
471.54	872.4
471.933	874
472.347	875.4
472.761	862.6
473.175	864.4
473.568	866.2
473.982	870
474.397	872.8
474.79	867.2
475.204	868.8
475.619	862.8
476.033	872
476.426	859.4
476.841	848.6
477.256	879
477.649	857.2
478.064	860.8
478.479	853
478.872	860.2
479.287	841.6
479.702	856.4
480.118	859.4
480.511	854.6
480.927	861.6
481.342	843.6
481.736	849.4
482.151	840.4
482.566	864.2
482.96	851.8
483.376	858.8
483.792	846.2
484.186	853.6
484.602	835.2
485.017	848
485.412	844.2
485.827	846
486.243	847.2
486.638	877.4
487.054	835.8
487.47	845.6
487.865	830.6
488.281	822.6
488.697	827.4
489.092	821.4
489.508	822.4
489.925	839.6
490.32	809.2
490.736	837.2
491.153	820.8
491.548	830.8
491.964	821.2
492.381	801.8
492.776	822.2
493.193	821.4
493.61	816.8
494.006	825
494.422	805.8
494.84	802.4
495.235	820.6
495.652	796.2
496.069	808
496.465	802.4
496.883	793.8
497.3	829.8
497.696	784.4
498.113	810
498.509	782.6
498.927	782.8
499.344	787.4
499.741	784.8
500.158	792.6
500.576	798.4
500.973	790.8
501.39	774.4
501.787	779.8
502.205	779.8
502.623	769.4
503.02	766.4
503.438	767
503.856	779.8
504.253	773.2
504.671	777.4
505.068	770.4
505.486	765.6
505.905	783.4
506.302	763
506.72	771
507.118	758
507.536	759.2
507.955	755.2
508.352	749
508.771	766.8
509.169	765
509.587	739.6
510.006	755.2
510.404	743.6
510.823	743.4
511.221	742.4
511.64	738.8
512.038	753.6
512.457	740.2
512.877	737.4
513.275	736
513.694	731.2
514.092	722.2
514.512	736.4
514.91	732.6
515.33	735
515.749	725.6
516.148	740.4
516.568	726.6
516.966	717.2
517.386	721.8
517.785	724.2
518.205	721
518.603	713.8
519.024	703.4
519.444	710.2
519.843	718.6
520.263	725.2
520.662	719.8
521.082	710
521.481	708.4
521.902	698
522.301	701.6
522.722	704
523.121	701.4
523.542	695.6
523.963	699.2
524.362	695.6
524.783	693
525.183	690.8
525.604	699.6
526.003	704
526.425	692.2
526.824	700.6
527.246	707.8
527.646	704.8
528.067	699.8
528.467	702.6
528.888	701.4
529.289	684.6
529.71	685.6
530.11	677.8
530.532	681.4
530.932	675
531.354	678
531.755	714.6
532.176	692.6
532.577	678.4
532.999	689.2
533.4	676.6
533.822	689
534.223	697.4
534.645	665.2
535.046	666.8
535.468	672.2
535.869	696.6
536.292	679
536.693	710.6
537.115	682.8
537.516	667
537.939	670.4
538.34	689.2
538.742	681.2
539.165	669.6
539.566	662.8
539.989	665
540.391	661.8
540.814	673
541.216	660.4
541.639	670.8
542.041	667
542.464	667.8
542.866	661.2
543.268	660.6
543.691	668.2
544.093	669.6
544.517	690.2
544.919	658.4
545.343	686.6
545.745	651.2
546.147	659.4
546.571	649.8
546.974	649.8
547.398	661.6
547.8	674.4
548.224	652.4
548.627	652
549.03	662.8
549.454	651.6
549.857	647.4
550.281	647.4
550.684	642.8
551.087	662.6
551.512	657.8
551.915	656.8
552.34	653.2
552.743	642
553.146	652.6
553.571	640
553.975	669.6
554.399	643.8
554.803	694.6
555.207	642.2
555.632	646.2
556.036	645
556.461	633.8
556.865	640.8
557.268	640.8
557.694	633.2
558.098	647.8
558.502	635.6
558.927	635.6
559.332	641.4
559.736	645
560.162	634.2
560.566	642.4
560.992	652.4
561.396	644.6
561.801	633.2
562.227	638
562.631	630.8
563.036	634.6
563.462	644.4
563.867	634
564.272	624.8
564.698	637
565.103	627.2
565.508	655.6
565.935	630.4
566.34	633.4
566.745	643
567.172	623.4
567.577	646.2
567.982	640
568.409	628.2
568.815	614.2
569.22	622.2
569.626	628.8
570.053	618
570.459	616
570.865	629.2
571.292	627.4
571.698	624
572.104	596.2
572.531	621
572.937	632
573.343	624
573.75	617.4
574.177	623.6
574.583	626.4
574.99	612.8
575.396	630.2
575.824	622.4
576.231	630.2
576.637	616.8
577.065	646.8
577.472	611.4
577.879	616.8
578.286	635.2
578.714	610.8
579.121	617.6
579.528	618.6
579.935	633.4
580.364	614.8
580.771	603.6
581.178	610.6
581.585	622.8
582.014	619.8
582.421	606
582.829	608.4
583.236	626.6
583.644	604.8
584.073	611.6
584.481	624
584.889	605.2
585.296	620.6
585.726	613.4
586.134	608.8
586.542	607.4
586.95	621.8
587.358	604
587.787	610
588.196	630.6
588.604	606.2
589.012	619
589.421	612.8
589.851	603.6
590.259	617.8
590.668	608.2
591.076	651.6
591.485	606.6
591.894	608.6
592.324	627
592.733	622.2
593.142	595.8
593.551	610.4
593.96	611
594.369	608.2
594.8	603.4
595.209	606.4
595.618	589.8
596.028	599.6
596.437	603
596.847	609
597.256	618.6
597.687	605.4
598.097	607.4
598.507	590.8
598.917	600.4
599.327	611.8
599.736	605.6
600.146	611
600.556	600
600.988	616.8
601.398	596
601.808	614
602.219	596.6
602.629	606.8
603.039	604.6
603.45	620.4
603.86	611.4
604.271	623
604.703	605.6
605.114	597.8
605.525	597
605.935	603.8
606.346	625.4
606.757	602.2
607.168	599.2
607.579	592.6
607.99	612.8
608.402	603
608.813	608.2
609.224	596.6
609.636	597.6
610.047	606.4
610.48	603.6
610.892	605.4
611.303	610.8
611.715	597.8
612.127	591.8
612.539	599.4
612.95	606
613.362	587
613.774	593.4
614.186	592.8
614.599	595.4
615.011	608.6
615.423	591.8
615.835	591.4
616.248	590.6
616.66	598
617.073	585
617.485	596.8
617.898	597.8
618.311	601.6
618.723	597.2
619.136	618.4
619.549	610.6
619.962	616.4
620.375	596.8
620.788	598.8
621.201	593.2
621.614	595
622.028	594.8
622.441	601
622.854	614.2
623.268	591.4
623.681	597.4
624.095	604.4
624.509	601
624.922	612.8
625.336	590.8
625.728	598.8
626.142	604.2
626.556	620.2
626.97	607.6
627.384	600.8
627.799	590.6
628.213	606.8
628.627	596.2
629.041	597.2
629.456	596.6
629.87	604.2
630.285	610.4
630.699	610.6
631.093	594.6
631.507	606.8
631.922	596.2
632.337	612.8
632.752	587
633.167	599.8
633.582	595.8
633.997	585.4
634.412	590.4
634.806	595.2
635.221	587.2
635.637	616.4
636.052	588.8
636.468	594.8
636.883	612
637.299	596.6
637.715	581
638.109	603.6
638.525	582
638.941	606.8
639.357	592.6
639.773	610
640.189	591.4
640.584	592
641	596.4
641.416	586
641.832	591.8
642.249	596.4
642.665	602.8
643.06	595
643.477	613.4
643.894	580.6
644.31	589.4
644.727	593.4
645.123	600.6
645.54	595
645.957	597
646.374	601.4
646.77	596.6
647.187	625.4
647.604	591.8
648.021	574.6
648.439	589
648.835	598
649.252	600.4
649.67	589
650.088	598.2
650.484	594.4
650.902	600.4
651.32	597
651.738	598.4
652.134	594.8
652.552	613.4
652.971	594.2
653.389	595
653.786	613.8
654.204	616.2
654.622	586.2
655.019	586.8
655.438	598.6
655.857	592.6
656.275	594
656.673	586.6
657.091	607.8
657.51	586.4
657.908	596.8
658.327	612.6
658.746	573.6
659.144	591.4
659.563	612.4
659.982	598.4
660.38	587.2
660.8	593.4
661.219	598
661.617	601
662.037	596.6
662.457	601.6
662.855	578.6
663.275	624.8
663.695	590.2
664.094	593.8
664.514	595.6
664.934	592.4
665.333	603.4
665.753	586.6
666.152	580.4
666.572	587.2
666.993	600.4
667.392	584.6
667.812	586.8
668.212	582.8
668.632	589
669.053	577.2
669.453	595.4
669.874	581.8
670.273	589.4
670.694	580.4
671.116	600.6
671.515	604
671.937	591.6
672.337	584.6
672.758	585.8
673.158	603
673.58	584.2
673.98	595.4
674.402	593.2
674.824	588.6
675.224	579.8
675.646	588.2
676.047	586.6
676.469	592
676.869	593.4
677.292	600.2
677.693	584.6
678.115	584.8
678.516	592
678.939	592.2
679.34	583
679.762	601.8
680.164	596.8
680.586	573.2
680.988	590.6
681.411	617.6
681.812	592.8
682.236	587.8
682.637	579
683.061	576.4
683.462	599.2
683.864	591
684.288	588.4
684.69	575.2
685.114	594.8
685.516	602.6
685.94	579
686.342	595
686.766	585.4
687.168	588
687.571	608.6
687.995	590.4
688.398	578.8
688.822	601.4
689.225	605.2
689.628	609.8
690.052	584
690.456	601.6
690.88	600.4
691.284	570
691.687	602.2
692.112	582.2
692.515	576.8
692.919	591.4
693.344	596.4
693.747	584.2
694.173	588
694.577	596.8
694.98	590.8
695.406	590.8
695.81	594.8
696.214	596
696.64	591.4
697.044	592.8
697.448	595.2
697.874	590.6
698.279	586
698.684	581.8
699.11	588
699.514	578.8
699.919	585.8
700.324	575.4
700.75	585.6
701.156	585.2
701.561	598
701.987	591.8
702.393	601.2
702.798	598.6
703.203	588.4
703.63	586.4
704.036	578.8
704.442	592.6
704.847	585.4
705.274	589.8
705.68	592.6
706.086	595.2
706.492	581.8
706.92	586.6
707.326	589.8
707.732	583.6
708.139	580.8
708.545	579.4
708.973	585
709.38	590.8
709.786	576
710.193	594
710.6	587
711.028	581.6
711.435	589
711.842	587.2
712.249	578.8
712.656	589.2
713.064	595.2
713.492	579.4
713.9	585.4
714.307	590
714.715	590
715.123	587
715.53	588.4
715.938	599.8
716.367	584.4
716.775	589.2
717.184	578.6
717.592	581.4
718	606.8
718.408	613.6
718.816	628
719.225	593.4
719.633	592.6
720.042	580.4
720.472	581.6
720.881	597.6
721.29	598.4
721.699	585.6
722.108	584.8
722.517	587
722.926	583.8
723.335	595.6
723.744	587
724.154	592.4
724.563	587.2
724.973	588.2
725.382	586.2
725.792	588
726.202	577.8
726.612	603.2
727.022	595.2
727.432	580.6
779.813	585.4
780.223	631.2
780.634	584.2
781.044	581.6
781.454	590.2
781.865	602
782.276	579
782.686	597.2
783.097	589.4
783.508	587.6
783.919	592.4
784.33	594.4
784.741	599.4
785.152	587.2
785.563	578.2
785.974	573.8
786.386	595.2
786.776	581.8
787.188	588.2
787.599	578.4
788.011	591.2
788.423	592.6
788.835	586
789.247	575.8
789.659	583.2
790.071	584.4
790.483	623.6
790.874	580.2
791.286	594.2
791.699	581.6
792.111	583
792.524	590.6
792.937	582.8
793.349	580
793.741	585
794.154	577.8
794.567	601.2
794.98	587.4
795.393	573.6
795.785	600.6
796.198	578.4
796.612	584.8
797.026	587
797.439	571
797.831	582
798.245	567.8
798.659	586.6
799.073	590
799.487	581.6
799.88	586
800.294	591.4
800.708	593.4
801.123	595.2
801.516	600.6
801.93	570.8
802.345	574
802.76	587.4
803.153	602.8
803.568	604.4
803.983	597.2
804.377	587.8
804.792	576
805.207	577.6
805.601	584.4
806.016	621
806.432	585.8
806.826	621.2
807.242	597
807.658	588.6
808.052	582.2
808.468	583.8
808.884	583
809.279	584.6
809.695	598
810.111	612.8
810.506	589.6
810.922	593.4
811.339	570.8
811.734	591.4
812.151	577.8
812.546	577.2
812.963	567
813.38	582.6
813.776	581.8
814.193	604.2
814.589	584
815.006	575.8
815.402	570
815.82	574.8
816.237	578
816.633	586.2
817.051	568.6
817.448	583.2
817.866	571.6
818.262	593.6
818.68	580
819.077	582.4
819.495	584.2
819.892	629.4
820.311	563
820.708	579.4
821.127	578.4
821.524	595.4
821.943	581.4
822.34	599
822.759	591.2
823.157	583.6
823.576	595.4
823.974	598.8
824.393	636.4
824.791	582
825.189	575.2
825.609	586.8
826.007	579.4
826.427	581.4
826.826	570.4
827.246	588
827.644	569
828.043	589.8
828.463	576
828.862	591.8
829.261	584.4
829.682	574.4
830.081	588.6
830.502	574
830.901	580.2
831.301	598.4
831.722	566
832.121	585.2
832.521	577.8
832.943	583.6
833.342	575.8
833.742	581.8
834.164	579.2
834.564	583.6
834.965	578.8
835.386	577.2
835.787	573.2
836.188	586.6
836.588	580.8
837.01	590.6
837.411	574.4
837.812	588.4
838.213	582.4
838.636	576.2
839.037	645.6
839.438	581.2
839.84	587.4
840.263	586
840.664	583
841.066	587.4
841.468	591.2
841.891	584
842.293	595.6
842.695	590.6
843.098	597.6
843.5	578.6
843.902	590.8
844.326	591.6
844.729	585.8
845.131	598.4
845.534	589
845.937	594.4
846.34	599.8
846.764	578.4
847.167	578.8
847.571	574.2
847.974	574.2
848.377	583.8
848.781	624.8
849.184	592.4
849.588	577
849.992	585.2
850.396	588
850.821	601.6
851.225	590.8
851.63	572.4
852.034	595.6
852.438	586.4
852.843	664.2
853.247	571.4
853.652	573.6
854.057	604.4
854.462	582.6
854.867	583
855.272	610.4
855.677	585.2
856.082	576
856.487	571.8
