#lambda/nm	C1
208.295	513.4
208.67	463.6
209.045	429.2
209.419	432.4
209.794	622.8
210.169	602.8
210.544	717
210.919	618
211.295	602.8
211.67	622
212.045	614.4
212.421	616.4
212.796	659.8
213.172	607.6
213.547	615.4
213.923	611.4
214.299	604.6
214.675	630.2
215.051	612.6
215.427	629.8
215.803	632.8
216.179	618
216.555	613.4
216.932	619.8
217.308	622.6
217.684	611.6
218.061	614.2
218.438	628.8
218.814	612
219.191	620.6
219.568	612
219.945	619.8
220.322	624.6
220.699	621.4
221.076	620.8
221.453	616.8
221.83	607.2
222.208	614.6
222.585	609.8
222.962	619.2
223.34	623.2
223.717	622
224.095	614.8
224.473	624.4
224.851	611.4
225.229	606.2
225.607	637
225.985	612
226.363	615.4
226.741	617
227.119	610.8
227.497	628.2
227.876	615.2
228.254	632.6
228.633	623.4
229.011	617.4
229.39	622.8
229.769	620.6
230.148	628.4
230.527	638.8
230.905	624.6
231.284	617.6
231.664	609
232.043	627.2
232.422	622.2
232.801	612.6
233.181	620.4
233.56	618.4
233.94	620
234.319	603.8
234.699	615.6
235.079	660.4
235.458	647.6
235.838	628.8
236.218	609.2
236.598	611.6
236.978	611.8
237.358	613
237.738	611.8
238.119	617.2
238.499	614.2
238.88	627.4
239.26	633
239.641	603.6
240.021	612
240.402	619.4
240.783	610.6
241.163	617.2
241.544	611.2
241.925	623.4
242.306	629.6
242.687	619
243.069	615.6
243.45	628.6
243.831	614.2
244.212	617.6
244.594	649.2
244.975	613.4
245.357	614.2
245.739	613.6
246.12	613.8
246.502	635.8
246.884	612
247.266	613
247.648	616
248.03	641.8
248.412	619.2
248.794	624.2
249.176	611
249.559	621.8
249.941	604.4
250.323	598.2
250.706	602.6
251.089	613.8
251.471	612.4
251.854	611
252.237	612.4
252.62	616.4
253.002	616.8
253.385	603.6
253.769	631.6
254.152	616.6
254.535	621
254.918	601.4
255.301	611.8
255.685	605.4
256.068	607.2
256.452	636.6
256.835	620.2
257.219	615.2
257.603	627.4
257.986	605.6
258.37	623.8
258.754	589.2
259.138	619
259.522	620.2
259.906	609
260.29	618.4
260.675	612.2
261.059	613.4
261.443	603.2
261.828	627.2
262.212	623
262.597	604.6
262.981	612.2
263.366	618.4
263.751	615.4
264.136	606.4
264.521	608.4
264.906	599.6
265.291	622.8
265.676	606.8
266.061	620
266.446	628
266.831	615.6
267.217	633
267.602	619
267.987	619.4
268.373	610.8
268.759	633.8
269.144	625.2
269.53	612.8
269.916	605.8
270.302	620
270.688	624.8
271.074	617.4
271.46	631.2
271.846	647.6
272.232	623.4
272.618	617
273.004	613.4
273.391	623.6
273.777	631
274.164	619.4
274.55	633.2
274.937	625.8
275.324	613.4
275.71	621
276.097	626.8
276.484	607.6
276.871	610.2
277.258	625.6
277.645	606
278.032	617.8
278.419	617
278.807	628.8
279.194	612
279.581	618.6
279.969	623
280.356	617
280.744	627
281.131	646.2
281.519	640.2
281.907	610.2
282.295	615.8
282.682	625.8
283.07	624.8
283.458	631.2
283.846	633.2
284.235	633
284.623	620.4
285.011	613
285.399	622.2
285.788	618
286.176	606.8
286.565	626.6
286.953	610.4
287.342	613.4
287.731	614
288.119	620.8
288.508	619.2
288.897	620.8
289.286	598.2
289.675	620.2
290.064	632.4
290.453	617.4
290.821	615.8
291.21	623.6
291.599	611
291.989	619.8
292.378	631
292.768	644.2
293.157	626
293.547	626.8
293.936	616.4
294.326	612.6
294.716	626.2
295.106	615.8
295.496	627.4
295.886	626.6
296.276	611.4
296.666	615.8
297.056	612.2
297.446	605.6
297.836	636
298.227	612.2
298.617	620.2
299.008	639.4
299.398	614.8
299.789	617.8
300.179	622.4
300.57	639.2
300.961	624.8
301.352	611.8
301.742	613.2
302.133	614
302.524	617.6
302.915	624.2
303.307	607.6
303.698	627.2
304.089	627.8
304.48	624.8
304.872	627.2
305.263	616.6
305.655	604.4
306.046	622.4
306.438	617.8
306.829	621.2
307.221	633.2
307.613	622.6
308.005	630
308.397	631
308.789	641.4
309.181	644.6
309.573	630.6
309.965	630.6
310.357	619.8
310.749	629.2
311.142	607.6
311.534	615.6
311.926	620
312.319	622
312.711	612.4
313.104	633.6
313.497	617
313.889	654.6
314.282	630.4
314.675	642.2
315.068	621.8
315.461	624.6
315.854	640.2
316.247	625.6
316.64	623.2
317.033	615.8
317.405	629.6
317.798	628.6
318.192	618.8
318.585	611.4
318.979	626.2
319.372	616.2
319.766	615
320.16	619.6
320.553	633.8
320.947	635.8
321.341	612.8
321.735	629
322.129	607
322.523	643.6
322.917	611.4
323.311	629.2
323.705	622.4
324.099	621.8
324.494	637.6
324.888	627.4
325.282	611
325.677	625.2
326.071	635.6
326.466	632.8
326.861	620.2
327.255	635.6
327.65	636
328.045	636.8
328.44	626
328.835	618.8
329.23	616.6
329.625	643.2
330.02	606.4
330.415	639.8
330.81	620.8
331.206	628.2
331.601	625.2
331.996	622.2
332.37	643.6
332.766	611
333.161	642.8
333.557	620.6
333.953	623.6
334.348	991.2
334.744	623.8
335.14	619
335.536	608.2
335.932	631.6
336.328	623.6
336.724	631
337.12	622.4
337.516	615.2
337.913	626
338.309	633.6
338.705	617.4
339.102	621
339.498	613.4
339.895	630
340.291	610
340.688	628.8
341.085	608.2
341.481	612.4
341.878	619.4
342.275	638.2
342.672	613.2
343.069	611.6
343.466	596
343.842	624.4
344.239	620.2
344.636	618.6
345.033	606.4
345.431	609.6
345.828	614.4
346.225	603.8
346.623	643
347.02	613.4
347.418	613.2
347.816	627.6
348.213	606.2
348.611	616
349.009	603.2
349.407	626.4
349.805	602.6
350.203	600
350.601	625.2
350.999	606
351.397	676.4
351.795	606.4
352.193	618
352.57	626.8
352.969	614.8
353.367	600.8
353.766	601.6
354.164	608.8
354.563	618
354.961	605.8
355.36	607.8
355.759	612.2
356.158	609.6
356.557	603.2
356.956	607.2
357.355	607.2
357.754	604
358.153	608.4
358.552	632
358.951	603.4
359.35	616.6
359.75	604
360.149	600.8
360.527	597.4
360.926	601.8
361.326	611.8
361.726	609.6
362.125	598.8
362.525	609
362.925	606
363.325	609.2
363.724	607.8
364.124	608
364.524	608
364.924	603.6
365.324	617
365.725	601
366.125	619
366.525	607
366.904	597.4
367.304	592.4
367.705	631.8
368.105	622.6
368.506	606.2
368.906	614.2
369.307	612.8
369.708	615.4
370.108	599
370.509	617.8
370.91	607.2
371.311	603.6
371.712	617.4
372.113	610.2
372.514	598.8
372.894	601.4
373.295	612.6
373.696	625.6
374.097	621.2
374.499	640.2
374.9	612.6
375.301	602.6
375.703	613.8
376.105	602.6
376.506	617.8
376.908	622.4
377.309	608.2
377.711	613.8
378.113	602.8
378.493	616
378.895	600.2
379.297	619.6
379.699	602.8
380.102	619.6
380.504	612
380.906	604.8
381.308	635
381.71	611.4
382.113	615.4
382.515	611.4
382.918	611.6
383.299	610.6
383.701	606.4
384.104	605.8
384.507	593
384.909	608.2
385.312	597
385.715	602.6
386.118	613.4
386.521	594.6
386.924	620
387.327	607
387.709	600
388.112	584.4
388.515	600.4
388.918	614.4
389.322	610.2
389.725	601
390.129	633.6
390.532	618.4
390.936	607
391.339	610.4
391.743	625
392.125	610.4
392.529	627.2
392.933	628
393.337	611
393.74	607.2
394.144	604.6
394.548	600.2
394.953	607.2
395.357	621.6
395.761	605.2
396.144	608.4
396.548	607.4
396.952	614.4
397.357	609
397.761	602.2
398.166	605.8
398.57	606.8
398.975	597.6
399.379	616.8
399.763	663.4
400.168	603.2
400.572	614.8
400.977	607
401.382	631
401.787	626
402.192	627.8
402.597	623
403.002	596.4
403.386	620.4
403.791	628.4
404.197	602.8
404.602	613
405.007	606.2
405.413	606
405.818	613.2
406.224	596.6
406.608	602.6
407.014	604.6
407.42	626.8
407.825	605.2
408.231	622
408.637	609.8
409.043	623
409.449	605.8
409.834	596.4
410.24	615.6
410.646	629.8
411.052	621.8
411.458	617.8
411.865	616.8
412.271	618
412.677	621.8
413.062	618.2
413.469	596.2
413.875	636.4
414.282	626.6
414.689	613.8
415.095	617
415.502	614
415.888	609.6
416.294	595.8
416.701	655
417.108	608
417.515	619.8
417.923	615.2
418.33	634
418.715	613.4
419.123	609.8
419.53	601.4
419.937	606.8
420.345	622.8
420.752	603.4
421.16	627.6
421.546	611.2
421.953	615.2
422.361	596.6
422.769	610.8
423.177	602.2
423.585	636.4
423.992	640.6
424.379	618.4
424.787	622.2
425.195	628.8
425.603	610.6
426.011	618.2
426.419	622.6
426.806	616.2
427.214	626.4
427.623	632.2
428.031	624
428.44	615.4
428.848	628.2
429.235	636.6
429.644	614.6
430.053	619
430.461	626.8
430.87	642.6
431.279	631
431.666	611.2
432.075	621.8
432.484	624.2
432.893	611.8
433.302	636.8
433.711	656.6
434.099	623
434.508	607.6
434.918	604
435.327	622.2
435.737	622
436.125	619.4
436.534	615
436.944	625.8
437.353	641
437.763	650.8
438.173	621.4
438.561	646.4
438.971	631.6
439.381	639.8
439.791	645.2
440.201	623
440.589	646.8
440.999	653.6
441.409	649.2
441.819	642.2
442.23	670.4
442.619	680.6
443.029	663
443.439	664
443.85	678.4
444.26	686.8
444.649	683.4
445.06	675
445.471	666
445.881	682.2
446.292	695.8
446.682	707
447.092	674.6
447.503	737.4
447.914	696.2
448.325	701.4
448.715	693
449.126	691.4
449.537	696
449.948	699.4
450.338	693.2
450.75	711.6
451.161	709.6
451.572	716.4
451.984	707.6
452.374	706
452.786	705
453.197	717.2
453.609	716.6
453.999	719.6
454.411	708.4
454.823	722
455.235	725
455.647	714.4
456.037	717.6
456.449	698.6
456.862	719.2
457.274	729.2
457.665	712.4
458.077	732.8
458.489	752.4
458.902	724.4
459.293	726
459.705	722.6
460.118	725.4
460.53	734.4
460.921	727.4
461.334	735.6
461.747	733.2
462.16	740.6
462.551	752.6
462.964	743.8
463.377	733.2
463.79	731.8
464.182	754.6
464.595	732
465.008	739.8
465.421	752.8
465.813	744.4
466.226	761
466.64	744.8
467.053	794.8
467.445	763.6
467.859	777.8
468.272	748.6
468.686	774.4
469.078	754.2
469.492	754.8
469.906	764.6
470.298	758.4
470.712	755
471.126	802.8
471.54	758.2
471.933	756.6
472.347	772.8
472.761	754.8
473.175	745.4
473.568	755.4
473.982	736
474.397	759.4
474.79	759.2
475.204	776.4
475.619	752.6
476.033	773.4
476.426	762.4
476.841	758.8
477.256	774.8
477.649	767
478.064	751
478.479	753
478.872	768.6
479.287	756
479.702	753.4
480.118	752.2
480.511	764
480.927	766
481.342	753.8
481.736	764.4
482.151	751.4
482.566	760.8
482.96	761.2
483.376	765.4
483.792	749.8
484.186	761.8
484.602	755.4
485.017	751
485.412	759.8
485.827	758.8
486.243	749
486.638	770.8
487.054	762.8
487.47	766
487.865	743.4
488.281	750.2
488.697	754
489.092	750
489.508	742.8
489.925	748.6
490.32	738
490.736	760
491.153	746.6
491.548	752.8
491.964	752.4
492.381	728
492.776	752.8
493.193	741.4
493.61	742.2
494.006	741
494.422	752.2
494.84	727.4
495.235	744.4
495.652	735.4
496.069	742.4
496.465	737
496.883	739.6
497.3	758.4
497.696	726
498.113	743.8
498.509	726
498.927	720.8
499.344	718.2
499.741	719.8
500.158	734.8
500.576	733.2
500.973	722.8
501.39	717.8
501.787	724.4
502.205	734.8
502.623	720
503.02	706
503.438	714.6
503.856	712.8
504.253	729
504.671	719.4
505.068	712.4
505.486	716.4
505.905	730.8
506.302	709.6
506.72	730
507.118	711.6
507.536	708.2
507.955	712.6
508.352	711
508.771	712.4
509.169	714.4
509.587	701
510.006	711.4
510.404	695.2
510.823	698.8
511.221	699
511.64	702
512.038	718.4
512.457	690.4
512.877	692.2
513.275	689.8
513.694	696.6
514.092	692
514.512	696.8
514.91	712.2
515.33	690.4
515.749	687.8
516.148	708
516.568	693
516.966	687.4
517.386	695
517.785	681.4
518.205	690.8
518.603	678.4
519.024	683.8
519.444	688.2
519.843	692.8
520.263	687.8
520.662	689.2
521.082	679.2
521.481	683.6
521.902	678.6
522.301	682
522.722	684.6
523.121	674.4
523.542	674.4
523.963	680.4
524.362	680.4
524.783	677.2
525.183	677.6
525.604	686
526.003	666.8
526.425	658.6
526.824	682
527.246	680.8
527.646	686.8
528.067	658.4
528.467	671.2
528.888	671.4
529.289	660.6
529.71	668.2
530.11	661.8
530.532	668
530.932	652.4
531.354	655.6
531.755	695.6
532.176	671
532.577	653.2
532.999	658.6
533.4	656
533.822	667.8
534.223	667
534.645	654.4
535.046	649.2
535.468	655
535.869	670.8
536.292	644.6
536.693	683.6
537.115	653.2
537.516	639.4
537.939	645.6
538.34	666.2
538.742	671.2
539.165	638.4
539.566	645.2
539.989	651.8
540.391	640.4
540.814	644.6
541.216	647.4
541.639	652
542.041	652.8
542.464	634.6
542.866	634.2
543.268	626
543.691	648.8
544.093	635.2
544.517	653.6
544.919	632.2
545.343	666.6
545.745	628.2
546.147	642.8
546.571	639.4
546.974	633
547.398	636.2
547.8	652
548.224	636.6
548.627	632
549.03	643
549.454	634.2
549.857	633.6
550.281	622.2
550.684	629
551.087	648.6
551.512	634.4
551.915	644
552.34	627.8
552.743	624.4
553.146	633.2
553.571	616.6
553.975	642
554.399	622.4
554.803	676.8
555.207	624.2
555.632	627.6
556.036	635.6
556.461	625.2
556.865	628.2
557.268	621.2
557.694	627.2
558.098	633.4
558.502	625.8
558.927	622.8
559.332	631
559.736	623.6
560.162	638.6
560.566	625
560.992	635.6
561.396	629.4
561.801	621.8
562.227	628
562.631	625
563.036	628.6
563.462	628.6
563.867	628.8
564.272	619
564.698	630
565.103	618.6
565.508	636
565.935	626
566.34	613.4
566.745	636.8
567.172	612.2
567.577	638
567.982	634.2
568.409	621.6
568.815	615.8
569.22	623.6
569.626	624.8
570.053	613.6
570.459	626.6
570.865	622
571.292	621.8
571.698	623.2
572.104	607.6
572.531	621.2
572.937	625.2
573.343	614.4
573.75	614.6
574.177	619.4
574.583	628.4
574.99	619
575.396	613
575.824	610.8
576.231	627.2
576.637	612.8
577.065	645.8
577.472	619.2
577.879	618
578.286	632.4
578.714	619.4
579.121	608.8
579.528	610.6
579.935	618.4
580.364	616.4
580.771	603.6
581.178	605.4
581.585	619.8
582.014	618.4
582.421	607.8
582.829	607.6
583.236	621.6
583.644	594
584.073	609
584.481	611.8
584.889	605.8
585.296	617
585.726	613.8
586.134	605.4
586.542	604.2
586.95	620.8
587.358	593.4
587.787	603.2
588.196	621
588.604	611
589.012	607.8
589.421	599.4
589.851	602.4
590.259	608.4
590.668	600.8
591.076	640.2
591.485	601.2
591.894	603.6
592.324	608.8
592.733	614.4
593.142	598.6
593.551	601.6
593.96	602.8
594.369	590.6
594.8	589.4
595.209	602
595.618	596.6
596.028	599.8
596.437	592.4
596.847	600.2
597.256	603.4
597.687	603.6
598.097	613
598.507	585.6
598.917	605.6
599.327	609
599.736	604.6
600.146	611.4
600.556	610.2
600.988	616.2
601.398	597.8
601.808	614.6
602.219	594
602.629	605.4
603.039	599
603.45	628
603.86	602.2
604.271	615
604.703	600
605.114	600.8
605.525	606.4
605.935	606
606.346	615.8
606.757	605
607.168	602.6
607.579	591.4
607.99	613
608.402	597.4
608.813	602.2
609.224	589
609.636	597.4
610.047	598.2
610.48	599.8
610.892	609.4
611.303	607.4
611.715	601.8
612.127	596
612.539	596
612.95	601.2
613.362	594
613.774	588.4
614.186	584.8
614.599	590.6
615.011	604.6
615.423	601.4
615.835	599.8
616.248	593
616.66	603.2
617.073	587.2
617.485	595.6
617.898	605.4
618.311	601.4
618.723	597.4
619.136	625
619.549	612.4
619.962	617.8
620.375	599
620.788	606.4
621.201	588.8
621.614	604.6
622.028	593.4
622.441	601.8
622.854	610.2
623.268	601.2
623.681	600.2
624.095	591.8
624.509	602.2
624.922	600.6
625.336	589.6
625.728	604
626.142	602.8
626.556	599.8
626.97	602.6
627.384	596.6
627.799	589.4
628.213	605.6
628.627	591.6
629.041	594.2
629.456	595.2
629.87	595.8
630.285	610.8
630.699	610.8
631.093	603.2
631.507	596.4
631.922	593.6
632.337	608.4
632.752	583.2
633.167	591.8
633.582	594
633.997	592
634.412	591.2
634.806	599.4
635.221	581.8
635.637	606.2
636.052	582
636.468	595.6
636.883	619.8
637.299	593.4
637.715	581.6
638.109	590.8
638.525	581.4
638.941	599.2
639.357	597.2
639.773	604.8
640.189	580.8
640.584	586.2
641	580.4
641.416	578.6
641.832	583
642.249	587
642.665	590.8
643.06	599.2
643.477	599.4
643.894	576.2
644.31	597
644.727	586.6
645.123	598.8
645.54	584.8
645.957	593.6
646.374	599
646.77	598.2
647.187	625
647.604	587
648.021	579
648.439	587.2
648.835	587.2
649.252	595.2
649.67	583.6
650.088	587.4
650.484	594.4
650.902	590.6
651.32	596.6
651.738	583.2
652.134	583.4
652.552	607.6
652.971	598.8
653.389	594.4
653.786	600.2
654.204	609.4
654.622	586.6
655.019	596.6
655.438	598.6
655.857	599
656.275	585.8
656.673	587
657.091	602.8
657.51	590.6
657.908	601
658.327	605.8
658.746	590.2
659.144	597.8
659.563	604.4
659.982	598.8
660.38	585.8
660.8	591
661.219	593.2
661.617	601.8
662.037	591.8
662.457	609.4
662.855	590.8
663.275	618.2
663.695	590.6
664.094	593
664.514	587.8
664.934	582.4
665.333	595.6
665.753	593
666.152	586.2
666.572	577.6
666.993	609.8
667.392	601.2
667.812	595
668.212	593.2
668.632	608.4
669.053	588.4
669.453	596.2
669.874	586.2
670.273	598
670.694	584.4
671.116	598.2
671.515	595.2
671.937	589.8
672.337	589.8
672.758	587
673.158	595.8
673.58	581.8
673.98	593.2
674.402	599.8
674.824	583.6
675.224	590
675.646	583.4
676.047	587.8
676.469	591.8
676.869	597
677.292	594.4
677.693	581.2
678.115	589.4
678.516	596.6
678.939	594
679.34	593.8
679.762	607.2
680.164	598.2
680.586	584
680.988	598
681.411	614.8
681.812	581.6
682.236	582.4
682.637	585.4
683.061	574.8
683.462	588.8
683.864	589.8
684.288	598.4
684.69	588.6
685.114	596.4
685.516	596.4
685.94	577.2
686.342	602
686.766	587.6
687.168	587.6
687.571	610.4
687.995	589.2
688.398	587.8
688.822	589
689.225	603.2
689.628	610
690.052	592
690.456	599.2
690.88	587.2
691.284	583
691.687	594
692.112	572
692.515	572.8
692.919	580.2
693.344	589.2
693.747	594.2
694.173	586
694.577	607.2
694.98	583.4
695.406	584.2
695.81	591.6
696.214	595.4
696.64	598.8
697.044	589.2
697.448	602.4
697.874	596.8
698.279	587.4
698.684	576.4
699.11	585.2
699.514	584.2
699.919	585.2
700.324	579.2
700.75	585.4
701.156	584.8
701.561	595.4
701.987	594.4
702.393	594.2
702.798	593.8
703.203	590
703.63	583
704.036	586.6
704.442	591
704.847	588.6
705.274	582.6
705.68	592.2
706.086	597
706.492	579.8
706.92	581
707.326	592
707.732	585.6
708.139	580.8
708.545	581.4
708.973	578
709.38	584.2
709.786	579.8
710.193	604.8
710.6	587.2
711.028	581.4
711.435	584.2
711.842	589.8
712.249	588.6
712.656	587.6
713.064	600.2
713.492	584
713.9	590.4
714.307	586
714.715	596.8
715.123	593
715.53	587.6
715.938	596.6
716.367	591.6
716.775	585.4
717.184	580.6
717.592	588.4
718	602.8
718.408	626.6
718.816	629.8
719.225	591.4
719.633	587.6
720.042	585.2
720.472	587.6
720.881	605.8
721.29	594.2
721.699	572.8
722.108	588.4
722.517	597.4
722.926	586.4
723.335	597.2
723.744	593.8
724.154	591.8
724.563	598.6
724.973	596.4
725.382	585.6
725.792	584.8
726.202	586.4
726.612	607.2
727.022	587.4
727.432	582.2
779.813	585
780.223	629.8
780.634	581.8
781.044	582.6
781.454	581.2
781.865	598.2
782.276	580.2
782.686	600.2
783.097	588.4
783.508	579.8
783.919	586.2
784.33	593
784.741	607.4
785.152	577.8
785.563	572.6
785.974	590
786.386	598.2
786.776	582.8
787.188	587.2
787.599	571.2
788.011	589.6
788.423	586.2
788.835	574.6
789.247	554.2
789.659	568.2
790.071	568.4
790.483	622.8
790.874	577.8
791.286	585
791.699	575.2
792.111	583.8
792.524	581.4
792.937	584.8
793.349	573.8
793.741	576
794.154	578.8
794.567	595.2
794.98	579.4
795.393	568.6
795.785	601.2
796.198	579.4
796.612	581
797.026	577.8
797.439	563.4
797.831	578
798.245	576.6
798.659	578.4
799.073	572.4
799.487	571
799.88	577.2
800.294	581
800.708	590.4
801.123	591
801.516	604.4
801.93	574.8
802.345	571.6
802.76	587.2
803.153	599.4
803.568	594.8
803.983	589.8
804.377	577.8
804.792	572
805.207	568.6
805.601	585
806.016	617.6
806.432	579.4
806.826	611
807.242	602.4
807.658	592.2
808.052	577
808.468	584.4
808.884	580
809.279	587.2
809.695	596.4
810.111	611.2
810.506	581
810.922	607
811.339	577.2
811.734	590.2
812.151	581.4
812.546	578.8
812.963	578.8
813.38	589.4
813.776	590.2
814.193	606.2
814.589	580.6
815.006	584.4
815.402	567.6
815.82	577.6
816.237	587
816.633	593.2
817.051	581.6
817.448	588
817.866	572.2
818.262	605.8
818.68	581
819.077	578
819.495	584.2
819.892	624.4
820.311	576.8
820.708	586.6
821.127	582.6
821.524	596.4
821.943	585.4
822.34	596.4
822.759	590.2
823.157	586.6
823.576	591.6
823.974	587.6
824.393	602.8
824.791	580.2
825.189	572.6
825.609	584.8
826.007	579.8
826.427	568.6
826.826	576.4
827.246	582.6
827.644	567
828.043	587.4
828.463	583.6
828.862	588.4
829.261	594.8
829.682	580.8
830.081	588
830.502	580.2
830.901	582
831.301	592
831.722	573.8
832.121	583.6
832.521	577.8
832.943	593
833.342	585.2
833.742	572.8
834.164	574
834.564	572.4
834.965	590.8
835.386	574.2
835.787	591
836.188	586.2
836.588	579.6
837.01	583
837.411	576.2
837.812	588.6
838.213	584.8
838.636	572.2
839.037	651
839.438	588.4
839.84	585.8
840.263	588
840.664	592.8
841.066	581.6
841.468	586.4
841.891	576.2
842.293	597.8
842.695	588.8
843.098	592.8
843.5	582.2
843.902	585.4
844.326	595.6
844.729	589.4
845.131	598.6
845.534	587.2
845.937	591.2
846.34	599.8
846.764	580.8
847.167	592.4
847.571	575
847.974	577.6
848.377	589
848.781	628.8
849.184	597.6
849.588	592
849.992	581.8
850.396	588.8
850.821	599.2
851.225	582
851.63	588.2
852.034	610.8
852.438	585.8
852.843	618.4
853.247	570.2
853.652	575.8
854.057	601
854.462	588.4
854.867	586.8
855.272	620
855.677	587.6
856.082	580.6
856.487	573
856.893	586.6
