#lambda/nm	C1
208.295	509.8
208.67	473.4
209.045	433.8
209.419	430
209.794	618
210.169	605.2
210.544	716.8
210.919	626
211.295	609.2
211.67	621.2
212.045	614.4
212.421	608.6
212.796	654.8
213.172	609.4
213.547	617
213.923	615
214.299	612.2
214.675	617.8
215.051	624.2
215.427	623
215.803	634.6
216.179	622.6
216.555	609
216.932	627
217.308	615.8
217.684	607.2
218.061	617.2
218.438	622.2
218.814	612.4
219.191	628.2
219.568	606
219.945	609.6
220.322	618.8
220.699	619.6
221.076	623.6
221.453	623
221.83	610.2
222.208	603.8
222.585	617.4
222.962	616.6
223.34	625.6
223.717	619.4
224.095	611.6
224.473	613
224.851	614.4
225.229	604
225.607	637.8
225.985	607.2
226.363	619.4
226.741	612.4
227.119	614.6
227.497	624.2
227.876	602.2
228.254	618.4
228.633	618.6
229.011	613.6
229.39	627.6
229.769	620.6
230.148	622.8
230.527	627.2
230.905	615.2
231.284	620.6
231.664	616.4
232.043	619.8
232.422	617.2
232.801	610.2
233.181	629.6
233.56	612
233.94	613.8
234.319	599.2
234.699	609.6
235.079	657.2
235.458	651.6
235.838	635
236.218	607.6
236.598	605.8
236.978	614.8
237.358	608.8
237.738	609.8
238.119	618.2
238.499	601
238.88	613.8
239.26	632.6
239.641	608.4
240.021	606.8
240.402	620.8
240.783	620.4
241.163	611
241.544	614.4
241.925	612.8
242.306	634.6
242.687	626.4
243.069	609.6
243.45	628.4
243.831	601.2
244.212	619
244.594	651
244.975	622.8
245.357	623
245.739	619.6
246.12	626
246.502	628.6
246.884	616.2
247.266	611.2
247.648	618.6
248.03	636.8
248.412	617
248.794	621.6
249.176	608
249.559	625.8
249.941	614.4
250.323	607.2
250.706	619.2
251.089	619.8
251.471	623.8
251.854	615.4
252.237	619.4
252.62	625.6
253.002	615.2
253.385	616.8
253.769	631.8
254.152	617.8
254.535	625.8
254.918	614.4
255.301	616
255.685	620.4
256.068	608.4
256.452	635.6
256.835	626
257.219	625.2
257.603	628
257.986	609.6
258.37	629.8
258.754	602.2
259.138	620.8
259.522	623.8
259.906	609.2
260.29	617
260.675	613.6
261.059	620.8
261.443	610.8
261.828	622.8
262.212	616.4
262.597	619.6
262.981	617
263.366	622.8
263.751	615
264.136	616.8
264.521	612.4
264.906	604.8
265.291	622.4
265.676	609.6
266.061	617
266.446	637.2
266.831	612.6
267.217	634.8
267.602	616
267.987	628.6
268.373	625.6
268.759	629
269.144	617.4
269.53	616.4
269.916	615.8
270.302	611.6
270.688	617.6
271.074	620
271.46	633
271.846	644
272.232	616.2
272.618	612.6
273.004	616.4
273.391	618.8
273.777	635
274.164	617
274.55	616
274.937	615
275.324	616.8
275.71	625
276.097	625.6
276.484	603.4
276.871	621.6
277.258	621
277.645	605.2
278.032	616.6
278.419	601.2
278.807	626.2
279.194	614.2
279.581	612.8
279.969	624.6
280.356	616.8
280.744	621.6
281.131	642.2
281.519	626.4
281.907	611.4
282.295	619
282.682	632.2
283.07	627.2
283.458	628
283.846	625.8
284.235	627.8
284.623	623
285.011	607.8
285.399	624.4
285.788	615.8
286.176	614.8
286.565	636.6
286.953	614.4
287.342	599
287.731	615.6
288.119	610.4
288.508	620.6
288.897	619.8
289.286	605.6
289.675	618.6
290.064	621
290.453	614.6
290.821	617.4
291.21	631.8
291.599	613.4
291.989	608.2
292.378	622
292.768	628
293.157	626.4
293.547	623.6
293.936	616.6
294.326	614.2
294.716	621
295.106	615.2
295.496	626.2
295.886	625.2
296.276	625.4
296.666	603.8
297.056	608.4
297.446	597.4
297.836	636
298.227	613.4
298.617	612.2
299.008	629.2
299.398	606
299.789	615.2
300.179	616.8
300.57	638.6
300.961	607.4
301.352	613.8
301.742	627
302.133	617.6
302.524	617.8
302.915	611.2
303.307	600.2
303.698	623
304.089	624
304.48	598.4
304.872	623
305.263	612.4
305.655	616.2
306.046	631.6
306.438	618.2
306.829	605.6
307.221	634.4
307.613	616.8
308.005	628.6
308.397	634
308.789	634.8
309.181	644.2
309.573	639.8
309.965	635.8
310.357	615
310.749	632
311.142	607.2
311.534	612.2
311.926	628.2
312.319	622.2
312.711	619.4
313.104	631.8
313.497	619.4
313.889	651.6
314.282	644
314.675	638
315.068	625.6
315.461	620.2
315.854	649.6
316.247	631.2
316.64	618.2
317.033	620
317.405	632.4
317.798	616.6
318.192	620.8
318.585	610.8
318.979	626.6
319.372	615.4
319.766	620.4
320.16	631.4
320.553	636.2
320.947	636.4
321.341	618
321.735	608
322.129	601.2
322.523	635.8
322.917	607.6
323.311	630
323.705	620
324.099	628.2
324.494	632.6
324.888	633.6
325.282	613.8
325.677	632
326.071	622.6
326.466	629.2
326.861	619.4
327.255	624.2
327.65	628.8
328.045	630.6
328.44	627
328.835	615
329.23	614.8
329.625	639.6
330.02	613.6
330.415	643
330.81	611.4
331.206	617.2
331.601	610.4
331.996	634.2
332.37	642.2
332.766	602
333.161	641.6
333.557	606.6
333.953	617.8
334.348	900.4
334.744	617.2
335.14	606.6
335.536	622.4
335.932	632.8
336.328	614
336.724	626.8
337.12	622.4
337.516	625
337.913	620.2
338.309	633
338.705	616.6
339.102	625.8
339.498	616.6
339.895	631
340.291	615
340.688	623.6
341.085	616
341.481	622.2
341.878	615.8
342.275	632
342.672	611.2
343.069	617.6
343.466	604.4
343.842	617
344.239	613.6
344.636	611.6
345.033	606.6
345.431	611.2
345.828	611.6
346.225	610.2
346.623	644.6
347.02	616.6
347.418	619
347.816	636.2
348.213	608.2
348.611	625.6
349.009	612.8
349.407	622.6
349.805	606.4
350.203	607.8
350.601	628.6
350.999	609.4
351.397	667
351.795	619
352.193	617.2
352.57	620.2
352.969	629.4
353.367	598.6
353.766	607.8
354.164	610.6
354.563	624.6
354.961	614.6
355.36	607.2
355.759	611.4
356.158	600.8
356.557	606.4
356.956	599.8
357.355	606.4
357.754	615.8
358.153	609.6
358.552	633.8
358.951	616.2
359.35	622
359.75	601
360.149	602.4
360.527	602
360.926	602
361.326	611.6
361.726	607.4
362.125	602.4
362.525	611.8
362.925	608.2
363.325	620.4
363.724	610
364.124	602.8
364.524	610.4
364.924	610
365.324	631
365.725	598.8
366.125	613
366.525	609.8
366.904	607.6
367.304	592
367.705	623.2
368.105	629.8
368.506	600.2
368.906	609.8
369.307	620.6
369.708	612.6
370.108	601
370.509	618.8
370.91	604.4
371.311	606.2
371.712	607
372.113	605.6
372.514	595
372.894	609
373.295	603
373.696	617
374.097	623
374.499	632.6
374.9	608.8
375.301	600.6
375.703	610.2
376.105	603
376.506	616.4
376.908	618.2
377.309	609.8
377.711	609.6
378.113	602.2
378.493	611.8
378.895	604.2
379.297	616.2
379.699	600.8
380.102	611.6
380.504	604.2
380.906	605.2
381.308	638.4
381.71	606.8
382.113	614
382.515	612.4
382.918	615.4
383.299	608.4
383.701	613
384.104	609.2
384.507	589.8
384.909	610.6
385.312	593.6
385.715	594.8
386.118	606.8
386.521	596.8
386.924	618
387.327	598.6
387.709	594
388.112	597.4
388.515	606.6
388.918	613.2
389.322	611.6
389.725	601.6
390.129	634.6
390.532	616.6
390.936	601.6
391.339	607
391.743	613.2
392.125	600
392.529	615.2
392.933	623.6
393.337	606
393.74	610.4
394.144	605
394.548	599.4
394.953	609.4
395.357	615.2
395.761	593.4
396.144	604.4
396.548	600.4
396.952	605
397.357	604.2
397.761	603
398.166	604
398.57	606
398.975	588.8
399.379	605.2
399.763	657
400.168	606.2
400.572	601.8
400.977	610.8
401.382	630
401.787	613.2
402.192	620.2
402.597	612.4
403.002	592
403.386	628.8
403.791	624
404.197	608.6
404.602	608.2
405.007	607
405.413	607.4
405.818	603.6
406.224	601.8
406.608	611.6
407.014	603.2
407.42	617.8
407.825	604.8
408.231	608.4
408.637	610.8
409.043	620.8
409.449	605.2
409.834	604.8
410.24	607.4
410.646	628
411.052	616.4
411.458	609.6
411.865	622
412.271	613.2
412.677	613.4
413.062	615.2
413.469	593.4
413.875	629
414.282	619.6
414.689	619.2
415.095	625.6
415.502	610.6
415.888	614
416.294	602.6
416.701	648.6
417.108	599
417.515	614
417.923	610.6
418.33	635.2
418.715	619.2
419.123	607.2
419.53	611
419.937	618
420.345	616
420.752	611
421.16	624.8
421.546	608.8
421.953	630.2
422.361	605.2
422.769	609.4
423.177	601.2
423.585	632.2
423.992	625.2
424.379	615.8
424.787	620
425.195	641.8
425.603	605.2
426.011	620.8
426.419	617
426.806	613.6
427.214	605.6
427.623	623.6
428.031	626.4
428.44	612.8
428.848	623.8
429.235	630.2
429.644	607.4
430.053	608.2
430.461	632.4
430.87	635.6
431.279	621
431.666	603.4
432.075	610
432.484	612
432.893	614.6
433.302	643
433.711	655.2
434.099	631.4
434.508	619
434.918	606.4
435.327	631.2
435.737	626.4
436.125	632.4
436.534	626.8
436.944	621.8
437.353	638.2
437.763	654.6
438.173	632.6
438.561	652.4
438.971	632.8
439.381	642.4
439.791	665.4
440.201	636.8
440.589	665.2
440.999	674.8
441.409	676
441.819	665
442.23	680.6
442.619	692
443.029	682.2
443.439	685.6
443.85	698.8
444.26	706.6
444.649	704
445.06	701.6
445.471	697.6
445.881	699.4
446.292	724.4
446.682	737.2
447.092	699
447.503	769.8
447.914	724.4
448.325	718.4
448.715	729.6
449.126	714.4
449.537	726
449.948	725.4
450.338	727.6
450.75	736.4
451.161	728.8
451.572	741.2
451.984	736.6
452.374	720.6
452.786	735.6
453.197	749.4
453.609	752.2
453.999	721.6
454.411	737.6
454.823	753
455.235	756.8
455.647	736.6
456.037	751.2
456.449	743.6
456.862	751.2
457.274	762.6
457.665	744
458.077	762
458.489	788
458.902	761.4
459.293	763.6
459.705	765
460.118	751
460.53	763.2
460.921	763.4
461.334	769
461.747	767
462.16	781.4
462.551	774
462.964	775.6
463.377	760.6
463.79	768
464.182	784.4
464.595	765.8
465.008	776.6
465.421	778.2
465.813	770
466.226	778.6
466.64	777.8
467.053	820.6
467.445	785
467.859	788
468.272	790.4
468.686	807.8
469.078	786.2
469.492	769.8
469.906	781.2
470.298	784.2
470.712	773.2
471.126	827.4
471.54	771.6
471.933	773.4
472.347	774.6
472.761	778.8
473.175	781
473.568	794
473.982	778.6
474.397	784
474.79	790.4
475.204	798.6
475.619	791.6
476.033	787.8
476.426	788.2
476.841	783.6
477.256	805.6
477.649	776.6
478.064	771.8
478.479	781.2
478.872	789.2
479.287	772
479.702	775
480.118	786.4
480.511	779.4
480.927	784.6
481.342	790.2
481.736	791.4
482.151	776.8
482.566	788.6
482.96	788.2
483.376	791.4
483.792	772.6
484.186	789.4
484.602	775.8
485.017	786.4
485.412	786.6
485.827	781.4
486.243	771
486.638	809
487.054	782.6
487.47	787
487.865	769.6
488.281	774.6
488.697	769
489.092	775.8
489.508	763.2
489.925	779.2
490.32	767.8
490.736	765.4
491.153	770.6
491.548	762.4
491.964	775
492.381	757.4
492.776	770.6
493.193	754.6
493.61	767.6
494.006	761.4
494.422	767.8
494.84	750.2
495.235	759
495.652	752.8
496.069	743
496.465	746.2
496.883	752.2
497.3	771.8
497.696	744.6
498.113	755.6
498.509	738
498.927	733.2
499.344	741.2
499.741	739.4
500.158	753.2
500.576	757.4
500.973	745.2
501.39	739.4
501.787	732.2
502.205	742.6
502.623	734.8
503.02	721.2
503.438	725.4
503.856	730
504.253	730.4
504.671	733.8
505.068	735.6
505.486	733.6
505.905	742.4
506.302	730.2
506.72	735
507.118	723.4
507.536	728.2
507.955	712.2
508.352	731.6
508.771	734.6
509.169	730.8
509.587	720.8
510.006	727
510.404	712.4
510.823	710.4
511.221	708
511.64	704
512.038	721.8
512.457	714
512.877	719.6
513.275	705.8
513.694	703.2
514.092	699
514.512	711.8
514.91	708.6
515.33	698.6
515.749	694.8
516.148	703.4
516.568	704.8
516.966	705
517.386	699
517.785	705.8
518.205	687
518.603	683.8
519.024	682.2
519.444	697.2
519.843	704.2
520.263	717.8
520.662	697.4
521.082	689.6
521.481	687
521.902	689
522.301	683
522.722	692.8
523.121	678
523.542	677.6
523.963	680.6
524.362	673.2
524.783	684.2
525.183	681
525.604	679.6
526.003	672
526.425	672.8
526.824	684
527.246	672.8
527.646	680.2
528.067	683.8
528.467	671.4
528.888	677.4
529.289	671.8
529.71	671.6
530.11	661.8
530.532	668
530.932	664
531.354	664.4
531.755	691
532.176	673.6
532.577	667.2
532.999	677
533.4	655
533.822	672
534.223	674.4
534.645	665.6
535.046	667.2
535.468	663.2
535.869	673.8
536.292	661.8
536.693	696
537.115	671
537.516	657.8
537.939	655
538.34	681.4
538.742	676.6
539.165	658.2
539.566	660.8
539.989	655.4
540.391	649.8
540.814	665.4
541.216	655.2
541.639	653.6
542.041	665.2
542.464	647.8
542.866	649.4
543.268	641.2
543.691	660.8
544.093	664.2
544.517	668.2
544.919	645.4
545.343	665.2
545.745	639.4
546.147	648.4
546.571	652.2
546.974	637.4
547.398	642
547.8	654.6
548.224	645.6
548.627	641
549.03	646.2
549.454	633.8
549.857	633.8
550.281	631.6
550.684	635.4
551.087	659.8
551.512	637.8
551.915	648
552.34	643.8
552.743	634.2
553.146	642.6
553.571	637.2
553.975	659.2
554.399	627.2
554.803	684.8
555.207	634.8
555.632	634
556.036	644.6
556.461	634.2
556.865	634.6
557.268	633.4
557.694	635.8
558.098	634
558.502	636.8
558.927	630
559.332	626.8
559.736	633.2
560.162	629
560.566	635.2
560.992	634.6
561.396	634.6
561.801	627.2
562.227	633.8
562.631	628.4
563.036	629.6
563.462	636.8
563.867	620.8
564.272	612.8
564.698	633.6
565.103	614.8
565.508	639.6
565.935	624.8
566.34	621.6
566.745	638
567.172	639
567.577	649
567.982	633.8
568.409	624.6
568.815	611.4
569.22	625.8
569.626	631
570.053	603.4
570.459	631.2
570.865	628.6
571.292	624.6
571.698	627.2
572.104	612.2
572.531	617.8
572.937	626.2
573.343	625
573.75	618.8
574.177	622.4
574.583	624.8
574.99	616.6
575.396	619.6
575.824	617
576.231	626
576.637	614.6
577.065	643.4
577.472	616.6
577.879	619.2
578.286	633
578.714	607.2
579.121	622.2
579.528	617.6
579.935	628.6
580.364	612.4
580.771	596.6
581.178	602
581.585	624.4
582.014	626
582.421	606.4
582.829	608.6
583.236	625
583.644	608
584.073	607.8
584.481	610.6
584.889	607.2
585.296	615
585.726	619.4
586.134	606.4
586.542	609.2
586.95	624.8
587.358	598
587.787	614.6
588.196	618.2
588.604	614
589.012	606.6
589.421	594.2
589.851	595
590.259	604
590.668	595.4
591.076	640.8
591.485	599
591.894	607.4
592.324	619.8
592.733	611.6
593.142	597.8
593.551	604.4
593.96	626.6
594.369	600.8
594.8	595
595.209	606.4
595.618	589.4
596.028	603.4
596.437	598.8
596.847	600.2
597.256	608
597.687	597.6
598.097	607
598.507	587
598.917	606.2
599.327	613
599.736	603.2
600.146	620
600.556	599.4
600.988	608.4
601.398	593.8
601.808	614.4
602.219	595.6
602.629	603
603.039	610.8
603.45	633
603.86	603.8
604.271	621.2
604.703	602.6
605.114	599.6
605.525	600.4
605.935	603.4
606.346	624.2
606.757	603.2
607.168	607.2
607.579	595.6
607.99	614.8
608.402	595.6
608.813	600.6
609.224	598.6
609.636	589.6
610.047	600
610.48	604.8
610.892	603.2
611.303	613.6
611.715	591.8
612.127	593.8
612.539	602.6
612.95	606
613.362	595.2
613.774	594.2
614.186	599.6
614.599	601.4
615.011	610
615.423	601.4
615.835	602
616.248	586.8
616.66	602.6
617.073	586.6
617.485	599.2
617.898	608.6
618.311	601.8
618.723	597.6
619.136	627.8
619.549	621
619.962	620.2
620.375	588.4
620.788	603
621.201	588.6
621.614	595.8
622.028	601.6
622.441	598.6
622.854	613.8
623.268	581.8
623.681	601.8
624.095	600.4
624.509	609.6
624.922	603.6
625.336	585.6
625.728	597
626.142	607.8
626.556	614.8
626.97	597.2
627.384	599.6
627.799	598.2
628.213	606.4
628.627	594.2
629.041	601.6
629.456	602.2
629.87	612.4
630.285	609.2
630.699	612
631.093	599.8
631.507	591.8
631.922	607.4
632.337	611.6
632.752	589.8
633.167	598.8
633.582	595.6
633.997	593
634.412	588.2
634.806	599.4
635.221	597.8
635.637	606.4
636.052	591.6
636.468	596
636.883	612.6
637.299	593.6
637.715	588.4
638.109	601
638.525	589
638.941	609.4
639.357	599.2
639.773	605.8
640.189	591
640.584	598.4
641	606.2
641.416	588.4
641.832	599
642.249	592.8
642.665	593.2
643.06	599
643.477	610.2
643.894	586.4
644.31	595.2
644.727	591
645.123	595
645.54	584.8
645.957	588.6
646.374	600
646.77	595
647.187	624
647.604	592.6
648.021	584
648.439	591.2
648.835	607
649.252	587.6
649.67	596.2
650.088	594.2
650.484	597.2
650.902	592.4
651.32	606.6
651.738	586.2
652.134	593.4
652.552	614.8
652.971	600.8
653.389	594.4
653.786	613.2
654.204	620.2
654.622	593
655.019	596.4
655.438	604.2
655.857	607.2
656.275	606.6
656.673	594.4
657.091	602.6
657.51	584.2
657.908	615
658.327	614.4
658.746	582.2
659.144	597.2
659.563	598.8
659.982	596.2
660.38	584.8
660.8	599.2
661.219	603.8
661.617	603.6
662.037	597.6
662.457	601.2
662.855	579.4
663.275	632.6
663.695	592.2
664.094	593.6
664.514	592.6
664.934	586.2
665.333	601
665.753	591.4
666.152	581.6
666.572	586.8
666.993	609
667.392	593.4
667.812	582.4
668.212	592.6
668.632	602
669.053	591.4
669.453	593.6
669.874	594.2
670.273	598
670.694	587.8
671.116	603.6
671.515	602.4
671.937	588.6
672.337	584.8
672.758	588
673.158	602.6
673.58	587
673.98	587.8
674.402	602.4
674.824	584.6
675.224	592.4
675.646	587.2
676.047	585.4
676.469	600.2
676.869	597.6
677.292	592.8
677.693	589.6
678.115	590.4
678.516	601.6
678.939	601.2
679.34	592
679.762	603.2
680.164	596.2
680.586	581.4
680.988	600.2
681.411	612.4
681.812	585.6
682.236	588.6
682.637	588.6
683.061	581.8
683.462	590.6
683.864	581
684.288	594.6
684.69	586.4
685.114	598.4
685.516	596
685.94	579
686.342	599.2
686.766	583
687.168	581
687.571	604.4
687.995	582.4
688.398	581.4
688.822	582.8
689.225	603.6
689.628	593
690.052	579
690.456	582.4
690.88	585.2
691.284	576.6
691.687	596.2
692.112	573.6
692.515	579.4
692.919	582
693.344	585.6
693.747	581.6
694.173	577.8
694.577	600.4
694.98	587.8
695.406	586.4
695.81	588
696.214	592.4
696.64	596.8
697.044	591.8
697.448	591.4
697.874	592.8
698.279	586.8
698.684	580.8
699.11	586.2
699.514	588.2
699.919	586.6
700.324	573.2
700.75	589.4
701.156	585.4
701.561	601
701.987	592.8
702.393	593.2
702.798	593.8
703.203	600.6
703.63	595.8
704.036	586.2
704.442	592.2
704.847	582.2
705.274	592
705.68	595.2
706.086	603.8
706.492	579.8
706.92	582.2
707.326	593.4
707.732	587.6
708.139	576.2
708.545	581
708.973	592
709.38	588.4
709.786	578
710.193	600.6
710.6	587.8
711.028	576.6
711.435	590.6
711.842	595.8
712.249	581.6
712.656	580.8
713.064	598.2
713.492	582.8
713.9	588.4
714.307	591.8
714.715	584.4
715.123	591.4
715.53	585.4
715.938	598.6
716.367	583.4
716.775	583.6
717.184	576.2
717.592	581.4
718	596
718.408	619
718.816	626.8
719.225	583
719.633	588.4
720.042	575.4
720.472	581
720.881	601.2
721.29	590
721.699	580
722.108	589.6
722.517	587.4
722.926	579.8
723.335	597.4
723.744	583.8
724.154	589.6
724.563	589
724.973	590.2
725.382	584.2
725.792	589
726.202	581.4
726.612	609
727.022	588.8
727.432	585.8
779.813	581.4
780.223	621.8
780.634	579.2
781.044	580.6
781.454	582
781.865	598.8
782.276	578.4
782.686	604.6
783.097	590.8
783.508	585.4
783.919	591
784.33	598.2
784.741	596.2
785.152	579.2
785.563	573.4
785.974	579
786.386	592
786.776	583
787.188	583.6
787.599	578.8
788.011	594
788.423	589.4
788.835	583.6
789.247	577.4
789.659	578.8
790.071	571.6
790.483	625.8
790.874	578.4
791.286	591.8
791.699	578.8
792.111	584.4
792.524	589.2
792.937	584.8
793.349	579.4
793.741	577.6
794.154	586.6
794.567	606.8
794.98	582.2
795.393	582.4
795.785	597.6
796.198	576
796.612	593
797.026	584.4
797.439	569
797.831	580.4
798.245	577.8
798.659	585.2
799.073	576.4
799.487	579
799.88	585.8
800.294	579.6
800.708	589.4
801.123	589.8
801.516	604.2
801.93	575.6
802.345	571.6
802.76	585
803.153	597.8
803.568	605.6
803.983	593.4
804.377	581.4
804.792	579.6
805.207	577.4
805.601	583.4
806.016	615.4
806.432	572.8
806.826	614.8
807.242	594.6
807.658	588.4
808.052	586
808.468	582.8
808.884	588.6
809.279	589.2
809.695	596.2
810.111	606.6
810.506	588.6
810.922	604.8
811.339	581.2
811.734	587.6
812.151	573
812.546	580.2
812.963	580.4
813.38	588.2
813.776	576
814.193	607.4
814.589	579.2
815.006	573.2
815.402	583.2
815.82	569.8
816.237	579.8
816.633	592
817.051	572.2
817.448	585
817.866	569.2
818.262	602
818.68	574.6
819.077	581.4
819.495	583.2
819.892	617.2
820.311	582.2
820.708	577.2
821.127	570.8
821.524	590.8
821.943	594
822.34	600
822.759	593
823.157	583.6
823.576	607.4
823.974	596.4
824.393	604.2
824.791	580.8
825.189	581.4
825.609	575.4
826.007	585
826.427	569.8
826.826	581.6
827.246	581.6
827.644	568.8
828.043	596.2
828.463	579.4
828.862	588.2
829.261	592.2
829.682	579
830.081	595.8
830.502	576.4
830.901	584.4
831.301	601.4
831.722	567.4
832.121	582.2
832.521	577.8
832.943	577.4
833.342	583
833.742	580.2
834.164	577.2
834.564	573.2
834.965	580.6
835.386	582
835.787	575.2
836.188	575
836.588	580
837.01	582.2
837.411	575
837.812	579.8
838.213	593.8
838.636	578.6
839.037	647.6
839.438	583.4
839.84	580.2
840.263	590.2
840.664	584.8
841.066	583.6
841.468	586.2
841.891	578.8
842.293	587.6
842.695	581.6
843.098	602.4
843.5	584.8
843.902	589.4
844.326	590
844.729	594.4
845.131	595.6
845.534	585
845.937	593.8
846.34	605.4
846.764	575
847.167	590
847.571	582.2
847.974	591.8
848.377	578.6
848.781	634
849.184	595
849.588	580.2
849.992	579.8
850.396	593.2
850.821	603.2
851.225	587.4
851.63	578.2
852.034	592.8
852.438	586.4
852.843	610.6
853.247	574.8
853.652	578.6
854.057	607.8
854.462	590.8
854.867	588.8
855.272	615
855.677	588.6
856.082	570.8
856.487	577.6
856.893	589.4
857.298	577.8
857.704	571
