#lambda/nm	C1
208.295	509.8
208.67	469.6
209.045	430.6
209.419	429.6
209.794	612.2
210.169	595.8
210.544	724.2
210.919	627
211.295	608.4
211.67	623.6
212.045	618.6
212.421	606.2
212.796	654.4
213.172	611.6
213.547	608.8
213.923	618.8
214.299	606.8
214.675	619.2
215.051	619.6
215.427	628.2
215.803	640.8
216.179	618
216.555	600.4
216.932	629.8
217.308	612.2
217.684	615
218.061	627.8
218.438	617.8
218.814	603.8
219.191	619.2
219.568	612.8
219.945	608.4
220.322	620.2
220.699	616.8
221.076	620
221.453	629.2
221.83	614.6
222.208	614.8
222.585	612.4
222.962	618.6
223.34	615.4
223.717	610.8
224.095	612.2
224.473	620.8
224.851	614.2
225.229	607.6
225.607	627
225.985	603.6
226.363	618.8
226.741	616.4
227.119	616.8
227.497	627.2
227.876	596.2
228.254	620.6
228.633	620
229.011	612.2
229.39	619.8
229.769	615.6
230.148	613.2
230.527	635.2
230.905	613
231.284	617
231.664	612.8
232.043	630
232.422	623.6
232.801	604.4
233.181	621
233.56	616.8
233.94	610.6
234.319	606.6
234.699	616
235.079	655
235.458	654.2
235.838	626
236.218	605.8
236.598	610.4
236.978	605.8
237.358	606
237.738	614.6
238.119	625.4
238.499	606.8
238.88	614.8
239.26	629.8
239.641	611.6
240.021	602.6
240.402	617.2
240.783	619.4
241.163	615
241.544	614.2
241.925	615.2
242.306	637
242.687	619.2
243.069	619.2
243.45	624.2
243.831	613
244.212	615.8
244.594	659
244.975	621.4
245.357	625.6
245.739	604.2
246.12	613.2
246.502	633.8
246.884	620.2
247.266	615.6
247.648	621.2
248.03	633.6
248.412	618.2
248.794	620
249.176	615.4
249.559	625
249.941	606
250.323	603.4
250.706	613.8
251.089	618.6
251.471	628.2
251.854	617
252.237	613.6
252.62	628
253.002	618.6
253.385	621.2
253.769	622.4
254.152	618.8
254.535	616.8
254.918	605.2
255.301	612.6
255.685	611.6
256.068	596.4
256.452	637.4
256.835	622.2
257.219	614.6
257.603	624
257.986	602.6
258.37	617.8
258.754	601.2
259.138	623.2
259.522	629.6
259.906	611
260.29	615.4
260.675	617.6
261.059	609
261.443	606.4
261.828	629.6
262.212	615
262.597	598.2
262.981	613
263.366	621.2
263.751	622.4
264.136	608.8
264.521	612.6
264.906	603.4
265.291	617.6
265.676	617.4
266.061	619.6
266.446	631
266.831	609
267.217	635.8
267.602	616.8
267.987	620.2
268.373	610.4
268.759	634.8
269.144	627
269.53	618.2
269.916	620.6
270.302	613.4
270.688	624.4
271.074	621.4
271.46	632.4
271.846	649.2
272.232	619.6
272.618	607
273.004	612.8
273.391	628.4
273.777	633.2
274.164	632
274.55	623
274.937	621.8
275.324	611.8
275.71	624.4
276.097	618.2
276.484	615.8
276.871	621.6
277.258	625.4
277.645	600
278.032	610
278.419	607.6
278.807	619.8
279.194	605.2
279.581	610.2
279.969	621.8
280.356	621.4
280.744	616
281.131	643.2
281.519	630.6
281.907	614.6
282.295	609.4
282.682	626.8
283.07	624.8
283.458	624.2
283.846	627.4
284.235	626.4
284.623	631.4
285.011	611.4
285.399	618.4
285.788	616.2
286.176	599.4
286.565	630.4
286.953	612
287.342	623.2
287.731	610
288.119	617
288.508	604.4
288.897	616.6
289.286	596
289.675	613.2
290.064	629.8
290.453	616.8
290.821	618.8
291.21	631.2
291.599	605.2
291.989	613.4
292.378	625
292.768	631.6
293.157	618.6
293.547	623.2
293.936	611.8
294.326	616.2
294.716	623.6
295.106	628.4
295.496	622
295.886	633.8
296.276	610.4
296.666	619.2
297.056	616.2
297.446	606.4
297.836	628.8
298.227	610
298.617	618.2
299.008	632
299.398	608.6
299.789	609
300.179	614.2
300.57	625
300.961	607.2
301.352	601.4
301.742	617.8
302.133	623.2
302.524	617.6
302.915	618.6
303.307	608.2
303.698	627.2
304.089	626
304.48	619
304.872	625.4
305.263	614
305.655	613.4
306.046	624
306.438	621.4
306.829	614.4
307.221	637.6
307.613	624.2
308.005	623.2
308.397	629.2
308.789	638.2
309.181	647.2
309.573	636.4
309.965	632
310.357	624.8
310.749	636.2
311.142	616.2
311.534	606.2
311.926	628.8
312.319	614
312.711	617.6
313.104	632.4
313.497	614.6
313.889	653.4
314.282	648
314.675	640.6
315.068	623
315.461	625.6
315.854	648
316.247	624
316.64	614
317.033	615.2
317.405	621.8
317.798	619.8
318.192	622.4
318.585	615.6
318.979	623.4
319.372	619.2
319.766	619
320.16	639.4
320.553	638.2
320.947	640.2
321.341	618.2
321.735	621.2
322.129	608.4
322.523	647
322.917	610.8
323.311	635.8
323.705	624.4
324.099	621.4
324.494	638.2
324.888	629
325.282	615.8
325.677	626.6
326.071	628
326.466	619.8
326.861	618.4
327.255	630
327.65	633
328.045	632.8
328.44	610.6
328.835	616.4
329.23	602.2
329.625	632
330.02	623.4
330.415	632
330.81	619.8
331.206	624.2
331.601	608.2
331.996	622.6
332.37	637.8
332.766	617.6
333.161	639.4
333.557	611.8
333.953	624.6
334.348	962.2
334.744	629.2
335.14	606.2
335.536	612.2
335.932	626.6
336.328	619.2
336.724	632.2
337.12	619.2
337.516	621.4
337.913	625
338.309	627.6
338.705	627
339.102	622.6
339.498	615.6
339.895	636
340.291	613.2
340.688	623.4
341.085	610.6
341.481	612
341.878	615.6
342.275	637
342.672	611.6
343.069	612.8
343.466	597.4
343.842	617.8
344.239	613.4
344.636	615
345.033	604.2
345.431	616
345.828	615.2
346.225	616.4
346.623	649
347.02	614.8
347.418	630.2
347.816	630.6
348.213	610.2
348.611	619.6
349.009	608.8
349.407	629.8
349.805	609
350.203	598.4
350.601	624.8
350.999	613.8
351.397	676
351.795	616
352.193	627.2
352.57	617.6
352.969	623.8
353.367	602.6
353.766	605.2
354.164	621.2
354.563	625.8
354.961	610
355.36	606.4
355.759	608
356.158	601
356.557	616.2
356.956	602.2
357.355	609
357.754	612.8
358.153	615
358.552	629
358.951	615
359.35	626.8
359.75	605.4
360.149	600.4
360.527	602.8
360.926	602.6
361.326	619.4
361.726	609
362.125	613
362.525	617
362.925	616.4
363.325	616.4
363.724	618.2
364.124	606.8
364.524	607.8
364.924	616
365.324	626.8
365.725	600.2
366.125	619.4
366.525	609.4
366.904	602.6
367.304	595
367.705	616.6
368.105	628.2
368.506	612.6
368.906	607.8
369.307	611.8
369.708	615.6
370.108	594
370.509	621.8
370.91	606.4
371.311	619.6
371.712	614.6
372.113	610.2
372.514	596.8
372.894	609.4
373.295	597.6
373.696	616.2
374.097	619.8
374.499	636.2
374.9	612.6
375.301	601
375.703	616.4
376.105	602.2
376.506	613.8
376.908	616.2
377.309	617.4
377.711	605.4
378.113	602.2
378.493	609.8
378.895	601.4
379.297	613.4
379.699	594
380.102	606.4
380.504	601.4
380.906	605.6
381.308	633.8
381.71	608.2
382.113	621.8
382.515	605.4
382.918	608.2
383.299	600.6
383.701	615
384.104	608.6
384.507	590.8
384.909	604.6
385.312	604.6
385.715	596.4
386.118	593.4
386.521	593
386.924	618.2
387.327	602
387.709	591.6
388.112	588.8
388.515	605.4
388.918	608.2
389.322	609.8
389.725	602.6
390.129	619.2
390.532	619.8
390.936	607
391.339	599.6
391.743	613.4
392.125	598.6
392.529	612.4
392.933	625.8
393.337	617.4
393.74	608.4
394.144	604.4
394.548	596
394.953	602.4
395.357	621.6
395.761	609.2
396.144	599.4
396.548	603.4
396.952	610.2
397.357	608.8
397.761	602.8
398.166	607.8
398.57	600.2
398.975	597
399.379	614.6
399.763	655.2
400.168	605.8
400.572	606.2
400.977	604.2
401.382	624.8
401.787	623.8
402.192	619.6
402.597	628.8
403.002	594.8
403.386	616
403.791	622.6
404.197	600.6
404.602	611.2
405.007	605.2
405.413	603
405.818	613.2
406.224	598.6
406.608	608.6
407.014	608
407.42	620.6
407.825	600.6
408.231	610.8
408.637	609
409.043	624.8
409.449	601.6
409.834	601.8
410.24	616.6
410.646	621.8
411.052	620.4
411.458	609
411.865	622.2
412.271	615.2
412.677	610
413.062	620
413.469	606.6
413.875	636.2
414.282	619.8
414.689	614
415.095	619.8
415.502	611.6
415.888	614.6
416.294	595.8
416.701	659.8
417.108	605
417.515	618.6
417.923	603.4
418.33	624.8
418.715	619.4
419.123	606.6
419.53	607.4
419.937	614
420.345	635.6
420.752	606.8
421.16	620.2
421.546	611.6
421.953	622
422.361	602
422.769	600
423.177	603.8
423.585	637
423.992	629.2
424.379	622
424.787	618
425.195	636.2
425.603	603.6
426.011	622
426.419	616.6
426.806	612
427.214	611.8
427.623	617
428.031	627
428.44	613.4
428.848	625.6
429.235	625.6
429.644	611.4
430.053	609
430.461	628
430.87	642.4
431.279	624.2
431.666	612.4
432.075	621.6
432.484	625.8
432.893	624.8
433.302	641.4
433.711	664.8
434.099	635.8
434.508	632.4
434.918	629.4
435.327	650.2
435.737	652.6
436.125	660
436.534	666.2
436.944	675.6
437.353	683.2
437.763	698
438.173	675.6
438.561	690.8
438.971	673
439.381	700.6
439.791	698.6
440.201	694.4
440.589	715
440.999	723.4
441.409	721.4
441.819	720.6
442.23	732
442.619	747.2
443.029	748.4
443.439	750.4
443.85	770
444.26	773.8
444.649	768.4
445.06	761.4
445.471	762.6
445.881	776.6
446.292	799.8
446.682	804.4
447.092	776.4
447.503	836
447.914	796.8
448.325	795.6
448.715	791.6
449.126	792
449.537	798
449.948	807.8
450.338	802.4
450.75	801
451.161	797.2
451.572	811.4
451.984	801
452.374	803.2
452.786	810
453.197	812.2
453.609	820.6
453.999	805.4
454.411	805.8
454.823	819
455.235	820.4
455.647	813.8
456.037	827
456.449	802.8
456.862	820.6
457.274	826.6
457.665	809.8
458.077	834.2
458.489	855.4
458.902	823.6
459.293	829.4
459.705	825.4
460.118	821
460.53	829.4
460.921	820.8
461.334	829.6
461.747	830.6
462.16	845.8
462.551	846.6
462.964	843.2
463.377	815
463.79	841.4
464.182	841.8
464.595	833.4
465.008	848
465.421	847.4
465.813	836
466.226	841.8
466.64	840.2
467.053	883.6
467.445	852.6
467.859	863.4
468.272	853.8
468.686	849
469.078	845.8
469.492	836.2
469.906	840.2
470.298	844.4
470.712	840.4
471.126	885.8
471.54	837.8
471.933	832.4
472.347	844.8
472.761	823.8
473.175	835.2
473.568	829.8
473.982	841.8
474.397	837.8
474.79	838
475.204	845.6
475.619	824.4
476.033	838.8
476.426	837
476.841	835.2
477.256	854
477.649	821.6
478.064	825.6
478.479	820.2
478.872	830.2
479.287	821
479.702	828.8
480.118	828.4
480.511	824.6
480.927	823.8
481.342	825.4
481.736	830.2
482.151	818
482.566	825
482.96	827.6
483.376	830
483.792	816
484.186	820.4
484.602	821.4
485.017	811.4
485.412	807.2
485.827	830.8
486.243	807.8
486.638	854.6
487.054	816
487.47	823
487.865	809.2
488.281	811.6
488.697	800
489.092	812
489.508	808
489.925	821.4
490.32	787.4
490.736	807.8
491.153	800.6
491.548	791.4
491.964	805.8
492.381	782.8
492.776	795.8
493.193	787.6
493.61	790.6
494.006	795.4
494.422	790.6
494.84	775.4
495.235	791.4
495.652	782.4
496.069	781.4
496.465	774
496.883	779.8
497.3	803.6
497.696	772.8
498.113	777.6
498.509	761.4
498.927	763.4
499.344	763.4
499.741	777.6
500.158	784
500.576	773.4
500.973	766.6
501.39	748.6
501.787	747.6
502.205	767.8
502.623	754.6
503.02	755.6
503.438	749.4
503.856	758.6
504.253	746.2
504.671	752.8
505.068	750.6
505.486	745.4
505.905	762.2
506.302	748.2
506.72	748.2
507.118	728.6
507.536	732.8
507.955	741.2
508.352	730.4
508.771	739
509.169	740.6
509.587	725.8
510.006	733
510.404	716
510.823	721.4
511.221	726.4
511.64	729.6
512.038	748.6
512.457	720
512.877	725.6
513.275	727.6
513.694	715.4
514.092	717.2
514.512	714.8
514.91	713.8
515.33	720.6
515.749	718.4
516.148	722.2
516.568	725.6
516.966	715.2
517.386	711.8
517.785	709.6
518.205	701.6
518.603	710.8
519.024	703
519.444	705.8
519.843	706.2
520.263	712.8
520.662	703.6
521.082	688.4
521.481	694.8
521.902	697.2
522.301	701.4
522.722	700.4
523.121	698.2
523.542	696.4
523.963	693.8
524.362	689.8
524.783	703.8
525.183	690.6
525.604	698.4
526.003	690.8
526.425	686.6
526.824	702
527.246	694.4
527.646	685
528.067	697
528.467	683.6
528.888	684.4
529.289	678.8
529.71	686
530.11	663.6
530.532	679
530.932	670.6
531.354	663.2
531.755	716.8
532.176	677.8
532.577	674.4
532.999	681.4
533.4	659.2
533.822	678
534.223	678.4
534.645	671.2
535.046	666.2
535.468	666.6
535.869	689.6
536.292	664.8
536.693	695.8
537.115	671.8
537.516	662.6
537.939	659.2
538.34	679
538.742	675.2
539.165	663.6
539.566	668.6
539.989	654
540.391	666.2
540.814	673.2
541.216	663
541.639	673.2
542.041	672
542.464	654.4
542.866	656.6
543.268	650.2
543.691	657.6
544.093	672.2
544.517	676.2
544.919	641
545.343	676
545.745	643.6
546.147	652.8
546.571	647.4
546.974	636.8
547.398	654.8
547.8	663.2
548.224	644.6
548.627	633.4
549.03	648.2
549.454	636.4
549.857	639.8
550.281	633.6
550.684	641.8
551.087	650.2
551.512	650.8
551.915	650.8
552.34	636
552.743	634.2
553.146	643
553.571	638.8
553.975	662.8
554.399	631.2
554.803	693.6
555.207	642.4
555.632	633.2
556.036	636.8
556.461	634
556.865	644.2
557.268	623
557.694	638.2
558.098	652.4
558.502	637.6
558.927	633.4
559.332	629.4
559.736	636
560.162	643
560.566	635.2
560.992	633.4
561.396	635.4
561.801	627
562.227	635.6
562.631	628.4
563.036	631.4
563.462	644.6
563.867	626.4
564.272	621.2
564.698	626
565.103	610.6
565.508	644.4
565.935	627.2
566.34	626.2
566.745	633
567.172	622.8
567.577	650.4
567.982	644.8
568.409	627
568.815	616
569.22	632.6
569.626	625.6
570.053	615.4
570.459	620.6
570.865	635.4
571.292	626.2
571.698	633.6
572.104	611.8
572.531	618
572.937	638.4
573.343	635.2
573.75	616.8
574.177	622
574.583	623.6
574.99	615.8
575.396	624.2
575.824	613
576.231	634.2
576.637	612.6
577.065	646
577.472	619.4
577.879	609.4
578.286	627.4
578.714	615.4
579.121	615
579.528	620.6
579.935	623.4
580.364	612.6
580.771	604.4
581.178	610
581.585	625.2
582.014	620.4
582.421	611.6
582.829	620.4
583.236	623.2
583.644	608.6
584.073	606.6
584.481	615.2
584.889	617.4
585.296	619.8
585.726	612.2
586.134	606.8
586.542	610
586.95	634
587.358	612
587.787	608.8
588.196	614.8
588.604	616
589.012	604.4
589.421	600
589.851	602.2
590.259	612.4
590.668	604.8
591.076	648
591.485	603.2
591.894	610.4
592.324	610
592.733	613
593.142	601.4
593.551	600.4
593.96	644.4
594.369	588.8
594.8	592.8
595.209	602.6
595.618	591
596.028	597.4
596.437	600.4
596.847	613.8
597.256	604.8
597.687	599
598.097	603.8
598.507	591.6
598.917	607.6
599.327	609.2
599.736	604.2
600.146	611
600.556	611.8
600.988	612
601.398	598.8
601.808	613
602.219	587.8
602.629	600.4
603.039	607.8
603.45	625.6
603.86	601.2
604.271	620.4
604.703	605.8
605.114	600
605.525	603.6
605.935	610.4
606.346	630
606.757	604.6
607.168	604.2
607.579	597.4
607.99	618.2
608.402	599
608.813	603
609.224	601.4
609.636	595
610.047	594.8
610.48	601.2
610.892	612
611.303	607.4
611.715	597.6
612.127	595.8
612.539	596.6
612.95	608
613.362	589.2
613.774	593.8
614.186	595.8
614.599	587.8
615.011	609.2
615.423	599.6
615.835	590.8
616.248	579.2
616.66	597.4
617.073	589.6
617.485	601.4
617.898	603.6
618.311	601
618.723	594.4
619.136	622.6
619.549	601.4
619.962	615.8
620.375	589.4
620.788	603.4
621.201	593.4
621.614	604.8
622.028	594
622.441	602.6
622.854	607
623.268	585
623.681	602.2
624.095	598.8
624.509	611.2
624.922	599.2
625.336	591.6
625.728	587.4
626.142	610
626.556	613.6
626.97	597.4
627.384	592.8
627.799	596.8
628.213	604.2
628.627	595.2
629.041	593.6
629.456	594
629.87	596
630.285	603.4
630.699	609.2
631.093	591
631.507	604
631.922	599.4
632.337	619.4
632.752	580.8
633.167	593.2
633.582	592.2
633.997	597
634.412	597.4
634.806	597
635.221	589.2
635.637	601.8
636.052	582.2
636.468	595.6
636.883	613.2
637.299	593.4
637.715	587.4
638.109	594.4
638.525	581.4
638.941	608.4
639.357	595
639.773	604.4
640.189	594.2
640.584	596.2
641	588.8
641.416	586.4
641.832	590.6
642.249	586.8
642.665	590.6
643.06	604.4
643.477	601.8
643.894	582.8
644.31	596.6
644.727	592.2
645.123	596.2
645.54	590.4
645.957	601
646.374	604.2
646.77	588.6
647.187	620.8
647.604	582.8
648.021	581.2
648.439	588.2
648.835	600.6
649.252	587.6
649.67	587.6
650.088	594.6
650.484	587
650.902	595.8
651.32	595.4
651.738	582.4
652.134	602.6
652.552	604.4
652.971	598
653.389	590.2
653.786	606
654.204	615.2
654.622	600.2
655.019	598.4
655.438	599.6
655.857	598.6
656.275	594
656.673	593.2
657.091	600
657.51	589
657.908	605.4
658.327	602.2
658.746	581.6
659.144	594.4
659.563	603
659.982	595.8
660.38	590
660.8	592.8
661.219	603.4
661.617	596.2
662.037	602.2
662.457	600.8
662.855	580.8
663.275	618
663.695	595.4
664.094	591.6
664.514	588.4
664.934	587.4
665.333	600.2
665.753	592.6
666.152	585.4
666.572	589
666.993	604.8
667.392	583.6
667.812	597.8
668.212	591.6
668.632	604.2
669.053	594.8
669.453	595.8
669.874	593.4
670.273	592
670.694	587.6
671.116	596.2
671.515	598.2
671.937	591.6
672.337	597.6
672.758	589.6
673.158	591.4
673.58	578.6
673.98	597.8
674.402	601.4
674.824	585.4
675.224	581.4
675.646	577.8
676.047	584.4
676.469	585
676.869	592.2
677.292	582.2
677.693	582
678.115	584.2
678.516	588.8
678.939	590.4
679.34	586.2
679.762	608.2
680.164	586.8
680.586	584.8
680.988	592.8
681.411	610.6
681.812	588.6
682.236	582.4
682.637	588
683.061	580
683.462	591.2
683.864	585
684.288	604.6
684.69	577.8
685.114	601.4
685.516	600
685.94	578.8
686.342	594
686.766	586.4
687.168	582.2
687.571	607.2
687.995	595.4
688.398	577.6
688.822	590.2
689.225	607.8
689.628	608
690.052	592.4
690.456	598
690.88	592.4
691.284	582.4
691.687	593.8
692.112	584.2
692.515	575.4
692.919	589
693.344	588.2
693.747	586
694.173	579.2
694.577	605.8
694.98	590.6
695.406	587.6
695.81	596.6
696.214	590.6
696.64	587
697.044	590.8
697.448	609
697.874	589.2
698.279	588.6
698.684	583.2
699.11	585.2
699.514	580.6
699.919	587.2
700.324	585.2
700.75	587.4
701.156	584.8
701.561	602.2
701.987	600.6
702.393	604
702.798	599.2
703.203	602.2
703.63	584.6
704.036	584
704.442	582.6
704.847	575.4
705.274	578.6
705.68	593.4
706.086	588.4
706.492	576.6
706.92	589.8
707.326	598.8
707.732	582.8
708.139	580
708.545	580.4
708.973	585.8
709.38	585.4
709.786	569.2
710.193	608.6
710.6	589.4
711.028	580.4
711.435	588
711.842	575.4
712.249	580.4
712.656	589
713.064	595.6
713.492	581.4
713.9	588.6
714.307	590.8
714.715	586.8
715.123	585.8
715.53	583.8
715.938	592.8
716.367	586.8
716.775	586.2
717.184	576.2
717.592	590.6
718	593.8
718.408	620.4
718.816	632.6
719.225	595
719.633	586.6
720.042	577.6
720.472	588.2
720.881	606.4
721.29	595.2
721.699	582.4
722.108	591.8
722.517	586.6
722.926	589
723.335	597.6
723.744	593.6
724.154	593.6
724.563	582.8
724.973	593.4
725.382	584
725.792	574
726.202	579.4
726.612	606.8
727.022	585.6
727.432	586
779.813	580
780.223	620.4
780.634	588.6
781.044	581.2
781.454	592.2
781.865	599.6
782.276	576.4
782.686	599
783.097	593.4
783.508	591.2
783.919	582.8
784.33	593.8
784.741	599.8
785.152	586.2
785.563	575.6
785.974	583.4
786.386	595
786.776	592.2
787.188	589.8
787.599	581.8
788.011	591.8
788.423	586
788.835	577.2
789.247	575.2
789.659	574.6
790.071	576.4
790.483	628.8
790.874	582.4
791.286	593.4
791.699	585.6
792.111	580.8
792.524	592.4
792.937	587.8
793.349	575.8
793.741	579.8
794.154	584.8
794.567	598
794.98	583.6
795.393	571.6
795.785	595.2
796.198	578
796.612	576.4
797.026	581.2
797.439	570.2
797.831	578
798.245	576.6
798.659	587.8
799.073	581.2
799.487	575.4
799.88	587.2
800.294	578
800.708	584.4
801.123	593.4
801.516	606
801.93	577.4
802.345	574.4
802.76	582.8
803.153	595.2
803.568	603.4
803.983	593.4
804.377	587.4
804.792	574
805.207	575
805.601	584.4
806.016	625
806.432	571.2
806.826	615.2
807.242	595
807.658	583.2
808.052	583.4
808.468	584.2
808.884	581.8
809.279	585
809.695	594.2
810.111	603.2
810.506	593.4
810.922	601
811.339	568.8
811.734	589
812.151	572.4
812.546	586.4
812.963	581
813.38	581.6
813.776	583.4
814.193	602.2
814.589	574.8
815.006	580.8
815.402	572.6
815.82	583
816.237	583.4
816.633	588.8
817.051	568.8
817.448	590
817.866	576.6
818.262	604.6
818.68	585.4
819.077	586.6
819.495	582.2
819.892	631.6
820.311	580.2
820.708	588.4
821.127	572.4
821.524	594.6
821.943	583.6
822.34	604
822.759	581.4
823.157	582.8
823.576	602.4
823.974	586.6
824.393	632.6
824.791	573
825.189	578.6
825.609	571.2
826.007	581.6
826.427	572.6
826.826	579.4
827.246	591
827.644	574.2
828.043	595.6
828.463	576.4
828.862	592.4
829.261	589.4
829.682	573.4
830.081	587.8
830.502	576
830.901	588
831.301	594.4
831.722	569
832.121	591.2
832.521	574
832.943	589.2
833.342	583.4
833.742	568.6
834.164	578.4
834.564	576.2
834.965	575.8
835.386	571.4
835.787	583
836.188	576.6
836.588	571.6
837.01	579.4
837.411	570.2
837.812	587.6
838.213	589.2
838.636	578.8
839.037	649.6
839.438	586.4
839.84	585.4
840.263	594
840.664	588.4
841.066	577
841.468	580.4
841.891	583
842.293	597.4
842.695	585.6
843.098	597.2
843.5	581
843.902	580.4
844.326	593.2
844.729	578.8
845.131	593.2
845.534	580.2
845.937	596.4
846.34	600.8
846.764	575.4
847.167	596.8
847.571	570
847.974	586.4
848.377	579.4
848.781	632.2
849.184	591.4
849.588	578.4
849.992	583.4
850.396	585.6
850.821	605.4
851.225	588.6
851.63	582.8
852.034	592.8
852.438	584.2
852.843	649.8
853.247	566.4
853.652	582.2
854.057	592.4
854.462	583.6
854.867	597
855.272	608
855.677	592.6
856.082	577.8
