#lambda/nm	C1
208.295	515
208.67	470.8
209.045	426.8
209.419	431.4
209.794	616.2
210.169	597.6
210.544	719
210.919	618.4
211.295	609.4
211.67	614.6
212.045	619.8
212.421	607.6
212.796	655.6
213.172	611.6
213.547	609.2
213.923	613.4
214.299	607.6
214.675	616
215.051	622
215.427	626.2
215.803	631.2
216.179	614.8
216.555	612
216.932	615.6
217.308	616.6
217.684	606.2
218.061	618.6
218.438	615.8
218.814	609
219.191	622.2
219.568	600.8
219.945	608.2
220.322	620.8
220.699	622
221.076	623
221.453	620.8
221.83	606
222.208	613
222.585	610.2
222.962	615.2
223.34	616.4
223.717	620.8
224.095	609.6
224.473	612
224.851	607
225.229	601.6
225.607	620.4
225.985	607.8
226.363	615.6
226.741	621
227.119	611.2
227.497	626
227.876	606.2
228.254	619
228.633	622
229.011	615.2
229.39	618
229.769	615.6
230.148	619.2
230.527	633
230.905	617.4
231.284	619
231.664	609.4
232.043	622.8
232.422	611.6
232.801	612.2
233.181	622.4
233.56	613.4
233.94	614
234.319	603
234.699	613
235.079	651.4
235.458	652.8
235.838	629.2
236.218	613.8
236.598	608.2
236.978	605.4
237.358	607.6
237.738	607.8
238.119	615.6
238.499	602.4
238.88	610.6
239.26	625
239.641	601.2
240.021	609.4
240.402	615.4
240.783	616.4
241.163	614.4
241.544	619.6
241.925	614.8
242.306	627.4
242.687	623.2
243.069	617.8
243.45	620.2
243.831	609.4
244.212	610.4
244.594	641.8
244.975	627.4
245.357	620.2
245.739	616.2
246.12	614.4
246.502	627.6
246.884	608.6
247.266	610.8
247.648	618.2
248.03	642
248.412	627
248.794	616.8
249.176	609
249.559	625.2
249.941	609.6
250.323	607.6
250.706	605.8
251.089	615.6
251.471	622.2
251.854	620.8
252.237	616.8
252.62	628.2
253.002	621.4
253.385	608
253.769	632
254.152	614.6
254.535	628.4
254.918	610.6
255.301	611.2
255.685	610.6
256.068	603
256.452	638.8
256.835	627.6
257.219	624.2
257.603	631
257.986	604.8
258.37	620.4
258.754	608
259.138	629.4
259.522	621.4
259.906	612.2
260.29	620
260.675	618.6
261.059	616.4
261.443	605.6
261.828	619
262.212	616.2
262.597	608.2
262.981	612.6
263.366	626.4
263.751	613.4
264.136	612
264.521	607
264.906	615.8
265.291	623.8
265.676	620.8
266.061	623.2
266.446	628.4
266.831	606.6
267.217	635.4
267.602	615.8
267.987	621.8
268.373	608.8
268.759	628
269.144	623.4
269.53	616.2
269.916	604.2
270.302	612.4
270.688	624.8
271.074	629
271.46	625.2
271.846	656.2
272.232	619.2
272.618	608.2
273.004	612.6
273.391	629.4
273.777	632.6
274.164	627.4
274.55	627.4
274.937	614.8
275.324	607.2
275.71	615.4
276.097	618.6
276.484	603.2
276.871	626
277.258	615.8
277.645	608.2
278.032	613
278.419	618.4
278.807	615
279.194	606
279.581	615
279.969	623
280.356	618.2
280.744	615
281.131	639.2
281.519	622.4
281.907	608.4
282.295	614
282.682	630.4
283.07	623.2
283.458	625.2
283.846	632.4
284.235	625.8
284.623	621.4
285.011	609.6
285.399	621.8
285.788	615.2
286.176	607.4
286.565	634.2
286.953	617.8
287.342	614.4
287.731	605.6
288.119	611.6
288.508	616.8
288.897	618.8
289.286	605.4
289.675	617.2
290.064	628.8
290.453	604.6
290.821	615.6
291.21	632.6
291.599	619
291.989	620.2
292.378	628.2
292.768	633.2
293.157	634.8
293.547	627.4
293.936	624.6
294.326	608.2
294.716	630
295.106	612.2
295.496	629.2
295.886	626.4
296.276	620.6
296.666	615.2
297.056	609
297.446	609.2
297.836	630.4
298.227	612.2
298.617	618.4
299.008	636.2
299.398	609.6
299.789	603.4
300.179	631.4
300.57	629.6
300.961	617.2
301.352	621.2
301.742	623.6
302.133	617.4
302.524	618.8
302.915	615.4
303.307	604.2
303.698	627
304.089	625.2
304.48	618.6
304.872	620.2
305.263	613.8
305.655	612.4
306.046	628.2
306.438	627.8
306.829	614.8
307.221	633.8
307.613	624
308.005	620.6
308.397	632.6
308.789	629
309.181	640.4
309.573	633.4
309.965	627.4
310.357	616.6
310.749	625.4
311.142	607.4
311.534	602.6
311.926	623.8
312.319	620.6
312.711	617
313.104	623.4
313.497	612.4
313.889	651.2
314.282	628.6
314.675	639
315.068	614.6
315.461	626.4
315.854	645.8
316.247	619.8
316.64	613.8
317.033	616.2
317.405	627.6
317.798	614
318.192	621.4
318.585	611.2
318.979	628.8
319.372	610.4
319.766	607.2
320.16	626.6
320.553	634.2
320.947	637.2
321.341	614.2
321.735	607.4
322.129	608.2
322.523	641.6
322.917	611.4
323.311	628.8
323.705	621
324.099	615.8
324.494	630.8
324.888	622.8
325.282	616
325.677	632.8
326.071	632.6
326.466	631.6
326.861	629.2
327.255	628.6
327.65	631
328.045	639.2
328.44	629.2
328.835	619.2
329.23	608.8
329.625	634.6
330.02	613.4
330.415	639.2
330.81	629
331.206	623
331.601	620.8
331.996	624.8
332.37	647.2
332.766	611.4
333.161	636.6
333.557	608.4
333.953	615.4
334.348	949
334.744	615.2
335.14	609.2
335.536	615.6
335.932	628
336.328	619.2
336.724	622.8
337.12	613.6
337.516	617.4
337.913	607.2
338.309	633.4
338.705	617.6
339.102	630.4
339.498	607
339.895	637
340.291	609.2
340.688	628.8
341.085	602.2
341.481	613.4
341.878	615.2
342.275	629
342.672	606.8
343.069	606.8
343.466	606.2
343.842	619.4
344.239	612.6
344.636	619.8
345.033	605.6
345.431	603
345.828	617.4
346.225	614.2
346.623	655.2
347.02	614.6
347.418	623.4
347.816	636.4
348.213	607.2
348.611	624.8
349.009	617
349.407	629.6
349.805	606
350.203	598.6
350.601	626.8
350.999	615
351.397	681.2
351.795	618.2
352.193	621.6
352.57	634.8
352.969	630
353.367	605.6
353.766	605.8
354.164	611.6
354.563	615.6
354.961	618.4
355.36	612.2
355.759	611
356.158	610
356.557	608.8
356.956	604.2
357.355	605
357.754	618.2
358.153	615.4
358.552	634.2
358.951	607.6
359.35	629.2
359.75	603.2
360.149	602
360.527	596.6
360.926	609.8
361.326	606
361.726	616.6
362.125	611.6
362.525	616.2
362.925	608.2
363.325	615
363.724	612.2
364.124	604.6
364.524	605.4
364.924	611.8
365.324	628.2
365.725	600.2
366.125	613.8
366.525	615
366.904	609.2
367.304	593.2
367.705	624.4
368.105	615.2
368.506	608
368.906	611.2
369.307	607.4
369.708	620
370.108	599.4
370.509	625
370.91	602.2
371.311	610.2
371.712	617.4
372.113	607.8
372.514	606.6
372.894	605.4
373.295	605.4
373.696	620.8
374.097	620.8
374.499	640.6
374.9	615.4
375.301	599.4
375.703	611.4
376.105	598.8
376.506	612.2
376.908	604.4
377.309	603.8
377.711	612.4
378.113	593.2
378.493	616.4
378.895	602.6
379.297	623
379.699	600
380.102	606.4
380.504	609.6
380.906	603.6
381.308	628.6
381.71	614
382.113	617.4
382.515	605.8
382.918	612.4
383.299	610
383.701	617.6
384.104	609
384.507	587.2
384.909	608.4
385.312	597.2
385.715	596.2
386.118	605.8
386.521	598.2
386.924	620.2
387.327	600.4
387.709	601.8
388.112	594
388.515	605.6
388.918	603.4
389.322	615
389.725	610.4
390.129	628.2
390.532	612.4
390.936	601.8
391.339	607.6
391.743	608.2
392.125	610.6
392.529	618
392.933	621.4
393.337	608.6
393.74	606.4
394.144	609.4
394.548	604.6
394.953	600.2
395.357	607.4
395.761	604
396.144	607.4
396.548	612.4
396.952	607.6
397.357	614.6
397.761	611.6
398.166	605.6
398.57	604
398.975	603.6
399.379	618
399.763	660.6
400.168	614
400.572	601.4
400.977	608
401.382	630.4
401.787	616.8
402.192	628.8
402.597	623.8
403.002	591.6
403.386	628.8
403.791	628.8
404.197	606.6
404.602	610.4
405.007	603.6
405.413	603.4
405.818	609.6
406.224	603.2
406.608	614.4
407.014	603.6
407.42	618.2
407.825	608.2
408.231	609.6
408.637	617.6
409.043	619.2
409.449	599.6
409.834	604.4
410.24	604.6
410.646	616.8
411.052	616
411.458	609.8
411.865	625.4
412.271	615
412.677	608.2
413.062	611.4
413.469	597.8
413.875	629.6
414.282	616.8
414.689	612.2
415.095	619.8
415.502	608
415.888	610
416.294	598
416.701	646.4
417.108	602.4
417.515	615.2
417.923	608.8
418.33	630.6
418.715	617.4
419.123	609.8
419.53	611.8
419.937	613.6
420.345	627
420.752	603.2
421.16	627.6
421.546	610.2
421.953	619.4
422.361	607
422.769	609.8
423.177	606.8
423.585	639
423.992	633.6
424.379	624.2
424.787	623.8
425.195	631.8
425.603	617
426.011	623.8
426.419	623.6
426.806	623.4
427.214	620
427.623	624
428.031	627.4
428.44	610.4
428.848	639.6
429.235	623.4
429.644	615.6
430.053	614.2
430.461	627.4
430.87	631.4
431.279	626.2
431.666	607
432.075	612
432.484	615.4
432.893	608.4
433.302	629.2
433.711	653
434.099	615.6
434.508	610.8
434.918	608.4
435.327	622.2
435.737	624
436.125	620
436.534	632.6
436.944	621
437.353	631.4
437.763	653.6
438.173	626.8
438.561	648
438.971	622
439.381	647
439.791	652.6
440.201	631.8
440.589	658.4
440.999	661
441.409	663.8
441.819	661
442.23	681.8
442.619	684.4
443.029	679.8
443.439	683
443.85	703.8
444.26	700.2
444.649	695.6
445.06	692.8
445.471	687.4
445.881	705.8
446.292	714
446.682	722.8
447.092	696
447.503	752.4
447.914	722.4
448.325	720
448.715	721
449.126	708.4
449.537	717.8
449.948	714.6
450.338	730.6
450.75	732.6
451.161	729.6
451.572	728.8
451.984	726.6
452.374	729.8
452.786	730.2
453.197	739.2
453.609	735.2
453.999	725.2
454.411	733.2
454.823	757.4
455.235	747.8
455.647	743.6
456.037	754
456.449	729.4
456.862	749.6
457.274	737.2
457.665	741.6
458.077	747.4
458.489	788
458.902	751.6
459.293	762.4
459.705	749.8
460.118	752.4
460.53	755.2
460.921	764.2
461.334	755.8
461.747	763.8
462.16	770
462.551	780
462.964	763.6
463.377	751.4
463.79	761.2
464.182	768.2
464.595	755.8
465.008	775.6
465.421	771.6
465.813	770.8
466.226	777.6
466.64	778.4
467.053	816.6
467.445	774.2
467.859	799.8
468.272	781.8
468.686	792.4
469.078	788.2
469.492	757.2
469.906	778.8
470.298	787.8
470.712	767.8
471.126	825.2
471.54	768.4
471.933	777.8
472.347	768.8
472.761	774.4
473.175	759.2
473.568	790.2
473.982	758
474.397	766.6
474.79	780.4
475.204	794.4
475.619	773
476.033	782.8
476.426	778.4
476.841	778.4
477.256	800.2
477.649	774.2
478.064	761.4
478.479	772.8
478.872	773.8
479.287	756.8
479.702	763
480.118	780
480.511	778.6
480.927	774
481.342	773
481.736	776.4
482.151	773.8
482.566	792.4
482.96	762.8
483.376	786.8
483.792	771
484.186	766.6
484.602	779
485.017	777.4
485.412	767.8
485.827	772.4
486.243	775.6
486.638	790.6
487.054	774.2
487.47	784.4
487.865	761.8
488.281	758.4
488.697	759.8
489.092	762.4
489.508	756.6
489.925	774.4
490.32	762.2
490.736	783
491.153	764.6
491.548	774.2
491.964	764.8
492.381	749.8
492.776	766.2
493.193	762
493.61	767
494.006	758.6
494.422	765.2
494.84	741
495.235	754.8
495.652	753.8
496.069	749.6
496.465	748.2
496.883	741.2
497.3	778.4
497.696	751
498.113	760.8
498.509	729.4
498.927	732
499.344	735.8
499.741	733.6
500.158	741.8
500.576	749
500.973	737
501.39	732.8
501.787	723
502.205	735.6
502.623	719.6
503.02	724
503.438	733.2
503.856	734
504.253	739.6
504.671	729.2
505.068	708.8
505.486	735.6
505.905	743.8
506.302	723
506.72	733.2
507.118	714
507.536	714.8
507.955	712.4
508.352	730.8
508.771	721.8
509.169	717.8
509.587	699.2
510.006	708.4
510.404	707.2
510.823	708.6
511.221	717.2
511.64	715.6
512.038	721.2
512.457	706.8
512.877	716
513.275	700.4
513.694	704.2
514.092	706.2
514.512	704.2
514.91	704
515.33	715.2
515.749	706
516.148	709.4
516.568	705.8
516.966	701.6
517.386	703.8
517.785	694.2
518.205	683.4
518.603	693.4
519.024	692.4
519.444	701.6
519.843	702.4
520.263	710.4
520.662	684.4
521.082	691
521.481	694.4
521.902	687.8
522.301	693.4
522.722	700.4
523.121	681.6
523.542	677.4
523.963	676.8
524.362	685.4
524.783	685.4
525.183	678.8
525.604	686.2
526.003	671.2
526.425	666.6
526.824	682
527.246	677.8
527.646	687.8
528.067	674
528.467	679.2
528.888	679.6
529.289	671.4
529.71	672.2
530.11	666
530.532	672.2
530.932	650
531.354	658.2
531.755	694.8
532.176	657.8
532.577	660.2
532.999	666.4
533.4	663.8
533.822	674
534.223	667.8
534.645	658.4
535.046	655.4
535.468	661.2
535.869	675
536.292	659.6
536.693	689.6
537.115	666
537.516	656.4
537.939	651.4
538.34	672.4
538.742	674.6
539.165	656.2
539.566	663.2
539.989	642.4
540.391	647
540.814	648.4
541.216	653.4
541.639	662.8
542.041	659
542.464	649.4
542.866	654.8
543.268	644.8
543.691	658
544.093	653.6
544.517	670.4
544.919	638.6
545.343	670.4
545.745	641
546.147	656.4
546.571	643
546.974	654
547.398	648.6
547.8	651.8
548.224	641.8
548.627	641.4
549.03	647.2
549.454	631.4
549.857	631.6
550.281	639.2
550.684	639
551.087	656.2
551.512	648
551.915	651.6
552.34	642.6
552.743	634.2
553.146	638
553.571	640.4
553.975	658.4
554.399	631.6
554.803	683
555.207	631.4
555.632	631.2
556.036	647
556.461	630.8
556.865	635.2
557.268	631.6
557.694	628.4
558.098	636.6
558.502	629.2
558.927	633.8
559.332	634.8
559.736	636.4
560.162	636.4
560.566	635.2
560.992	641.6
561.396	629.6
561.801	635.8
562.227	628.8
562.631	625
563.036	627.6
563.462	637.6
563.867	636.6
564.272	619
564.698	625.2
565.103	614.4
565.508	647
565.935	632.4
566.34	622.2
566.745	641.6
567.172	617.6
567.577	632
567.982	631.4
568.409	625.8
568.815	615
569.22	618.6
569.626	621.4
570.053	613.4
570.459	624.8
570.865	632.2
571.292	619.2
571.698	617
572.104	610.2
572.531	617
572.937	634.2
573.343	608.8
573.75	603
574.177	614.6
574.583	620.4
574.99	610.6
575.396	611.2
575.824	623.6
576.231	630.8
576.637	618.8
577.065	641.2
577.472	606.4
577.879	613.6
578.286	628.6
578.714	604.2
579.121	613.4
579.528	620.8
579.935	626.8
580.364	611.2
580.771	595
581.178	600
581.585	609.6
582.014	621
582.421	615.2
582.829	611.4
583.236	623.4
583.644	604.6
584.073	612.2
584.481	612
584.889	604.6
585.296	623.8
585.726	613.8
586.134	594
586.542	597.4
586.95	617.6
587.358	603.4
587.787	616.2
588.196	615.6
588.604	609.6
589.012	608.8
589.421	592.2
589.851	608
590.259	604.6
590.668	607.2
591.076	647.2
591.485	602.2
591.894	608
592.324	623.8
592.733	620
593.142	599.4
593.551	602.6
593.96	606.8
594.369	597.6
594.8	597.6
595.209	603.2
595.618	591.2
596.028	595
596.437	601
596.847	600
597.256	608.8
597.687	608.6
598.097	610
598.507	590.4
598.917	602.2
599.327	607
599.736	600.6
600.146	621
600.556	607.4
600.988	603.6
601.398	595
601.808	614.4
602.219	588.8
602.629	602
603.039	603
603.45	631.6
603.86	586.8
604.271	608.6
604.703	599.2
605.114	596
605.525	607
605.935	600.2
606.346	622.4
606.757	604
607.168	593.8
607.579	589.6
607.99	615.4
608.402	596.4
608.813	606.2
609.224	595.2
609.636	588.6
610.047	599.6
610.48	594.6
610.892	605.8
611.303	613.8
611.715	599.4
612.127	592.4
612.539	604.8
612.95	597.6
613.362	586.8
613.774	587.8
614.186	588.2
614.599	592
615.011	613.4
615.423	605.8
615.835	596.6
616.248	591.2
616.66	607.2
617.073	582.4
617.485	595.4
617.898	614.2
618.311	599.6
618.723	601
619.136	629.4
619.549	610
619.962	631.4
620.375	595.4
620.788	596.8
621.201	598
621.614	612.6
622.028	600.2
622.441	607.4
622.854	615
623.268	600
623.681	605.6
624.095	593.6
624.509	610.6
624.922	602
625.336	589.6
625.728	600.6
626.142	606.2
626.556	613.2
626.97	605.8
627.384	589.6
627.799	595.4
628.213	611
628.627	597
629.041	593.6
629.456	592.2
629.87	596.4
630.285	607
630.699	606
631.093	592.8
631.507	606.6
631.922	601.2
632.337	614.6
632.752	589.4
633.167	596.8
633.582	598.6
633.997	591.4
634.412	586.2
634.806	596.2
635.221	592.6
635.637	608.8
636.052	586.2
636.468	590.6
636.883	611.6
637.299	600.6
637.715	586
638.109	595.2
638.525	602.6
638.941	609.6
639.357	596.4
639.773	608.6
640.189	593.8
640.584	593.2
641	598.6
641.416	582.4
641.832	593.8
642.249	602
642.665	601.2
643.06	594
643.477	605
643.894	582
644.31	597.8
644.727	601.6
645.123	597.2
645.54	591.4
645.957	601.4
646.374	606.2
646.77	598.8
647.187	620
647.604	595
648.021	578.4
648.439	584.4
648.835	595.4
649.252	597.8
649.67	593
650.088	597.4
650.484	601
650.902	597.2
651.32	604.2
651.738	592.8
652.134	602.4
652.552	614.4
652.971	607.6
653.389	594.6
653.786	606.4
654.204	617.2
654.622	587.4
655.019	598
655.438	602
655.857	603
656.275	609.8
656.673	592.8
657.091	606
657.51	590.6
657.908	598.2
658.327	610.6
658.746	584.4
659.144	597.8
659.563	602.2
659.982	599.6
660.38	594.6
660.8	591.6
661.219	603.6
661.617	597.6
662.037	587.2
662.457	602.4
662.855	576.6
663.275	624.4
663.695	588.6
664.094	586.2
664.514	592.6
664.934	588
665.333	591
665.753	582.6
666.152	575.8
666.572	582.4
666.993	604.8
667.392	589.6
667.812	583.8
668.212	595
668.632	597.6
669.053	589.6
669.453	590
669.874	587.4
670.273	588.8
670.694	582.6
671.116	595.4
671.515	603.8
671.937	598.8
672.337	590
672.758	585.2
673.158	600.4
673.58	579.8
673.98	597
674.402	600.8
674.824	590.8
675.224	586.2
675.646	583.6
676.047	589.2
676.469	591.8
676.869	600.4
677.292	595.8
677.693	583.6
678.115	591.6
678.516	598.6
678.939	597.4
679.34	591.6
679.762	599.8
680.164	588.2
680.586	585.4
680.988	589.2
681.411	615.2
681.812	590
682.236	577.2
682.637	588.2
683.061	576
683.462	595
683.864	584.6
684.288	595.2
684.69	582.2
685.114	598.4
685.516	596.2
685.94	574.4
686.342	602.4
686.766	592.8
687.168	588.8
687.571	612.6
687.995	593.2
688.398	579
688.822	579
689.225	602
689.628	608.4
690.052	589.4
690.456	597.6
690.88	595.4
691.284	582.8
691.687	603.4
692.112	588.4
692.515	579.6
692.919	594.4
693.344	587.2
693.747	592.8
694.173	585.4
694.577	603.8
694.98	581
695.406	583
695.81	588.2
696.214	596.6
696.64	588.8
697.044	590.2
697.448	597.8
697.874	579.4
698.279	581.6
698.684	578.8
699.11	575
699.514	585.4
699.919	587
700.324	590.2
700.75	581.2
701.156	581.4
701.561	594.8
701.987	593.4
702.393	601.6
702.798	591.6
703.203	577.8
703.63	575.6
704.036	587
704.442	589.2
704.847	581.6
705.274	592.6
705.68	591
706.086	600
706.492	587.6
706.92	579
707.326	594.6
707.732	588.8
708.139	589.4
708.545	581.4
708.973	588
709.38	586.4
709.786	586.8
710.193	595.8
710.6	583
711.028	587.8
711.435	587.6
711.842	583.8
712.249	585
712.656	588.6
713.064	608.4
713.492	582.8
713.9	585.8
714.307	589.2
714.715	585.6
715.123	584.6
715.53	591.6
715.938	596.2
716.367	594.8
716.775	588.4
717.184	588.4
717.592	588.4
718	600
718.408	629.2
718.816	635.6
719.225	588.8
719.633	594.2
720.042	584.4
720.472	583.4
720.881	611.8
721.29	588.8
721.699	574.6
722.108	581.2
722.517	586
722.926	579.8
723.335	592.8
723.744	585.6
724.154	585.4
724.563	589.4
724.973	586.8
725.382	590.6
725.792	579.8
726.202	574.8
726.612	604
727.022	578
727.432	588.8
779.813	588.4
780.223	624.4
780.634	581
781.044	578.2
781.454	587.6
781.865	603.6
782.276	581
782.686	594.2
783.097	578.2
783.508	587.4
783.919	596.6
784.33	599.4
784.741	594.6
785.152	577.6
785.563	568.4
785.974	575.8
786.386	593
786.776	590.2
787.188	584.6
787.599	584.6
788.011	597.6
788.423	585.6
788.835	577.6
789.247	580.8
789.659	580.6
790.071	578.2
790.483	623.4
790.874	588.2
791.286	590.4
791.699	587.8
792.111	586
792.524	586
792.937	584.2
793.349	577
793.741	576.8
794.154	585.8
794.567	610.8
794.98	590.6
795.393	578.2
795.785	594.2
796.198	590
796.612	586.8
797.026	585.2
797.439	563.2
797.831	589.4
798.245	570.6
798.659	582.2
799.073	578.6
799.487	575.4
799.88	585.8
800.294	589
800.708	586.2
801.123	582.2
801.516	601
801.93	576.6
802.345	567.4
802.76	587
803.153	610.8
803.568	602.6
803.983	603
804.377	590.6
804.792	571
805.207	569
805.601	580.4
806.016	618.2
806.432	590
806.826	622.8
807.242	604.4
807.658	590.6
808.052	584.8
808.468	574.2
808.884	577.8
809.279	580.8
809.695	596.4
810.111	609.6
810.506	587
810.922	604.6
811.339	581.6
811.734	585.8
812.151	577.2
812.546	580.8
812.963	570.8
813.38	583.4
813.776	587
814.193	597.2
814.589	579.4
815.006	571.2
815.402	577.8
815.82	579.6
816.237	583.2
816.633	590
817.051	576.4
817.448	586.2
817.866	576
818.262	607.2
818.68	573.8
819.077	578.8
819.495	581.4
819.892	620.2
820.311	572.6
820.708	585
821.127	579
821.524	602.6
821.943	582.4
822.34	596.8
822.759	587
823.157	592
823.576	601.6
823.974	587.8
824.393	606.8
824.791	592.2
825.189	582
825.609	573.2
826.007	586.2
826.427	574.2
826.826	581.2
827.246	590.4
827.644	570.4
828.043	594.4
828.463	572.6
828.862	593.8
829.261	591.8
829.682	569.6
830.081	589.2
830.502	577.2
830.901	586.4
831.301	597
831.722	569.2
832.121	585.4
832.521	582.6
832.943	577
833.342	587.2
833.742	575.6
834.164	576
834.564	568.4
834.965	574.8
835.386	583.4
835.787	572.4
836.188	586.2
836.588	582.8
837.01	585.8
837.411	583.6
837.812	585.6
838.213	581.4
838.636	581.8
839.037	645.4
839.438	584.8
839.84	581.4
840.263	584.6
840.664	581
841.066	582.8
841.468	588
841.891	580.8
842.293	586.2
842.695	592.2
843.098	595.2
843.5	585
843.902	586.4
844.326	588.6
844.729	580.4
845.131	595.6
845.534	583.4
845.937	588.2
846.34	587.2
846.764	581.2
847.167	587.4
847.571	578.6
847.974	578.2
848.377	580
848.781	631.2
849.184	585.2
849.588	576.8
849.992	580
850.396	582.8
850.821	597.2
851.225	580.8
851.63	578.4
852.034	593.4
852.438	584.6
852.843	646.6
853.247	579
853.652	577.4
854.057	596.6
854.462	590.6
854.867	584.4
855.272	612.8
855.677	591.8
