#lambda/nm	C1
208.295	515
208.67	456.8
209.045	427.6
209.419	433
209.794	612.8
210.169	597
210.544	728.8
210.919	625.2
211.295	605.8
211.67	609.2
212.045	610.4
212.421	603.4
212.796	644.4
213.172	613.6
213.547	607.4
213.923	607.8
214.299	604.6
214.675	621.4
215.051	615.6
215.427	621.6
215.803	628.2
216.179	611
216.555	599.6
216.932	617.8
217.308	612
217.684	612.8
218.061	620
218.438	616.2
218.814	606.6
219.191	615.8
219.568	605.4
219.945	609.8
220.322	619.8
220.699	612.6
221.076	624
221.453	617.4
221.83	615
222.208	605.2
222.585	612.2
222.962	607.2
223.34	626
223.717	617.4
224.095	613.2
224.473	612.6
224.851	607.6
225.229	600.8
225.607	628.4
225.985	612.4
226.363	608.8
226.741	626
227.119	618
227.497	619
227.876	602.2
228.254	623.8
228.633	619.6
229.011	616.4
229.39	626.2
229.769	621.2
230.148	624.6
230.527	626.2
230.905	613
231.284	625.4
231.664	610.4
232.043	626
232.422	626.4
232.801	620.4
233.181	628
233.56	624.6
233.94	620.8
234.319	604.8
234.699	620.8
235.079	657.2
235.458	643.2
235.838	635.4
236.218	611.6
236.598	606.4
236.978	614
237.358	619.6
237.738	608.2
238.119	622
238.499	605.2
238.88	604.6
239.26	634
239.641	613.6
240.021	617.2
240.402	616.8
240.783	608.2
241.163	614.6
241.544	623.6
241.925	619.4
242.306	633
242.687	624.8
243.069	612.8
243.45	627.4
243.831	612.8
244.212	611
244.594	655.4
244.975	627.4
245.357	620.2
245.739	608.4
246.12	623.6
246.502	628.6
246.884	620.4
247.266	614.8
247.648	625.4
248.03	639.8
248.412	623
248.794	624.2
249.176	613.2
249.559	627
249.941	610.4
250.323	604
250.706	609.4
251.089	611.6
251.471	617.2
251.854	618
252.237	625.6
252.62	626.2
253.002	616.8
253.385	622.4
253.769	631.2
254.152	618.6
254.535	621
254.918	605.4
255.301	616.4
255.685	624.2
256.068	609.2
256.452	646.6
256.835	626.6
257.219	619
257.603	627.2
257.986	608.4
258.37	618.8
258.754	605
259.138	628.8
259.522	623.8
259.906	611.8
260.29	621.2
260.675	619.4
261.059	618.2
261.443	597.8
261.828	616.6
262.212	609
262.597	597.6
262.981	612.8
263.366	624
263.751	612.4
264.136	610.8
264.521	612.6
264.906	610.6
265.291	621.2
265.676	608.2
266.061	619.2
266.446	629.4
266.831	607.8
267.217	643.6
267.602	614.4
267.987	615.4
268.373	610.2
268.759	627.6
269.144	630.8
269.53	617.4
269.916	611.2
270.302	620.4
270.688	615.8
271.074	621
271.46	628
271.846	655.2
272.232	617.4
272.618	616.4
273.004	616.2
273.391	627.8
273.777	631.6
274.164	616.4
274.55	632.2
274.937	626.6
275.324	613
275.71	625.2
276.097	620.8
276.484	615
276.871	635.2
277.258	617.8
277.645	607.6
278.032	614.8
278.419	616
278.807	628.8
279.194	609.6
279.581	613.4
279.969	625.8
280.356	620.8
280.744	617.8
281.131	633.4
281.519	629.8
281.907	618.4
282.295	612
282.682	627.2
283.07	620.4
283.458	629.6
283.846	623.2
284.235	635.6
284.623	630
285.011	611.6
285.399	626
285.788	616.4
286.176	607.8
286.565	629.2
286.953	604.8
287.342	613.8
287.731	607.2
288.119	608.2
288.508	610
288.897	613.8
289.286	602.2
289.675	620.4
290.064	627.6
290.453	610
290.821	614.2
291.21	640.6
291.599	609.6
291.989	618.6
292.378	623.2
292.768	642.4
293.157	619.4
293.547	624
293.936	616.8
294.326	613
294.716	612
295.106	613.6
295.496	615.6
295.886	627
296.276	623.6
296.666	612.2
297.056	616.2
297.446	603.8
297.836	634.2
298.227	610.6
298.617	618.6
299.008	634.4
299.398	616
299.789	611.2
300.179	620.4
300.57	630.4
300.961	610
301.352	618.4
301.742	623
302.133	625
302.524	623.8
302.915	624
303.307	609.4
303.698	625.2
304.089	618.2
304.48	611.8
304.872	619.2
305.263	617.6
305.655	612.4
306.046	617.8
306.438	621
306.829	615.6
307.221	636.4
307.613	625.8
308.005	629.8
308.397	624.6
308.789	642.8
309.181	644
309.573	639.8
309.965	625.4
310.357	619.4
310.749	624.2
311.142	607.8
311.534	604.6
311.926	615.8
312.319	610.6
312.711	605.2
313.104	625.8
313.497	620.6
313.889	652.6
314.282	633.2
314.675	634.8
315.068	611.6
315.461	620.2
315.854	644.2
316.247	624.6
316.64	618
317.033	616.8
317.405	619.2
317.798	615.6
318.192	618.8
318.585	612.2
318.979	621
319.372	613
319.766	611.6
320.16	627.2
320.553	630
320.947	628.4
321.341	608.4
321.735	620.6
322.129	607.6
322.523	645.4
322.917	610.8
323.311	630
323.705	616.8
324.099	623
324.494	629.6
324.888	622
325.282	617
325.677	635
326.071	621.6
326.466	629
326.861	615.2
327.255	637
327.65	632.2
328.045	630.8
328.44	625.2
328.835	625.8
329.23	613.6
329.625	635.2
330.02	611.2
330.415	632.2
330.81	615.8
331.206	619.2
331.601	613.6
331.996	627
332.37	638.6
332.766	604.4
333.161	644
333.557	617
333.953	625.4
334.348	909
334.744	609.2
335.14	612.2
335.536	612.8
335.932	633
336.328	620.6
336.724	628.2
337.12	616.6
337.516	619.4
337.913	622.4
338.309	637
338.705	621.2
339.102	631.4
339.498	620.2
339.895	634.6
340.291	609.8
340.688	624.6
341.085	618.4
341.481	610
341.878	624.8
342.275	638.6
342.672	616
343.069	606.6
343.466	604
343.842	621.4
344.239	611.6
344.636	622.6
345.033	605.2
345.431	610.8
345.828	613.8
346.225	610.2
346.623	658.8
347.02	617.2
347.418	626.4
347.816	626.2
348.213	615.6
348.611	622.6
349.009	607.6
349.407	627.2
349.805	606.6
350.203	608.4
350.601	628.2
350.999	610.6
351.397	677.4
351.795	620.8
352.193	626.6
352.57	618.6
352.969	623.6
353.367	608.2
353.766	610.4
354.164	610.2
354.563	624.8
354.961	621.4
355.36	613.8
355.759	611
356.158	612.6
356.557	612.4
356.956	602
357.355	601.8
357.754	618.6
358.153	626.2
358.552	632.8
358.951	617.4
359.35	621.4
359.75	602.2
360.149	610.8
360.527	603.8
360.926	603.2
361.326	605.6
361.726	611.2
362.125	593.8
362.525	617.2
362.925	606.2
363.325	605.6
363.724	611.4
364.124	608.6
364.524	607.4
364.924	602.2
365.324	616.2
365.725	605
366.125	624.4
366.525	609.6
366.904	599
367.304	588
367.705	629.8
368.105	626
368.506	613
368.906	615.2
369.307	604.8
369.708	612.6
370.108	602.6
370.509	616.6
370.91	604.2
371.311	612.4
371.712	615.6
372.113	606.6
372.514	599
372.894	610.4
373.295	601.8
373.696	613.6
374.097	620.6
374.499	636.2
374.9	606.8
375.301	607.4
375.703	611.2
376.105	607.2
376.506	618.8
376.908	616.4
377.309	614.4
377.711	613.4
378.113	609.4
378.493	606.2
378.895	613.6
379.297	624.8
379.699	592.4
380.102	615.8
380.504	620.2
380.906	600.4
381.308	628.6
381.71	608.4
382.113	619.6
382.515	603.2
382.918	618.6
383.299	612.6
383.701	618.6
384.104	620.8
384.507	591.8
384.909	608.6
385.312	595.6
385.715	600.2
386.118	606.4
386.521	600.8
386.924	626.8
387.327	614.6
387.709	597.4
388.112	586.8
388.515	617
388.918	616.4
389.322	607.2
389.725	599.6
390.129	626
390.532	604.8
390.936	606.2
391.339	602
391.743	623.2
392.125	607.6
392.529	619.8
392.933	616.4
393.337	618.6
393.74	608
394.144	613.4
394.548	601.6
394.953	605
395.357	623.4
395.761	605.4
396.144	611.4
396.548	613.6
396.952	609
397.357	620.2
397.761	607
398.166	601.2
398.57	607
398.975	603.4
399.379	612.8
399.763	656.2
400.168	609.2
400.572	601.4
400.977	605.8
401.382	624.4
401.787	616.8
402.192	619.8
402.597	631.2
403.002	601
403.386	623.8
403.791	624.4
404.197	608.8
404.602	611.4
405.007	605.8
405.413	603.4
405.818	612.4
406.224	599.2
406.608	608.4
407.014	591.4
407.42	621.2
407.825	599.8
408.231	609.4
408.637	612.4
409.043	617.8
409.449	598
409.834	607.6
410.24	603
410.646	614.8
411.052	611.2
411.458	612.6
411.865	619.8
412.271	614.6
412.677	611.4
413.062	609.4
413.469	600.4
413.875	633
414.282	612.4
414.689	607.8
415.095	615.8
415.502	596
415.888	607.6
416.294	590.2
416.701	644.6
417.108	602.2
417.515	615.8
417.923	614.2
418.33	624.4
418.715	614
419.123	600.2
419.53	602.8
419.937	609.2
420.345	618.4
420.752	603.8
421.16	615
421.546	613.2
421.953	629.8
422.361	601
422.769	607.6
423.177	606.6
423.585	644.2
423.992	624.6
424.379	616.4
424.787	614.4
425.195	632.2
425.603	611.8
426.011	625.6
426.419	625.6
426.806	615.2
427.214	611.6
427.623	627.2
428.031	636
428.44	611.8
428.848	631.2
429.235	625.6
429.644	620.2
430.053	611.6
430.461	629.2
430.87	637.6
431.279	632
431.666	608.8
432.075	626
432.484	626.6
432.893	626.6
433.302	642.4
433.711	677.8
434.099	639.4
434.508	645.6
434.918	641
435.327	667.6
435.737	660.4
436.125	675.2
436.534	682.6
436.944	681.2
437.353	691.8
437.763	723
438.173	690.2
438.561	719.4
438.971	698
439.381	714
439.791	741
440.201	708.6
440.589	753.8
440.999	768.2
441.409	757.8
441.819	756
442.23	771
442.619	769.2
443.029	772.8
443.439	776.6
443.85	799.2
444.26	818.6
444.649	811.6
445.06	809.2
445.471	801.6
445.881	814.2
446.292	826.6
446.682	846
447.092	808.2
447.503	876.6
447.914	831
448.325	830.8
448.715	840.2
449.126	839.2
449.537	846
449.948	847.6
450.338	852.6
450.75	870.6
451.161	856
451.572	858.6
451.984	856.2
452.374	848.6
452.786	848.4
453.197	870.4
453.609	881
453.999	856.2
454.411	854.8
454.823	870.2
455.235	867.2
455.647	859
456.037	870
456.449	858.8
456.862	870.6
457.274	881.8
457.665	868.8
458.077	880.4
458.489	899
458.902	880.2
459.293	864
459.705	868.6
460.118	881
460.53	879
460.921	886
461.334	880.4
461.747	878.2
462.16	891.6
462.551	894.2
462.964	887.4
463.377	869.8
463.79	885
464.182	900.6
464.595	878.8
465.008	882.8
465.421	899.4
465.813	890.2
466.226	899.4
466.64	895.4
467.053	935
467.445	901.2
467.859	922.4
468.272	901.8
468.686	903.8
469.078	885.6
469.492	878.8
469.906	899.2
470.298	903
470.712	893.8
471.126	938.2
471.54	881.6
471.933	894.2
472.347	888.4
472.761	882.2
473.175	882
473.568	890
473.982	883.2
474.397	894.4
474.79	880.4
475.204	902
475.619	894.2
476.033	884
476.426	885.6
476.841	879.2
477.256	915.6
477.649	877
478.064	873.2
478.479	865.4
478.872	869
479.287	857.8
479.702	881.6
480.118	868.8
480.511	877.6
480.927	882.8
481.342	879
481.736	870.6
482.151	867.8
482.566	886.8
482.96	879.6
483.376	880
483.792	868
484.186	869.4
484.602	865.6
485.017	862
485.412	862.2
485.827	860.8
486.243	850.6
486.638	881.8
487.054	858.6
487.47	864.6
487.865	848.6
488.281	840.2
488.697	845.4
489.092	845.8
489.508	840
489.925	859.6
490.32	845.6
490.736	838.2
491.153	840.8
491.548	835.2
491.964	839
492.381	821.6
492.776	852.4
493.193	833.6
493.61	832.4
494.006	828.8
494.422	832.8
494.84	821
495.235	844.8
495.652	831.8
496.069	815.8
496.465	813.4
496.883	815
497.3	844
497.696	821
498.113	817.8
498.509	802.8
498.927	800
499.344	813.8
499.741	795.2
500.158	810.4
500.576	814.2
500.973	810.2
501.39	794.4
501.787	786.8
502.205	803.4
502.623	791.2
503.02	776
503.438	780.4
503.856	777
504.253	780.8
504.671	788.4
505.068	775.2
505.486	781
505.905	794.8
506.302	763.4
506.72	780.8
507.118	758
507.536	773.4
507.955	764
508.352	761.4
508.771	770.2
509.169	761
509.587	761.8
510.006	758.8
510.404	747
510.823	753.4
511.221	755.2
511.64	755
512.038	752.6
512.457	752
512.877	758.4
513.275	742.8
513.694	740.2
514.092	746.6
514.512	750.6
514.91	741
515.33	738.4
515.749	739.6
516.148	739.2
516.568	733.2
516.966	730.4
517.386	734
517.785	732.8
518.205	719.2
518.603	722.8
519.024	716.4
519.444	737.4
519.843	731.4
520.263	734.2
520.662	727.6
521.082	724.8
521.481	724.8
521.902	718
522.301	726.6
522.722	711.8
523.121	715
523.542	714
523.963	714.4
524.362	721.8
524.783	711.6
525.183	714.6
525.604	716.6
526.003	703.6
526.425	701.4
526.824	714
527.246	711.8
527.646	717
528.067	709.8
528.467	700.8
528.888	709.4
529.289	696.4
529.71	701.8
530.11	692
530.532	692.2
530.932	697.2
531.354	676.2
531.755	726
532.176	697.6
532.577	694.8
532.999	698.4
533.4	696
533.822	690
534.223	696
534.645	691.6
535.046	684
535.468	674
535.869	697.8
536.292	678.6
536.693	716
537.115	674.2
537.516	681.6
537.939	671.6
538.34	700.6
538.742	694.2
539.165	679.4
539.566	679.2
539.989	674.2
540.391	673.6
540.814	669.4
541.216	682.2
541.639	669
542.041	676
542.464	674
542.866	662.4
543.268	660.8
543.691	677.6
544.093	672.2
544.517	690.2
544.919	663.8
545.343	691.4
545.745	667.6
546.147	673
546.571	658.8
546.974	662
547.398	669.6
547.8	681.8
548.224	660.4
548.627	651
549.03	663
549.454	663.4
549.857	648.8
550.281	657.2
550.684	646
551.087	661
551.512	654.8
551.915	665.4
552.34	647.4
552.743	649.6
553.146	652.6
553.571	645.2
553.975	667.2
554.399	638.8
554.803	701.4
555.207	638.2
555.632	640.4
556.036	647.6
556.461	643.2
556.865	650
557.268	640.4
557.694	644.8
558.098	651.2
558.502	651.2
558.927	636
559.332	645
559.736	644.6
560.162	644
560.566	642
560.992	654.4
561.396	639
561.801	641.6
562.227	641.2
562.631	636
563.036	642.4
563.462	645
563.867	630.4
564.272	622.4
564.698	646.6
565.103	626.6
565.508	658.6
565.935	637
566.34	633
566.745	652.2
567.172	632
567.577	656.8
567.982	647.8
568.409	638.8
568.815	618.2
569.22	635.8
569.626	635.8
570.053	615.6
570.459	635
570.865	638
571.292	644.2
571.698	631.8
572.104	610.8
572.531	628.6
572.937	639.2
573.343	628.4
573.75	634
574.177	631.8
574.583	638.6
574.99	623
575.396	626
575.824	624.4
576.231	638.6
576.637	617.2
577.065	658.4
577.472	618.8
577.879	630.4
578.286	636.4
578.714	622
579.121	626.4
579.528	626.8
579.935	635
580.364	621.2
580.771	610.8
581.178	610.2
581.585	628.4
582.014	623.4
582.421	619.6
582.829	619
583.236	625.8
583.644	616.2
584.073	619.2
584.481	620.8
584.889	610.8
585.296	618.2
585.726	613.6
586.134	606.8
586.542	617.2
586.95	635.4
587.358	607
587.787	622
588.196	628
588.604	606.2
589.012	616
589.421	610
589.851	608.6
590.259	621
590.668	608.4
591.076	651.2
591.485	605.2
591.894	609.2
592.324	618.2
592.733	630.4
593.142	598.2
593.551	608.8
593.96	645.2
594.369	596
594.8	601.4
595.209	617
595.618	596
596.028	605.2
596.437	604.2
596.847	608.4
597.256	605.2
597.687	609.6
598.097	604.8
598.507	604.2
598.917	612.8
599.327	610.6
599.736	605.8
600.146	618.4
600.556	609
600.988	618
601.398	595.4
601.808	612
602.219	588.6
602.629	602
603.039	601.4
603.45	625.8
603.86	602.2
604.271	612.8
604.703	607.4
605.114	600.6
605.525	609.4
605.935	606.2
606.346	620.8
606.757	611.6
607.168	603.6
607.579	593.4
607.99	610.2
608.402	603.4
608.813	603.6
609.224	594
609.636	594.6
610.047	596.2
610.48	601.4
610.892	608.2
611.303	610.8
611.715	604.6
612.127	599.4
612.539	586.8
612.95	598.2
613.362	584.2
613.774	590.6
614.186	586.2
614.599	592.6
615.011	603.2
615.423	605.2
615.835	594.6
616.248	588.8
616.66	606.6
617.073	584.8
617.485	597
617.898	611.4
618.311	601.8
618.723	605.8
619.136	623.2
619.549	606.2
619.962	622.6
620.375	598.8
620.788	609.8
621.201	605.4
621.614	604.6
622.028	600.2
622.441	599.6
622.854	614.2
623.268	599.4
623.681	611.4
624.095	599.6
624.509	603.6
624.922	606.6
625.336	585.4
625.728	600.6
626.142	606.6
626.556	615.4
626.97	606.4
627.384	603
627.799	596.8
628.213	617.6
628.627	599.6
629.041	592.2
629.456	591.6
629.87	604
630.285	608.4
630.699	604.4
631.093	600.6
631.507	605.4
631.922	605
632.337	610.8
632.752	591
633.167	598.2
633.582	592.8
633.997	594.2
634.412	586
634.806	599.6
635.221	591.4
635.637	606.8
636.052	591.4
636.468	601.4
636.883	609.4
637.299	600.2
637.715	588.2
638.109	590.8
638.525	583.2
638.941	601
639.357	602.6
639.773	604
640.189	592.8
640.584	596.6
641	596.8
641.416	582.2
641.832	597.8
642.249	592.6
642.665	592.4
643.06	599
643.477	598
643.894	589.2
644.31	602
644.727	591
645.123	590.8
645.54	590
645.957	597.4
646.374	606
646.77	597.8
647.187	626.8
647.604	590.4
648.021	586.4
648.439	582.2
648.835	595.8
649.252	593.8
649.67	586.8
650.088	594
650.484	589.6
650.902	601.2
651.32	600.6
651.738	588
652.134	592
652.552	608
652.971	590.6
653.389	598.2
653.786	613.4
654.204	609.4
654.622	585.6
655.019	589.4
655.438	598.4
655.857	591.4
656.275	600.2
656.673	587.4
657.091	609.8
657.51	582.6
657.908	601.4
658.327	604.4
658.746	580.8
659.144	594.4
659.563	595.8
659.982	599
660.38	588.2
660.8	590.2
661.219	599.6
661.617	598
662.037	596.4
662.457	599.6
662.855	579.2
663.275	617.2
663.695	596
664.094	584.4
664.514	594.4
664.934	585.8
665.333	595.8
665.753	589.8
666.152	585.4
666.572	595.2
666.993	602
667.392	580
667.812	592.2
668.212	603
668.632	599.2
669.053	590.6
669.453	596.2
669.874	602.8
670.273	598
670.694	586.8
671.116	604.4
671.515	602.2
671.937	595.6
672.337	595
672.758	591
673.158	603.8
673.58	580
673.98	590.6
674.402	599.8
674.824	594
675.224	581.6
675.646	578
676.047	589.2
676.469	603.8
676.869	597.4
677.292	595.8
677.693	583.8
678.115	587
678.516	597.6
678.939	600
679.34	597.4
679.762	605.2
680.164	592.4
680.586	584
680.988	598
681.411	619.4
681.812	587
682.236	585.6
682.637	582.4
683.061	581.2
683.462	596.4
683.864	591.2
684.288	600.6
684.69	583.4
685.114	598.2
685.516	602.2
685.94	582.2
686.342	601
686.766	585.6
687.168	585.8
687.571	605.6
687.995	595.4
688.398	582.4
688.822	592.6
689.225	604.2
689.628	608.4
690.052	595.2
690.456	594.6
690.88	581.2
691.284	570.6
691.687	605.2
692.112	573.2
692.515	577.4
692.919	589.2
693.344	591
693.747	584.8
694.173	579.8
694.577	600.6
694.98	589
695.406	588.6
695.81	594
696.214	587.2
696.64	582.2
697.044	601
697.448	595.2
697.874	581
698.279	589.4
698.684	578.4
699.11	582
699.514	582.6
699.919	579.8
700.324	586.2
700.75	582.8
701.156	589.4
701.561	592
701.987	590.2
702.393	600.4
702.798	596
703.203	588
703.63	587.6
704.036	592.2
704.442	583.6
704.847	578.8
705.274	584
705.68	588.4
706.086	591
706.492	570.6
706.92	581.8
707.326	592.8
707.732	585.4
708.139	580.4
708.545	573
708.973	588.2
709.38	584.4
709.786	569.6
710.193	598.4
710.6	589.2
711.028	573.2
711.435	574.2
711.842	582.2
712.249	580
712.656	584.4
713.064	594
713.492	576.2
713.9	584
714.307	587
714.715	583.6
715.123	589.2
715.53	590.6
715.938	597.6
716.367	587.4
716.775	582.8
717.184	585
717.592	582.2
718	596.4
718.408	626.4
718.816	627.6
719.225	595.6
719.633	594.2
720.042	584.8
720.472	592.2
720.881	603.4
721.29	592.6
721.699	579.8
722.108	594.6
722.517	587.6
722.926	582.6
723.335	600.4
723.744	591.8
724.154	589.2
724.563	587
724.973	590.8
725.382	591
725.792	588
726.202	571.6
726.612	611
727.022	585.2
727.432	592
779.813	590.6
780.223	634.8
780.634	595
781.044	582.2
781.454	583.6
781.865	594
782.276	584
782.686	600.8
783.097	591
783.508	581.2
783.919	585.6
784.33	599.4
784.741	604.2
785.152	583.6
785.563	572.2
785.974	589.2
786.386	598.6
786.776	584.2
787.188	587.2
787.599	585.4
788.011	594
788.423	592.4
788.835	580.6
789.247	584.2
789.659	587.8
790.071	579
790.483	630.2
790.874	582.6
791.286	597.4
791.699	586.8
792.111	592.6
792.524	589.4
792.937	581
793.349	579.6
793.741	585.8
794.154	584.8
794.567	604.6
794.98	590.8
795.393	578.4
795.785	607.2
796.198	588.8
796.612	581.4
797.026	579.2
797.439	572.4
797.831	583.6
798.245	578.4
798.659	581.6
799.073	580.6
799.487	577.2
799.88	584.6
800.294	585.4
800.708	584.8
801.123	589.8
801.516	596
801.93	568.6
802.345	570.8
802.76	590.6
803.153	594
803.568	598.6
803.983	590.2
804.377	588.6
804.792	568.8
805.207	565.6
805.601	584.2
806.016	616
806.432	582.2
806.826	617
807.242	597.4
807.658	582.2
808.052	581.2
808.468	578.6
808.884	570.8
809.279	577.6
809.695	591.4
810.111	608.2
810.506	591
810.922	606.4
811.339	580.8
811.734	602.4
812.151	579.4
812.546	581
812.963	575
813.38	587.8
813.776	582.4
814.193	601.4
814.589	577
815.006	592.4
815.402	581.2
815.82	584.6
816.237	585.2
816.633	589.8
817.051	579.8
817.448	590
817.866	577.6
818.262	609.4
818.68	586.2
819.077	581.6
819.495	583.6
819.892	618.2
820.311	586.2
820.708	575.8
821.127	588.2
821.524	597.6
821.943	584.2
822.34	601.8
822.759	587.8
823.157	587.4
823.576	599.6
823.974	595
824.393	603
824.791	576.2
825.189	577.6
825.609	580.6
826.007	580.6
826.427	572
826.826	580.6
827.246	590.6
827.644	574
828.043	600.8
828.463	572.4
828.862	597.2
829.261	591
829.682	567.2
830.081	597.6
830.502	578.6
830.901	589.2
831.301	603.6
831.722	571.6
832.121	586.2
832.521	577.8
832.943	580.2
833.342	589
833.742	575.8
834.164	585.4
834.564	575.6
834.965	580.4
835.386	582.2
835.787	583.4
836.188	584
836.588	584.4
837.01	590.8
837.411	577.2
837.812	591
838.213	585.4
838.636	580.8
839.037	642.4
839.438	590.4
839.84	589.8
840.263	590.4
840.664	591.8
841.066	587.6
841.468	586.8
841.891	586
842.293	585.6
842.695	597.4
843.098	593.2
843.5	578.2
843.902	592.6
844.326	583.2
844.729	592.2
845.131	589.2
845.534	582.2
845.937	589.2
846.34	591
846.764	581.4
847.167	581
847.571	571.2
847.974	582.6
848.377	573.8
848.781	624.2
849.184	588.4
849.588	577.6
849.992	577.2
850.396	571
850.821	603.2
851.225	583.8
851.63	573
852.034	598.2
852.438	586
852.843	604.4
853.247	575
853.652	573.4
854.057	601.8
854.462	578.6
854.867	587.2
855.272	606.8
855.677	576
856.082	570.2
856.487	574.6
