#lambda/nm	C1
208.295	511
208.67	465
209.045	430
209.419	430.8
209.794	610.4
210.169	596
210.544	725.8
210.919	619.2
211.295	608.6
211.67	623.6
212.045	612
212.421	614.4
212.796	655.2
213.172	610.6
213.547	613
213.923	613.2
214.299	606.2
214.675	630.2
215.051	621
215.427	625.6
215.803	635
216.179	624.4
216.555	607.2
216.932	628
217.308	615
217.684	619.2
218.061	627
218.438	615
218.814	601.8
219.191	611.2
219.568	605.8
219.945	607.8
220.322	616.6
220.699	617.8
221.076	617.4
221.453	626.2
221.83	613.4
222.208	602.2
222.585	600.6
222.962	612.8
223.34	611.2
223.717	616.2
224.095	602.4
224.473	617.6
224.851	609.6
225.229	602.8
225.607	627
225.985	607.6
226.363	616.8
226.741	619
227.119	610.6
227.497	625
227.876	596.2
228.254	619.2
228.633	621.4
229.011	617.4
229.39	611.6
229.769	614
230.148	619.6
230.527	627.6
230.905	613.8
231.284	619
231.664	608
232.043	629
232.422	621.4
232.801	616
233.181	625.8
233.56	621.4
233.94	619.6
234.319	602.8
234.699	615.6
235.079	652.6
235.458	652.2
235.838	634.8
236.218	616
236.598	600.2
236.978	611.4
237.358	607.8
237.738	617.4
238.119	624
238.499	612.8
238.88	612.8
239.26	634
239.641	608.8
240.021	613.2
240.402	619.8
240.783	619.4
241.163	605.2
241.544	621.2
241.925	615
242.306	627.6
242.687	616.2
243.069	612
243.45	627.8
243.831	614
244.212	616.2
244.594	645
244.975	629.4
245.357	616.4
245.739	612
246.12	615.2
246.502	626.6
246.884	619.8
247.266	616.4
247.648	613.2
248.03	642
248.412	619.4
248.794	625.6
249.176	613.8
249.559	634.6
249.941	608.2
250.323	604.4
250.706	601.6
251.089	609.6
251.471	616.2
251.854	612.6
252.237	605.8
252.62	618.6
253.002	608.8
253.385	610.4
253.769	624.4
254.152	617
254.535	625
254.918	603.8
255.301	623
255.685	616.6
256.068	614.6
256.452	635.2
256.835	626.4
257.219	629
257.603	625.6
257.986	608.8
258.37	630
258.754	608.4
259.138	620.4
259.522	627.4
259.906	618.8
260.29	627.8
260.675	618.8
261.059	623
261.443	609.2
261.828	622.2
262.212	619.8
262.597	607.2
262.981	611.2
263.366	625.6
263.751	609.8
264.136	615.6
264.521	612
264.906	613.4
265.291	626
265.676	616.4
266.061	623.2
266.446	645.8
266.831	617
267.217	636.2
267.602	619
267.987	624.2
268.373	612.6
268.759	627.6
269.144	629.6
269.53	612.8
269.916	616.4
270.302	612.6
270.688	621.4
271.074	619.4
271.46	630.2
271.846	651
272.232	623.6
272.618	602.8
273.004	617.6
273.391	632.8
273.777	632.4
274.164	619.8
274.55	628.4
274.937	622
275.324	612.4
275.71	626.2
276.097	625.8
276.484	609.4
276.871	622
277.258	616.6
277.645	603.6
278.032	619.4
278.419	621.2
278.807	612.6
279.194	609.8
279.581	607.8
279.969	625.8
280.356	621.8
280.744	615.6
281.131	639.8
281.519	629.4
281.907	608.2
282.295	617.4
282.682	633.8
283.07	619.2
283.458	624.6
283.846	626.2
284.235	632.6
284.623	628.8
285.011	611.6
285.399	627
285.788	616
286.176	601.2
286.565	636.8
286.953	611.8
287.342	611.8
287.731	601.2
288.119	607.2
288.508	610
288.897	615.8
289.286	599.4
289.675	617.6
290.064	629
290.453	613.2
290.821	617.8
291.21	638.2
291.599	612.2
291.989	614.4
292.378	626.6
292.768	636.2
293.157	627.8
293.547	624
293.936	612.2
294.326	611.4
294.716	622.6
295.106	612.2
295.496	625.2
295.886	627.8
296.276	624.6
296.666	611.6
297.056	612.2
297.446	604.8
297.836	638.2
298.227	620.2
298.617	621.8
299.008	632
299.398	622.6
299.789	613.4
300.179	621
300.57	633.8
300.961	615
301.352	611.2
301.742	622.2
302.133	615
302.524	612.8
302.915	622
303.307	613.8
303.698	632.2
304.089	618.6
304.48	622.4
304.872	622.8
305.263	620
305.655	614.8
306.046	627.4
306.438	614.8
306.829	613.8
307.221	632.6
307.613	628.4
308.005	629.8
308.397	634
308.789	639.8
309.181	645
309.573	638.8
309.965	631.2
310.357	621.6
310.749	631
311.142	612.4
311.534	609.4
311.926	619
312.319	612
312.711	611
313.104	620.6
313.497	613.2
313.889	655
314.282	633.6
314.675	634.6
315.068	628.6
315.461	625
315.854	654.2
316.247	620.6
316.64	615.4
317.033	617
317.405	623
317.798	604.8
318.192	613.8
318.585	612.4
318.979	619.8
319.372	607
319.766	614.4
320.16	622.8
320.553	627.4
320.947	641.4
321.341	608.6
321.735	616.4
322.129	605.8
322.523	645.4
322.917	614.8
323.311	621.8
323.705	617
324.099	616.2
324.494	629
324.888	628.8
325.282	607.8
325.677	632.4
326.071	621
326.466	626.4
326.861	627.4
327.255	631.8
327.65	633.2
328.045	638
328.44	614.6
328.835	619.6
329.23	609.8
329.625	650
330.02	615
330.415	641.2
330.81	620.6
331.206	622.6
331.601	621.2
331.996	632.4
332.37	644.8
332.766	598.2
333.161	644.2
333.557	613
333.953	622
334.348	1059.4
334.744	612.6
335.14	619
335.536	609.2
335.932	628.4
336.328	619
336.724	627.4
337.12	616.6
337.516	624.6
337.913	612.6
338.309	635.8
338.705	622.4
339.102	626.8
339.498	616
339.895	643.4
340.291	613.8
340.688	629.4
341.085	604.4
341.481	615.8
341.878	615
342.275	629.4
342.672	614.2
343.069	615.4
343.466	602.6
343.842	624
344.239	611.2
344.636	616.8
345.033	601.8
345.431	602
345.828	620
346.225	613
346.623	643.8
347.02	620.4
347.418	629
347.816	622.8
348.213	603.8
348.611	615.8
349.009	603.4
349.407	623.8
349.805	602.8
350.203	610.4
350.601	618.2
350.999	611.6
351.397	681
351.795	616
352.193	611.4
352.57	625
352.969	629.2
353.367	606.2
353.766	610.4
354.164	614.4
354.563	623.8
354.961	620.4
355.36	602
355.759	615
356.158	599.2
356.557	610.4
356.956	608.4
357.355	611
357.754	616.6
358.153	613
358.552	642
358.951	619.4
359.35	635.4
359.75	614.8
360.149	607.8
360.527	600
360.926	610.8
361.326	614.6
361.726	617.4
362.125	609
362.525	613.6
362.925	618.6
363.325	607.4
363.724	608.6
364.124	605.2
364.524	604.8
364.924	606.8
365.324	620.4
365.725	595.8
366.125	627
366.525	608
366.904	605.8
367.304	598.2
367.705	628.2
368.105	627.6
368.506	613.8
368.906	605.4
369.307	613.6
369.708	613.4
370.108	606.6
370.509	614
370.91	604.4
371.311	607.4
371.712	616.6
372.113	610.2
372.514	597.2
372.894	611
373.295	604.2
373.696	609.8
374.097	617.2
374.499	637.6
374.9	608.6
375.301	599.8
375.703	609.4
376.105	596
376.506	613.4
376.908	614
377.309	613.4
377.711	615.8
378.113	611.8
378.493	623.2
378.895	613.2
379.297	622.8
379.699	602
380.102	608.8
380.504	608.6
380.906	603.4
381.308	627
381.71	611.2
382.113	619.6
382.515	607.6
382.918	615.8
383.299	611.6
383.701	619
384.104	613.4
384.507	592.2
384.909	609.8
385.312	602.8
385.715	596.2
386.118	602.2
386.521	606
386.924	617.6
387.327	603
387.709	593.6
388.112	593.4
388.515	606.2
388.918	605
389.322	610.8
389.725	603.4
390.129	633.6
390.532	608.6
390.936	599.8
391.339	601.4
391.743	618.2
392.125	604
392.529	616.8
392.933	620.8
393.337	616.4
393.74	614.4
394.144	607
394.548	604
394.953	609
395.357	619
395.761	605.4
396.144	610
396.548	611.8
396.952	606.2
397.357	600.8
397.761	610.6
398.166	602.4
398.57	616
398.975	601.2
399.379	609.4
399.763	659
400.168	605.2
400.572	610.4
400.977	607
401.382	627.8
401.787	616.4
402.192	617.2
402.597	625
403.002	596.8
403.386	619.6
403.791	634.2
404.197	609.2
404.602	606.2
405.007	612.8
405.413	603.8
405.818	607.2
406.224	601.6
406.608	600
407.014	601
407.42	622.6
407.825	608.2
408.231	623.8
408.637	615.4
409.043	628.8
409.449	617
409.834	605.6
410.24	613
410.646	622.6
411.052	620.8
411.458	612
411.865	619
412.271	622.2
412.677	608.6
413.062	613.8
413.469	593.8
413.875	632.2
414.282	619.8
414.689	609.8
415.095	613.6
415.502	597.8
415.888	607.6
416.294	589.4
416.701	646.2
417.108	596
417.515	608.6
417.923	606
418.33	634.6
418.715	611
419.123	606.6
419.53	607
419.937	608.6
420.345	617
420.752	599.4
421.16	629.6
421.546	601.6
421.953	619.2
422.361	597.6
422.769	606.2
423.177	607.6
423.585	637.8
423.992	630
424.379	626.8
424.787	620.6
425.195	637.8
425.603	608.8
426.011	628.8
426.419	624.4
426.806	613.8
427.214	613
427.623	627.8
428.031	629.2
428.44	621.4
428.848	624.4
429.235	622.4
429.644	623
430.053	618
430.461	628.4
430.87	643
431.279	627.8
431.666	616
432.075	617.4
432.484	633
432.893	625
433.302	652
433.711	661.2
434.099	622.2
434.508	633.8
434.918	635
435.327	646
435.737	652.6
436.125	662
436.534	650.8
436.944	667
437.353	673.2
437.763	697
438.173	669.6
438.561	697.6
438.971	674
439.381	698
439.791	712.6
440.201	691.2
440.589	714
440.999	726.8
441.409	721.4
441.819	712.6
442.23	749.8
442.619	749.2
443.029	743.8
443.439	752
443.85	765.2
444.26	776.6
444.649	777
445.06	778.4
445.471	775.6
445.881	784.4
446.292	794
446.682	817.4
447.092	782
447.503	847.2
447.914	799
448.325	802.8
448.715	809.6
449.126	799.2
449.537	811.2
449.948	807.8
450.338	812.6
450.75	822.8
451.161	814.2
451.572	830.2
451.984	805.8
452.374	805.8
452.786	819.6
453.197	830.4
453.609	830.2
453.999	816.4
454.411	823
454.823	845.8
455.235	839
455.647	832.4
456.037	832.2
456.449	828.6
456.862	846.2
457.274	845.2
457.665	829.6
458.077	840.4
458.489	863.2
458.902	834.6
459.293	839.4
459.705	845.4
460.118	839
460.53	856.6
460.921	852.4
461.334	854.4
461.747	842.4
462.16	855.4
462.551	864
462.964	853.4
463.377	841.8
463.79	854.2
464.182	856.4
464.595	845.6
465.008	871.6
465.421	854.2
465.813	855.2
466.226	863.8
466.64	847.6
467.053	906.2
467.445	866.6
467.859	884.4
468.272	868.4
468.686	872
469.078	863
469.492	848.6
469.906	857
470.298	867
470.712	856.8
471.126	907.6
471.54	848
471.933	852.2
472.347	860.8
472.761	864
473.175	853.6
473.568	849.8
473.982	850.2
474.397	851.2
474.79	859.4
475.204	867
475.619	852.2
476.033	855
476.426	849
476.841	848.8
477.256	886.2
477.649	856
478.064	846.6
478.479	836.4
478.872	850.2
479.287	843.2
479.702	840
480.118	839.6
480.511	854
480.927	854.4
481.342	847.8
481.736	849.6
482.151	827.6
482.566	857.6
482.96	837
483.376	852.2
483.792	833.6
484.186	846.2
484.602	834.6
485.017	835
485.412	832.4
485.827	851.6
486.243	833.2
486.638	856.8
487.054	836.6
487.47	853.2
487.865	832.4
488.281	833.4
488.697	822.8
489.092	817.6
489.508	818
489.925	837.4
490.32	809.4
490.736	828.2
491.153	827.4
491.548	816.2
491.964	822
492.381	799.4
492.776	832.2
493.193	816
493.61	813
494.006	812.6
494.422	824.2
494.84	787.6
495.235	815.4
495.652	800.6
496.069	805.2
496.465	795.2
496.883	798
497.3	825.2
497.696	791.8
498.113	797.6
498.509	783.2
498.927	782
499.344	780.4
499.741	782.8
500.158	801.4
500.576	784.6
500.973	774.8
501.39	781
501.787	766.8
502.205	790
502.623	773.8
503.02	761
503.438	783.2
503.856	769.4
504.253	782.2
504.671	775
505.068	760
505.486	769.8
505.905	780.4
506.302	767
506.72	771.6
507.118	748.6
507.536	760.6
507.955	753.4
508.352	753.4
508.771	755.4
509.169	757.2
509.587	746.6
510.006	748.4
510.404	736.2
510.823	729
511.221	733.8
511.64	733
512.038	745.4
512.457	731.8
512.877	730.8
513.275	729.4
513.694	726.6
514.092	729.2
514.512	731.8
514.91	731
515.33	728.2
515.749	728.8
516.148	732.4
516.568	733.6
516.966	722
517.386	713.2
517.785	720
518.205	717.8
518.603	714.4
519.024	712.2
519.444	712.2
519.843	715.8
520.263	728.4
520.662	730
521.082	712
521.481	715.8
521.902	704
522.301	709.4
522.722	704.8
523.121	698.8
523.542	717.8
523.963	711.2
524.362	713.8
524.783	710
525.183	712.2
525.604	708.6
526.003	686.4
526.425	696.4
526.824	703.2
527.246	708.8
527.646	709.8
528.067	686.4
528.467	694.6
528.888	693.2
529.289	694.4
529.71	693.8
530.11	686.6
530.532	685.4
530.932	679.6
531.354	677
531.755	721
532.176	690.8
532.577	676.4
532.999	682.8
533.4	686.2
533.822	696
534.223	695.6
534.645	675.6
535.046	678.2
535.468	677.2
535.869	690.8
536.292	678.2
536.693	701.4
537.115	670.2
537.516	663
537.939	666.4
538.34	692
538.742	686.4
539.165	664.2
539.566	681
539.989	652.4
540.391	667.6
540.814	659
541.216	662.8
541.639	672
542.041	671.4
542.464	665.6
542.866	660.4
543.268	648.4
543.691	678.4
544.093	671.4
544.517	679.2
544.919	658.8
545.343	683.8
545.745	647.8
546.147	658.8
546.571	651.2
546.974	652.4
547.398	660.4
547.8	676.6
548.224	650.6
548.627	652.8
549.03	657.2
549.454	644.2
549.857	640
550.281	648.2
550.684	654.8
551.087	658.4
551.512	657
551.915	654
552.34	650.6
552.743	642.4
553.146	659.2
553.571	637.6
553.975	662.6
554.399	633.4
554.803	690.2
555.207	641
555.632	633.6
556.036	646.6
556.461	638.2
556.865	642
557.268	635.6
557.694	634.6
558.098	641.6
558.502	637.4
558.927	632.6
559.332	635.2
559.736	639.6
560.162	640.8
560.566	643.6
560.992	640.4
561.396	632
561.801	637.8
562.227	634
562.631	626.6
563.036	634
563.462	645.4
563.867	627.8
564.272	619.2
564.698	626.8
565.103	626
565.508	656.8
565.935	631.4
566.34	627.6
566.745	637.6
567.172	621.4
567.577	642.4
567.982	645.8
568.409	631.6
568.815	623.4
569.22	620
569.626	643.8
570.053	614.6
570.459	631.2
570.865	635.4
571.292	634.6
571.698	627.4
572.104	613.4
572.531	624.8
572.937	642
573.343	626.6
573.75	620.4
574.177	634.2
574.583	637
574.99	622.4
575.396	630.8
575.824	617
576.231	630.6
576.637	618.8
577.065	643.8
577.472	619.8
577.879	623.4
578.286	638.2
578.714	610.8
579.121	613.6
579.528	628.2
579.935	628.2
580.364	618.4
580.771	602.2
581.178	611.2
581.585	625.8
582.014	624.4
582.421	614.6
582.829	606
583.236	620.8
583.644	605.4
584.073	613.6
584.481	618.6
584.889	606
585.296	627
585.726	619.6
586.134	609.8
586.542	618.8
586.95	641.2
587.358	616.6
587.787	623.6
588.196	627.4
588.604	608.4
589.012	601.4
589.421	606.2
589.851	611.4
590.259	621.2
590.668	598.6
591.076	646.8
591.485	602.4
591.894	623
592.324	625
592.733	625.6
593.142	601.8
593.551	613.6
593.96	609.8
594.369	602
594.8	595.4
595.209	607.4
595.618	597.8
596.028	602.4
596.437	596
596.847	604.2
597.256	610.8
597.687	615
598.097	607
598.507	599.4
598.917	606.4
599.327	617
599.736	606.4
600.146	608.4
600.556	607.8
600.988	618
601.398	603.2
601.808	614.6
602.219	597
602.629	602.8
603.039	612.4
603.45	628.2
603.86	600
604.271	616.2
604.703	602.6
605.114	601.8
605.525	595.8
605.935	601
606.346	617.4
606.757	609.6
607.168	596.6
607.579	595.6
607.99	609.6
608.402	595.4
608.813	598.4
609.224	592.4
609.636	585.8
610.047	593.6
610.48	598.2
610.892	603.4
611.303	600.8
611.715	598.4
612.127	596.4
612.539	594.2
612.95	597.6
613.362	587.2
613.774	582
614.186	590
614.599	595.4
615.011	594.8
615.423	604.2
615.835	596.2
616.248	591.2
616.66	609.4
617.073	591.8
617.485	599.2
617.898	611
618.311	605.4
618.723	599.6
619.136	621
619.549	610.8
619.962	615.4
620.375	598.4
620.788	607.2
621.201	592.6
621.614	604
622.028	599.4
622.441	603.2
622.854	619.2
623.268	597.8
623.681	600
624.095	605.6
624.509	614
624.922	602.8
625.336	591
625.728	601.4
626.142	608.8
626.556	609.2
626.97	601.8
627.384	591
627.799	595.2
628.213	612
628.627	603.6
629.041	599
629.456	596.8
629.87	597.8
630.285	607.8
630.699	617
631.093	607
631.507	597.4
631.922	607
632.337	616
632.752	592
633.167	596.4
633.582	599
633.997	590.2
634.412	588.8
634.806	607.2
635.221	585.8
635.637	600
636.052	593.4
636.468	597.2
636.883	617.8
637.299	593.6
637.715	581.8
638.109	592.8
638.525	583.8
638.941	598.2
639.357	596.8
639.773	601.6
640.189	580.6
640.584	589.8
641	599.6
641.416	581.6
641.832	598.2
642.249	587.8
642.665	598.6
643.06	596.2
643.477	607
643.894	587.6
644.31	589.6
644.727	593.2
645.123	599
645.54	594.2
645.957	598.2
646.374	598.6
646.77	597.2
647.187	624.4
647.604	601
648.021	578
648.439	586.4
648.835	596
649.252	596.8
649.67	593
650.088	598.8
650.484	595
650.902	600
651.32	603
651.738	592.6
652.134	597.2
652.552	621.6
652.971	593.8
653.389	599
653.786	603.8
654.204	614.2
654.622	590.2
655.019	599.8
655.438	598.6
655.857	595
656.275	595.8
656.673	590.2
657.091	605.8
657.51	600.2
657.908	603.8
658.327	605.2
658.746	590.4
659.144	597.8
659.563	605.4
659.982	595
660.38	585.6
660.8	592
661.219	609.8
661.617	593.2
662.037	600.6
662.457	606.2
662.855	575.2
663.275	624
663.695	596.4
664.094	586.2
664.514	589.2
664.934	588
665.333	602.8
665.753	586
666.152	591.6
666.572	586
666.993	601.4
667.392	588.2
667.812	589.8
668.212	596.2
668.632	599.2
669.053	590.6
669.453	594
669.874	602.2
670.273	587
670.694	588.8
671.116	605
671.515	602.6
671.937	592.4
672.337	590.2
672.758	595.2
673.158	592.4
673.58	582.4
673.98	600.8
674.402	606.6
674.824	590
675.224	589.4
675.646	575.6
676.047	589
676.469	587.2
676.869	601.4
677.292	594
677.693	598.6
678.115	592
678.516	595
678.939	596
679.34	590.4
679.762	604
680.164	597.2
680.586	595.4
680.988	594.8
681.411	611.6
681.812	597.8
682.236	581.8
682.637	584.8
683.061	581.2
683.462	584.2
683.864	583.4
684.288	589.8
684.69	584.2
685.114	596.4
685.516	596.6
685.94	587
686.342	605.2
686.766	580
687.168	588.8
687.571	602.4
687.995	595.2
688.398	574
688.822	594.4
689.225	605.6
689.628	611.8
690.052	588
690.456	596.2
690.88	595.6
691.284	582.8
691.687	592.4
692.112	587.6
692.515	591.4
692.919	590.8
693.344	587.4
693.747	592
694.173	588.8
694.577	601.4
694.98	594
695.406	589.2
695.81	588
696.214	596.2
696.64	590.2
697.044	588.2
697.448	597.8
697.874	589.2
698.279	586.8
698.684	584.4
699.11	581.2
699.514	587
699.919	589
700.324	585
700.75	584.6
701.156	580.6
701.561	594.6
701.987	583.4
702.393	597.2
702.798	601.4
703.203	579.4
703.63	568.8
704.036	583.4
704.442	580.2
704.847	575
705.274	579.6
705.68	589.8
706.086	581
706.492	576.2
706.92	583.8
707.326	594.6
707.732	582
708.139	578
708.545	572.4
708.973	586.2
709.38	588.6
709.786	576.2
710.193	604.6
710.6	585.2
711.028	582.8
711.435	592.2
711.842	583.8
712.249	584.4
712.656	585.8
713.064	596.6
713.492	578
713.9	584.2
714.307	602.2
714.715	588.6
715.123	586.8
715.53	589.6
715.938	587
716.367	592.2
716.775	587.6
717.184	581.8
717.592	587.2
718	594.6
718.408	621
718.816	636.8
719.225	599.4
719.633	583
720.042	585.2
720.472	594.6
720.881	609.2
721.29	594.4
721.699	583.6
722.108	588.2
722.517	593.4
722.926	585.2
723.335	595
723.744	595.4
724.154	593.4
724.563	590.6
724.973	598.8
725.382	592.8
725.792	588.4
726.202	575.8
726.612	601.8
727.022	586.6
727.432	581.6
779.813	588.8
780.223	631.4
780.634	576.2
781.044	581.6
781.454	585.4
781.865	602.2
782.276	577
782.686	590.2
783.097	581.2
783.508	585.6
783.919	594.4
784.33	598.4
784.741	597.4
785.152	576
785.563	561.2
785.974	578.6
786.386	592.6
786.776	583.2
787.188	579.8
787.599	567.8
788.011	589.4
788.423	590.4
788.835	589.6
789.247	573.6
789.659	581.8
790.071	578
790.483	632.8
790.874	580.6
791.286	597.4
791.699	585.6
792.111	582.8
792.524	587.2
792.937	593
793.349	580
793.741	576.6
794.154	580.6
794.567	604.6
794.98	592.2
795.393	574.4
795.785	601
796.198	584.4
796.612	587.2
797.026	582.6
797.439	563.6
797.831	586.6
798.245	572.4
798.659	590.2
799.073	584.2
799.487	582.6
799.88	591.4
800.294	585.8
800.708	591.8
801.123	588.4
801.516	605.2
801.93	577.6
802.345	577.6
802.76	588
803.153	604.4
803.568	601.8
803.983	597.4
804.377	585.6
804.792	575.4
805.207	570.2
805.601	587
806.016	616.4
806.432	578.4
806.826	620.2
807.242	598.2
807.658	588.4
808.052	578.2
808.468	577.8
808.884	579
809.279	578.8
809.695	601.6
810.111	600.6
810.506	591
810.922	599
811.339	582.8
811.734	584.6
812.151	578.8
812.546	577.8
812.963	585.6
813.38	587.2
813.776	590.6
814.193	601.8
814.589	582.2
815.006	574.6
815.402	580.2
815.82	585.8
816.237	593.4
816.633	587.8
817.051	574.6
817.448	587.8
817.866	567.8
818.262	605.6
818.68	580.6
819.077	591.6
819.495	585
819.892	623.2
820.311	581.2
820.708	581.6
821.127	584.4
821.524	598.2
821.943	589.4
822.34	600.8
822.759	589.6
823.157	589.2
823.576	596
823.974	588.6
824.393	629.2
824.791	579.4
825.189	579.2
825.609	588.4
826.007	582
826.427	576.2
826.826	579.2
827.246	584.2
827.644	573.6
828.043	600.6
828.463	580.2
828.862	593.2
829.261	587.2
829.682	578.2
830.081	587.4
830.502	577.8
830.901	594
831.301	597.6
831.722	579.4
832.121	594.8
832.521	581.8
832.943	583.6
833.342	583.2
833.742	579.8
834.164	578.8
834.564	570.2
834.965	585.2
835.386	576.8
835.787	582.2
836.188	585
836.588	581.8
837.01	590.8
837.411	578.2
837.812	593.2
838.213	581
838.636	580.4
839.037	651.2
839.438	585.4
839.84	594.2
840.263	587.6
840.664	586.8
841.066	586.6
841.468	583.2
841.891	578.8
842.293	594.4
842.695	587.4
843.098	593.2
843.5	588.2
843.902	589.8
844.326	592.4
844.729	591.2
845.131	595.8
845.534	575.6
845.937	602.6
846.34	596.2
846.764	580.8
847.167	590.6
847.571	573.4
847.974	577.4
848.377	579.2
848.781	629.6
849.184	588.4
849.588	573
849.992	565.8
850.396	581.8
850.821	602.2
851.225	589.6
851.63	576.6
852.034	590
852.438	574.2
852.843	662.2
853.247	570.6
853.652	577
854.057	593.8
854.462	584
854.867	584.8
855.272	612.6
855.677	581.6
856.082	582
856.487	571.4
856.893	581
857.298	578.2
