#lambda/nm	C1
208.295	506.4
208.67	463.8
209.045	429
209.419	428.6
209.794	616.8
210.169	603.4
210.544	729
210.919	622.2
211.295	607.2
211.67	615
212.045	610.2
212.421	612.6
212.796	650.2
213.172	615.8
213.547	614.8
213.923	617.2
214.299	609.8
214.675	629.8
215.051	613.2
215.427	625.2
215.803	635.4
216.179	624.6
216.555	608.6
216.932	627.8
217.308	617.8
217.684	612.6
218.061	619.6
218.438	627.6
218.814	615.6
219.191	618.4
219.568	608
219.945	615.8
220.322	623
220.699	622.4
221.076	623.4
221.453	625.6
221.83	614.6
222.208	612.4
222.585	614.4
222.962	616.8
223.34	619
223.717	611.6
224.095	619.8
224.473	615.2
224.851	614.2
225.229	598.2
225.607	636.4
225.985	606.4
226.363	616.2
226.741	616.2
227.119	614
227.497	630.8
227.876	600.4
228.254	625.6
228.633	617.4
229.011	616.2
229.39	615.6
229.769	622.8
230.148	629
230.527	629.4
230.905	618
231.284	618.6
231.664	612.8
232.043	625.6
232.422	616.4
232.801	604.8
233.181	618.6
233.56	612
233.94	623.4
234.319	603.6
234.699	618.6
235.079	650
235.458	659.4
235.838	642.4
236.218	616.4
236.598	609.2
236.978	610.6
237.358	610.2
237.738	615.2
238.119	627.8
238.499	607.2
238.88	609.6
239.26	631.6
239.641	600.2
240.021	614.4
240.402	617.2
240.783	612.6
241.163	611
241.544	619.8
241.925	616.8
242.306	629.2
242.687	622.8
243.069	617.4
243.45	619.6
243.831	613
244.212	611.6
244.594	648.2
244.975	627.4
245.357	625
245.739	621.2
246.12	619
246.502	641.8
246.884	615
247.266	621.4
247.648	619
248.03	635.8
248.412	614.4
248.794	620.4
249.176	612.2
249.559	619
249.941	613.2
250.323	614.2
250.706	613.8
251.089	620
251.471	621.6
251.854	622
252.237	623.6
252.62	629.2
253.002	619.6
253.385	616.2
253.769	632.4
254.152	624.2
254.535	624
254.918	612.6
255.301	617
255.685	615.2
256.068	611.6
256.452	644
256.835	631
257.219	618.8
257.603	628.6
257.986	606.4
258.37	620.2
258.754	594
259.138	633.4
259.522	625.2
259.906	620.4
260.29	614
260.675	610.4
261.059	615
261.443	603.2
261.828	622.6
262.212	623.8
262.597	603.4
262.981	604.8
263.366	615.6
263.751	625
264.136	610.4
264.521	614.6
264.906	609
265.291	629.8
265.676	609.6
266.061	618.8
266.446	634.8
266.831	618.6
267.217	637
267.602	621
267.987	618.6
268.373	609.4
268.759	630.4
269.144	627
269.53	627.8
269.916	620
270.302	617
270.688	622.8
271.074	615
271.46	623.2
271.846	647
272.232	621.6
272.618	614
273.004	618
273.391	628.4
273.777	625.2
274.164	618.8
274.55	626.2
274.937	617.8
275.324	612.2
275.71	622
276.097	622.4
276.484	614.6
276.871	617.8
277.258	622.6
277.645	601.6
278.032	618.4
278.419	616.8
278.807	623.8
279.194	607.2
279.581	611
279.969	614.2
280.356	614.2
280.744	623.8
281.131	638.6
281.519	629.2
281.907	604.6
282.295	607.4
282.682	630
283.07	620.2
283.458	629.4
283.846	632.4
284.235	626.8
284.623	623.6
285.011	611.2
285.399	626.6
285.788	619.8
286.176	602.4
286.565	622.6
286.953	609
287.342	614.2
287.731	616.8
288.119	603
288.508	605.6
288.897	605.4
289.286	597.2
289.675	612.8
290.064	622.6
290.453	617.6
290.821	610.2
291.21	627.8
291.599	616.4
291.989	606.6
292.378	622.8
292.768	631.4
293.157	621.2
293.547	624
293.936	612.4
294.326	610
294.716	621.2
295.106	612.2
295.496	625
295.886	623.8
296.276	615.4
296.666	607
297.056	607.8
297.446	610.6
297.836	640.2
298.227	616.2
298.617	618.8
299.008	633.6
299.398	613
299.789	610.6
300.179	620.6
300.57	636.4
300.961	615.4
301.352	613.2
301.742	623.2
302.133	622.8
302.524	619.8
302.915	620
303.307	598
303.698	630
304.089	618.4
304.48	608.2
304.872	620.8
305.263	613.6
305.655	611.2
306.046	619.2
306.438	617
306.829	612.2
307.221	629.2
307.613	623.4
308.005	625.2
308.397	628.6
308.789	635.4
309.181	637.2
309.573	638.8
309.965	624.8
310.357	621
310.749	627.6
311.142	618.4
311.534	614
311.926	619.6
312.319	615.6
312.711	618.6
313.104	634.6
313.497	611.8
313.889	656
314.282	636.4
314.675	643.6
315.068	619.2
315.461	624.4
315.854	653.8
316.247	620.8
316.64	617.8
317.033	607.8
317.405	635.4
317.798	621.2
318.192	624
318.585	616.2
318.979	617.4
319.372	606.2
319.766	619.4
320.16	633
320.553	639
320.947	633
321.341	616.6
321.735	615.6
322.129	615.6
322.523	644
322.917	614.6
323.311	633
323.705	622.8
324.099	624.4
324.494	638.4
324.888	634.2
325.282	616
325.677	621.4
326.071	621.8
326.466	630
326.861	623.6
327.255	631.4
327.65	635
328.045	636
328.44	623.4
328.835	625
329.23	614.8
329.625	645.6
330.02	623.6
330.415	637.8
330.81	619.6
331.206	620.2
331.601	612.6
331.996	633.6
332.37	646.4
332.766	608.4
333.161	647.8
333.557	622.8
333.953	622.4
334.348	853
334.744	620.8
335.14	616.6
335.536	613.8
335.932	629
336.328	620.2
336.724	633.4
337.12	621.8
337.516	624.6
337.913	626.8
338.309	636.6
338.705	614.8
339.102	629.2
339.498	615.4
339.895	640.4
340.291	609.8
340.688	626.6
341.085	617.4
341.481	614.4
341.878	624
342.275	637.2
342.672	610.8
343.069	622
343.466	607.2
343.842	631.2
344.239	617.6
344.636	615
345.033	613.4
345.431	614.2
345.828	624.2
346.225	620.2
346.623	653.2
347.02	628.8
347.418	631
347.816	629.6
348.213	612.4
348.611	630.2
349.009	617.2
349.407	629.8
349.805	604.8
350.203	606.8
350.601	631.6
350.999	607.4
351.397	670.6
351.795	623.8
352.193	627.4
352.57	624
352.969	624.4
353.367	607.2
353.766	614.8
354.164	614.6
354.563	626
354.961	617.8
355.36	609.2
355.759	616.4
356.158	606
356.557	605.8
356.956	598.2
357.355	604.4
357.754	616.4
358.153	616.2
358.552	637.4
358.951	615
359.35	625
359.75	602.4
360.149	604.2
360.527	592.6
360.926	606.2
361.326	608.2
361.726	608
362.125	608.6
362.525	625.2
362.925	615
363.325	616.8
363.724	609
364.124	611
364.524	608.8
364.924	613.6
365.324	625.8
365.725	599.8
366.125	622.8
366.525	611.2
366.904	607.2
367.304	593
367.705	633
368.105	625.4
368.506	614.4
368.906	608.4
369.307	601.4
369.708	624.6
370.108	592.6
370.509	614.6
370.91	609.4
371.311	611.2
371.712	618.4
372.113	610.6
372.514	593.6
372.894	607.2
373.295	605.2
373.696	616.2
374.097	618
374.499	640
374.9	615.2
375.301	611.4
375.703	612.2
376.105	605.4
376.506	609.8
376.908	618.6
377.309	615.4
377.711	607.2
378.113	604
378.493	613.8
378.895	609.8
379.297	619.8
379.699	595.6
380.102	615
380.504	611.4
380.906	603.8
381.308	633.8
381.71	608.8
382.113	625.4
382.515	600
382.918	612.2
383.299	602.2
383.701	620.6
384.104	602.8
384.507	588.8
384.909	608.8
385.312	594
385.715	601.8
386.118	597.8
386.521	586.2
386.924	613.4
387.327	603.4
387.709	588.2
388.112	590.8
388.515	605.6
388.918	606.2
389.322	608.8
389.725	598.2
390.129	621.2
390.532	614.2
390.936	601.8
391.339	599.4
391.743	602.2
392.125	603.8
392.529	618.4
392.933	623.2
393.337	612.8
393.74	604
394.144	610.6
394.548	601.4
394.953	603.8
395.357	619.4
395.761	605.2
396.144	605
396.548	609.6
396.952	602.8
397.357	601.2
397.761	594.8
398.166	607.4
398.57	600.8
398.975	591.4
399.379	610.6
399.763	651.2
400.168	613.4
400.572	608.6
400.977	604.2
401.382	621
401.787	618
402.192	629.2
402.597	629.6
403.002	598.2
403.386	622
403.791	626.2
404.197	602.8
404.602	617.2
405.007	611.6
405.413	605
405.818	609.6
406.224	599.4
406.608	596.6
407.014	602.6
407.42	624.2
407.825	597.6
408.231	622
408.637	606
409.043	631
409.449	603.4
409.834	604.6
410.24	610.6
410.646	632.8
411.052	620
411.458	615.2
411.865	624.8
412.271	616
412.677	608
413.062	617.2
413.469	604.6
413.875	629.4
414.282	617
414.689	619.8
415.095	616
415.502	606
415.888	609.8
416.294	593.2
416.701	654.6
417.108	604
417.515	626.4
417.923	609.8
418.33	633.6
418.715	622.6
419.123	615
419.53	603.2
419.937	610.2
420.345	617.4
420.752	612.8
421.16	628.6
421.546	617.4
421.953	622
422.361	599.6
422.769	617
423.177	611.4
423.585	633.8
423.992	635.4
424.379	617
424.787	623.8
425.195	638.6
425.603	609.2
426.011	622.8
426.419	622.6
426.806	623.2
427.214	618
427.623	622.6
428.031	635
428.44	624.8
428.848	631.4
429.235	628.8
429.644	617.2
430.053	615.8
430.461	629.6
430.87	640.2
431.279	635
431.666	619.8
432.075	612.8
432.484	628.2
432.893	621
433.302	649
433.711	665.8
434.099	643
434.508	641.2
434.918	631.8
435.327	660.6
435.737	664.2
436.125	671.8
436.534	660.6
436.944	676.8
437.353	685
437.763	713.2
438.173	682.8
438.561	710
438.971	698.8
439.381	714.6
439.791	727.4
440.201	708.2
440.589	737.4
440.999	744.4
441.409	751.2
441.819	740.8
442.23	759.4
442.619	772.2
443.029	768.4
443.439	784
443.85	780.8
444.26	796
444.649	795.4
445.06	793.4
445.471	797
445.881	810
446.292	822.8
446.682	827.8
447.092	803
447.503	869.8
447.914	823
448.325	818.8
448.715	829
449.126	825.8
449.537	837.6
449.948	839.2
450.338	843.4
450.75	852
451.161	850.4
451.572	844.4
451.984	839.2
452.374	832.8
452.786	845
453.197	852.8
453.609	847.2
453.999	845.8
454.411	848.6
454.823	866.6
455.235	858.2
455.647	857.6
456.037	867.4
456.449	845.4
456.862	865.2
457.274	855.4
457.665	846.8
458.077	862.8
458.489	910.6
458.902	867.4
459.293	870
459.705	871
460.118	870.4
460.53	867.8
460.921	871
461.334	876
461.747	871
462.16	895.2
462.551	895
462.964	884.8
463.377	867.6
463.79	874.6
464.182	889.2
464.595	873.6
465.008	884.8
465.421	894.6
465.813	881
466.226	895.6
466.64	887.4
467.053	924.4
467.445	900.6
467.859	905
468.272	886.8
468.686	900.2
469.078	888.8
469.492	877.4
469.906	883.4
470.298	895.4
470.712	877.8
471.126	939.4
471.54	882.2
471.933	889
472.347	886
472.761	883.6
473.175	881.4
473.568	892.8
473.982	874.6
474.397	885.2
474.79	887.8
475.204	893.8
475.619	873.4
476.033	890.6
476.426	880.6
476.841	875.4
477.256	906.4
477.649	874
478.064	879.2
478.479	873
478.872	855.4
479.287	858
479.702	860
480.118	869.6
480.511	851
480.927	875.6
481.342	859
481.736	873.6
482.151	859.8
482.566	878.2
482.96	868.8
483.376	881.2
483.792	858
484.186	858.6
484.602	849.8
485.017	852.8
485.412	849.4
485.827	852.6
486.243	849.6
486.638	874.4
487.054	847.4
487.47	861.8
487.865	837.2
488.281	827
488.697	835.6
489.092	833
489.508	838.4
489.925	846.8
490.32	818.4
490.736	850
491.153	829.2
491.548	833.2
491.964	847
492.381	815.6
492.776	837
493.193	833.6
493.61	846
494.006	829.8
494.422	822
494.84	825.6
495.235	826.4
495.652	826.2
496.069	822.6
496.465	811
496.883	807.8
497.3	838.4
497.696	807.6
498.113	819.2
498.509	795
498.927	799.2
499.344	805.4
499.741	790.8
500.158	809.6
500.576	807
500.973	799.2
501.39	792.4
501.787	786.4
502.205	795.6
502.623	786.4
503.02	781.6
503.438	785
503.856	782.2
504.253	789.8
504.671	784.2
505.068	774.4
505.486	765.8
505.905	798
506.302	771.6
506.72	792
507.118	764.8
507.536	768.6
507.955	770.4
508.352	772.2
508.771	768.6
509.169	778
509.587	748.2
510.006	769.4
510.404	752.2
510.823	752.8
511.221	758
511.64	744.2
512.038	769.2
512.457	755.6
512.877	757.2
513.275	750.8
513.694	749.4
514.092	750.2
514.512	752.4
514.91	762.8
515.33	747
515.749	749
516.148	743.4
516.568	736.8
516.966	740.2
517.386	732
517.785	737.6
518.205	722
518.603	723.8
519.024	720
519.444	726.6
519.843	732.2
520.263	727.2
520.662	733.2
521.082	709.2
521.481	718.2
521.902	718.6
522.301	723.8
522.722	723.2
523.121	710.2
523.542	714.8
523.963	711.2
524.362	708.4
524.783	717.8
525.183	704
525.604	707.8
526.003	699.2
526.425	699.8
526.824	706.6
527.246	703.6
527.646	718.2
528.067	699.2
528.467	697
528.888	707.4
529.289	697.2
529.71	703.8
530.11	698.8
530.532	696
530.932	685.2
531.354	684
531.755	736.2
532.176	691.6
532.577	688
532.999	694.6
533.4	688.6
533.822	692
534.223	700.2
534.645	686.2
535.046	676
535.468	683.2
535.869	690.8
536.292	675.2
536.693	707.4
537.115	682.4
537.516	681.2
537.939	672
538.34	691.4
538.742	686.8
539.165	674.8
539.566	675
539.989	676
540.391	673.6
540.814	676.8
541.216	679.2
541.639	671.2
542.041	672.4
542.464	672.6
542.866	661.8
543.268	652.2
543.691	676
544.093	673.6
544.517	685.2
544.919	665.8
545.343	688.6
545.745	666.4
546.147	666.6
546.571	664.2
546.974	658.6
547.398	671.2
547.8	680.2
548.224	655.2
548.627	647.4
549.03	663.8
549.454	660.6
549.857	646
550.281	657.4
550.684	658.2
551.087	669.8
551.512	653.8
551.915	664
552.34	653.4
552.743	649.6
553.146	656
553.571	646.6
553.975	677.2
554.399	649.2
554.803	700
555.207	648.8
555.632	645.8
556.036	650.2
556.461	639.8
556.865	637.4
557.268	637.2
557.694	642
558.098	657.6
558.502	652.2
558.927	639.8
559.332	649.2
559.736	636.4
560.162	652.4
560.566	641.8
560.992	641.6
561.396	641.2
561.801	635.6
562.227	643.8
562.631	645.2
563.036	635.4
563.462	653.4
563.867	639.4
564.272	626.4
564.698	638.6
565.103	630.4
565.508	655.6
565.935	639.8
566.34	632.8
566.745	641.6
567.172	634.2
567.577	650.6
567.982	637.8
568.409	632.2
568.815	624.4
569.22	634
569.626	644.8
570.053	615.4
570.459	632
570.865	638.8
571.292	629
571.698	639.2
572.104	606.2
572.531	621.4
572.937	639.6
573.343	627.2
573.75	617.2
574.177	624.2
574.583	629.6
574.99	617.8
575.396	619.8
575.824	613.8
576.231	628.2
576.637	620.8
577.065	640.8
577.472	622.6
577.879	626
578.286	634
578.714	611.4
579.121	617
579.528	622
579.935	629.6
580.364	615.8
580.771	598.8
581.178	606.2
581.585	621.6
582.014	624.2
582.421	610.6
582.829	610.8
583.236	623.2
583.644	604
584.073	610.8
584.481	615.2
584.889	602.4
585.296	615.4
585.726	616.4
586.134	606.4
586.542	612.2
586.95	632.4
587.358	604.6
587.787	616.2
588.196	626.2
588.604	611
589.012	622.6
589.421	605.2
589.851	608.2
590.259	612.6
590.668	605.4
591.076	648
591.485	597.4
591.894	607.8
592.324	627.6
592.733	620.4
593.142	600.8
593.551	597.6
593.96	615.2
594.369	599.2
594.8	597
595.209	611.6
595.618	602.2
596.028	606.6
596.437	601.2
596.847	617
597.256	614
597.687	615.6
598.097	607.8
598.507	596
598.917	606.8
599.327	613.4
599.736	608.8
600.146	617.8
600.556	609.2
600.988	619.4
601.398	601.4
601.808	606.4
602.219	595.2
602.629	602
603.039	610.8
603.45	637.6
603.86	608.6
604.271	624.4
604.703	609
605.114	610.2
605.525	600.8
605.935	613.2
606.346	633.2
606.757	613.6
607.168	600
607.579	599.6
607.99	611.6
608.402	602.6
608.813	610
609.224	590.6
609.636	596.8
610.047	596.6
610.48	605.6
610.892	617.4
611.303	607.2
611.715	600.8
612.127	594.2
612.539	601.6
612.95	601.4
613.362	584.8
613.774	588
614.186	597.2
614.599	591.6
615.011	606.6
615.423	602.2
615.835	598.8
616.248	584.4
616.66	601.4
617.073	597.8
617.485	600
617.898	612.4
618.311	596
618.723	601
619.136	624
619.549	614.2
619.962	623
620.375	595.8
620.788	609.8
621.201	596.2
621.614	604.6
622.028	598.8
622.441	604
622.854	608.4
623.268	592
623.681	610.2
624.095	608.6
624.509	608.8
624.922	609.8
625.336	583.4
625.728	604.6
626.142	613
626.556	627.8
626.97	599.2
627.384	592.6
627.799	591.6
628.213	613.6
628.627	599.8
629.041	598.6
629.456	598.2
629.87	604.4
630.285	610.2
630.699	608.2
631.093	600.8
631.507	600
631.922	601.4
632.337	607
632.752	588
633.167	600.4
633.582	600.4
633.997	598.6
634.412	592.2
634.806	594
635.221	588.6
635.637	608
636.052	594
636.468	602
636.883	621.6
637.299	595.4
637.715	585.6
638.109	595
638.525	586.8
638.941	608.6
639.357	603.6
639.773	604.4
640.189	598.6
640.584	599.6
641	596.6
641.416	592.4
641.832	592.6
642.249	592.4
642.665	595.6
643.06	608.6
643.477	607.6
643.894	580.6
644.31	588
644.727	596.2
645.123	590.6
645.54	590.2
645.957	601.2
646.374	606.4
646.77	594.8
647.187	615.2
647.604	595.6
648.021	579.4
648.439	592
648.835	597
649.252	597
649.67	590.6
650.088	596.2
650.484	593.8
650.902	602.2
651.32	609.6
651.738	592.2
652.134	594
652.552	606.8
652.971	607.8
653.389	599.2
653.786	612
654.204	618.4
654.622	585.8
655.019	604.4
655.438	601.2
655.857	591.4
656.275	603.4
656.673	591.4
657.091	604
657.51	587
657.908	607
658.327	606
658.746	582.4
659.144	591.6
659.563	615.8
659.982	605.2
660.38	582.8
660.8	591.6
661.219	591.4
661.617	600.2
662.037	596.6
662.457	606.2
662.855	583
663.275	629.8
663.695	595.6
664.094	589.2
664.514	595.6
664.934	585.2
665.333	602
665.753	587
666.152	586.6
666.572	596
666.993	611.2
667.392	588.8
667.812	591.2
668.212	587.8
668.632	598
669.053	589.2
669.453	595.2
669.874	594
670.273	596.8
670.694	592.8
671.116	602.6
671.515	605
671.937	596
672.337	588.6
672.758	594.2
673.158	603.2
673.58	579.8
673.98	597
674.402	594.4
674.824	582.8
675.224	587.4
675.646	579.8
676.047	586.6
676.469	591.8
676.869	597
677.292	591
677.693	590.2
678.115	581.4
678.516	588
678.939	593.6
679.34	585.8
679.762	599.8
680.164	594
680.586	578.6
680.988	595.8
681.411	606.2
681.812	596.8
682.236	580.8
682.637	587.4
683.061	576.8
683.462	590.8
683.864	584.2
684.288	592.4
684.69	583.8
685.114	598.8
685.516	601.2
685.94	585.4
686.342	594
686.766	587.6
687.168	591.2
687.571	595.8
687.995	589.8
688.398	575.4
688.822	585.8
689.225	604.8
689.628	604.4
690.052	592.2
690.456	592.4
690.88	588.6
691.284	574.2
691.687	592.8
692.112	580.4
692.515	584.8
692.919	587.8
693.344	591.6
693.747	585.4
694.173	581.8
694.577	597.2
694.98	590.4
695.406	581.8
695.81	585.2
696.214	594.2
696.64	587
697.044	593.4
697.448	598.4
697.874	586.4
698.279	591.8
698.684	588.8
699.11	595.4
699.514	590.2
699.919	582.6
700.324	575.4
700.75	595.4
701.156	586
701.561	597.6
701.987	596.6
702.393	597.8
702.798	602.2
703.203	580.8
703.63	584
704.036	579.8
704.442	588.8
704.847	578.2
705.274	588.8
705.68	594.6
706.086	595.6
706.492	585.4
706.92	581.4
707.326	591.4
707.732	590.4
708.139	587
708.545	584.4
708.973	579.4
709.38	591.2
709.786	574.8
710.193	601.4
710.6	595.2
711.028	576.4
711.435	583.2
711.842	585.8
712.249	584.6
712.656	586.2
713.064	586.6
713.492	578.4
713.9	586.4
714.307	589.4
714.715	584
715.123	589
715.53	585.8
715.938	599.4
716.367	591
716.775	578.6
717.184	585.6
717.592	583.6
718	594
718.408	621.4
718.816	634
719.225	587
719.633	593.2
720.042	581.2
720.472	585.6
720.881	603.6
721.29	589.6
721.699	582.6
722.108	592.2
722.517	595.6
722.926	577.8
723.335	596.8
723.744	586.2
724.154	588.2
724.563	591.2
724.973	584
725.382	591.4
725.792	589.2
726.202	581.2
726.612	606.4
727.022	588.8
727.432	581.2
779.813	585.6
780.223	626
780.634	589.4
781.044	575
781.454	587.8
781.865	605
782.276	588.2
782.686	600.8
783.097	582.4
783.508	581.6
783.919	587.8
784.33	602.6
784.741	605.2
785.152	585
785.563	583
785.974	586.6
786.386	600.6
786.776	588.4
787.188	591.6
787.599	579
788.011	589.4
788.423	594.6
788.835	582
789.247	578.2
789.659	583.8
790.071	587.4
790.483	624.4
790.874	585.4
791.286	583.2
791.699	581
792.111	582
792.524	589.2
792.937	579.6
793.349	576.2
793.741	582.8
794.154	577.8
794.567	604.6
794.98	588.2
795.393	575.4
795.785	603.6
796.198	584.4
796.612	582.4
797.026	586.4
797.439	569
797.831	580.2
798.245	579
798.659	585.8
799.073	583.6
799.487	578.8
799.88	590
800.294	581.2
800.708	588.2
801.123	586
801.516	607.4
801.93	573
802.345	570
802.76	585.4
803.153	596.2
803.568	596.4
803.983	588
804.377	589
804.792	576
805.207	571
805.601	597.4
806.016	629.2
806.432	585.6
806.826	613.8
807.242	598.4
807.658	592
808.052	580.4
808.468	579.8
808.884	580
809.279	576.4
809.695	597.6
810.111	614.6
810.506	586
810.922	605.8
811.339	587.4
811.734	599.6
812.151	579
812.546	580.8
812.963	584.4
813.38	587.8
813.776	584.2
814.193	601.6
814.589	584.2
815.006	580
815.402	583.4
815.82	580
816.237	590.6
816.633	596.4
817.051	575.2
817.448	593.4
817.866	577.6
818.262	610.8
818.68	576.4
819.077	574
819.495	580
819.892	621.4
820.311	579
820.708	579.4
821.127	576.2
821.524	595.6
821.943	595.6
822.34	604.2
822.759	587
823.157	583
823.576	600.6
823.974	588.4
824.393	605.4
824.791	580.6
825.189	570.6
825.609	578.4
826.007	581.4
826.427	574.8
826.826	578.2
827.246	585.2
827.644	561.6
828.043	581.6
828.463	582
828.862	593.6
829.261	591.2
829.682	571.2
830.081	588
830.502	580
830.901	588.8
831.301	601
831.722	574.8
832.121	585
832.521	572.8
832.943	577.2
833.342	587.8
833.742	582.4
834.164	586.4
834.564	577.8
834.965	580.6
835.386	575.6
835.787	575.4
836.188	583.2
836.588	589.4
837.01	580.8
837.411	578
837.812	588.2
838.213	584.2
838.636	580.8
839.037	653.6
839.438	591.6
839.84	581.4
840.263	584.8
840.664	590.2
841.066	575.6
841.468	580
841.891	587
842.293	597
842.695	592.8
843.098	590.4
843.5	585.4
843.902	589.6
844.326	583
844.729	582.6
845.131	592
845.534	592
845.937	592.4
846.34	598.8
846.764	583.4
847.167	590.8
847.571	579.4
847.974	587.4
848.377	577.2
848.781	629.6
849.184	586.4
849.588	584
849.992	579.6
850.396	588.8
850.821	601.6
851.225	579.4
851.63	583.4
852.034	600
852.438	586
852.843	661.2
853.247	576.2
853.652	575.6
854.057	607.2
854.462	579.6
854.867	582.6
855.272	608.6
855.677	589
856.082	577.6
856.487	576.2
