#lambda/nm	C1
208.295	513.8
208.67	467.6
209.045	426.4
209.419	430.2
209.794	610
210.169	598.8
210.544	724.4
210.919	626
211.295	608.4
211.67	612
212.045	611.4
212.421	608
212.796	649.4
213.172	607.2
213.547	611
213.923	613.2
214.299	607.8
214.675	626.8
215.051	618.6
215.427	617.6
215.803	637.4
216.179	629
216.555	614
216.932	623.4
217.308	616.2
217.684	621.4
218.061	625.8
218.438	616.6
218.814	609
219.191	628
219.568	606.2
219.945	613.4
220.322	620.2
220.699	617
221.076	628
221.453	618.4
221.83	610
222.208	609
222.585	617.4
222.962	622.6
223.34	619.4
223.717	614.8
224.095	614.8
224.473	624
224.851	609
225.229	608.2
225.607	631.4
225.985	607.2
226.363	615.4
226.741	623.6
227.119	613.8
227.497	632.6
227.876	609.8
228.254	618.4
228.633	626.4
229.011	613.8
229.39	624.4
229.769	624.2
230.148	623.6
230.527	631.4
230.905	611.4
231.284	620
231.664	606.2
232.043	621.6
232.422	621.4
232.801	609.6
233.181	621.8
233.56	616
233.94	624
234.319	598.4
234.699	621.2
235.079	655.6
235.458	654.4
235.838	627.6
236.218	608.2
236.598	607.2
236.978	612.2
237.358	619.2
237.738	611.4
238.119	628.8
238.499	609.6
238.88	614.4
239.26	630.2
239.641	603.2
240.021	615.4
240.402	625.6
240.783	615.4
241.163	617.6
241.544	618.4
241.925	616.4
242.306	629.4
242.687	616.2
243.069	612
243.45	630.2
243.831	617.2
244.212	617.6
244.594	655.4
244.975	618.8
245.357	612.8
245.739	613
246.12	623.8
246.502	637
246.884	613.4
247.266	618.2
247.648	615.8
248.03	629.4
248.412	621.2
248.794	620.4
249.176	616.8
249.559	625.2
249.941	612.6
250.323	609.8
250.706	603.8
251.089	627.4
251.471	628
251.854	621.6
252.237	628.8
252.62	619.4
253.002	631.6
253.385	618.2
253.769	633.6
254.152	613
254.535	625.4
254.918	608.4
255.301	617.6
255.685	607.6
256.068	611
256.452	638.2
256.835	630.4
257.219	630.6
257.603	631.2
257.986	614
258.37	627.8
258.754	604.4
259.138	616.8
259.522	617.6
259.906	620.8
260.29	619.4
260.675	609.2
261.059	617.4
261.443	611.8
261.828	628.4
262.212	623.6
262.597	605.4
262.981	616.6
263.366	622.6
263.751	620.2
264.136	608
264.521	613.8
264.906	609.8
265.291	625.4
265.676	604.4
266.061	623.4
266.446	639.8
266.831	618.2
267.217	642.6
267.602	616.6
267.987	620
268.373	607.2
268.759	625
269.144	617.4
269.53	613.2
269.916	621.2
270.302	608.6
270.688	622
271.074	621.2
271.46	629.4
271.846	645
272.232	613.8
272.618	616
273.004	618
273.391	623.6
273.777	634.4
274.164	626.2
274.55	621
274.937	619.4
275.324	613.4
275.71	630.8
276.097	633.4
276.484	608.6
276.871	626
277.258	623.8
277.645	609.8
278.032	612.4
278.419	613.8
278.807	615.2
279.194	614.4
279.581	601.4
279.969	620.6
280.356	622
280.744	616.2
281.131	631.2
281.519	619.6
281.907	616.4
282.295	612
282.682	631.4
283.07	617.2
283.458	623.8
283.846	629.2
284.235	628.4
284.623	627.8
285.011	608.4
285.399	620.8
285.788	610.2
286.176	595
286.565	626.4
286.953	605.8
287.342	608.2
287.731	610.8
288.119	607.2
288.508	608.2
288.897	613
289.286	604.8
289.675	612.8
290.064	626.6
290.453	613.6
290.821	613.8
291.21	625.4
291.599	610.2
291.989	613
292.378	627.4
292.768	628.2
293.157	616.2
293.547	622.4
293.936	611.4
294.326	614.8
294.716	620.6
295.106	609
295.496	620.6
295.886	625
296.276	611.8
296.666	610.4
297.056	603.6
297.446	610
297.836	635.8
298.227	614.6
298.617	614.8
299.008	628
299.398	609
299.789	611.2
300.179	622.4
300.57	625.4
300.961	623
301.352	611.4
301.742	630.2
302.133	616.8
302.524	618.6
302.915	616.4
303.307	606
303.698	614.6
304.089	623.6
304.48	616
304.872	619.2
305.263	613
305.655	607.4
306.046	626.8
306.438	627
306.829	610.8
307.221	625.8
307.613	622.2
308.005	623
308.397	637.8
308.789	642.6
309.181	653.6
309.573	628.8
309.965	632.4
310.357	614.8
310.749	633.6
311.142	611
311.534	611.8
311.926	628
312.319	628.2
312.711	608
313.104	631.4
313.497	616.6
313.889	660
314.282	635.8
314.675	640.8
315.068	622.4
315.461	623.2
315.854	645.4
316.247	622.6
316.64	615
317.033	625.4
317.405	625.6
317.798	623.2
318.192	624.4
318.585	612.6
318.979	617.4
319.372	612
319.766	621
320.16	629.4
320.553	633
320.947	633.8
321.341	614.8
321.735	619.8
322.129	598.2
322.523	638.8
322.917	613.8
323.311	628.8
323.705	621.2
324.099	619.4
324.494	630.8
324.888	631.4
325.282	613.8
325.677	631.2
326.071	618
326.466	624.6
326.861	626.8
327.255	615
327.65	633.8
328.045	629.4
328.44	624.6
328.835	617
329.23	604.8
329.625	639.2
330.02	614.4
330.415	635.8
330.81	615.8
331.206	622
331.601	604.4
331.996	623.8
332.37	633
332.766	610.2
333.161	643.4
333.557	613.6
333.953	614.4
334.348	984.8
334.744	611.2
335.14	609.6
335.536	622.6
335.932	634.4
336.328	617.8
336.724	620.2
337.12	617.8
337.516	624
337.913	621.8
338.309	623.6
338.705	615.8
339.102	632.6
339.498	608.8
339.895	640.6
340.291	619.2
340.688	630.4
341.085	614.6
341.481	621.6
341.878	618.8
342.275	643.6
342.672	613
343.069	609
343.466	602.6
343.842	628.2
344.239	607
344.636	616.2
345.033	610.4
345.431	614.2
345.828	607.4
346.225	616.2
346.623	641.8
347.02	619.2
347.418	624
347.816	625.8
348.213	609.8
348.611	621.6
349.009	611.6
349.407	630.8
349.805	611.6
350.203	610
350.601	629
350.999	612.6
351.397	657
351.795	627.4
352.193	623.6
352.57	620.6
352.969	628.8
353.367	604.8
353.766	606.2
354.164	615.4
354.563	623.2
354.961	608.2
355.36	616.6
355.759	616
356.158	609.4
356.557	613
356.956	606.2
357.355	609.8
357.754	623.2
358.153	614.8
358.552	640.4
358.951	617
359.35	631.4
359.75	610
360.149	605.8
360.527	600.6
360.926	605.8
361.326	623
361.726	614.6
362.125	604.6
362.525	623.2
362.925	611.6
363.325	605
363.724	613
364.124	609
364.524	607
364.924	611
365.324	619.6
365.725	598.4
366.125	622
366.525	618.8
366.904	604.2
367.304	596
367.705	630
368.105	620.6
368.506	612.8
368.906	613.2
369.307	610.2
369.708	609.8
370.108	605.2
370.509	617
370.91	603.2
371.311	616.6
371.712	616.8
372.113	607.2
372.514	597.6
372.894	612.8
373.295	610.8
373.696	619.6
374.097	613.8
374.499	640.4
374.9	613
375.301	604.6
375.703	612.8
376.105	602
376.506	620.4
376.908	611.8
377.309	614.4
377.711	613
378.113	611.4
378.493	609.4
378.895	606.8
379.297	610.6
379.699	596
380.102	621.8
380.504	615.6
380.906	608.2
381.308	636.4
381.71	609.2
382.113	616
382.515	615.8
382.918	605.8
383.299	605.4
383.701	614.6
384.104	606
384.507	582.2
384.909	602.8
385.312	595.2
385.715	590
386.118	599.4
386.521	594.2
386.924	611.6
387.327	598.6
387.709	587.8
388.112	582.8
388.515	604.4
388.918	607
389.322	608.8
389.725	604.6
390.129	621.4
390.532	605.6
390.936	604.4
391.339	603.4
391.743	603.6
392.125	602
392.529	615
392.933	619.4
393.337	613.8
393.74	609.2
394.144	604
394.548	597.2
394.953	602.8
395.357	624.2
395.761	599.8
396.144	609.4
396.548	609
396.952	600.8
397.357	609.4
397.761	603.4
398.166	608.4
398.57	610.2
398.975	598
399.379	603.2
399.763	655.2
400.168	604
400.572	604
400.977	599.2
401.382	624.4
401.787	618
402.192	618.8
402.597	623.4
403.002	595.4
403.386	616
403.791	635.6
404.197	599
404.602	606.6
405.007	611.6
405.413	612
405.818	611.6
406.224	604.2
406.608	607.8
407.014	613.2
407.42	624.2
407.825	603.4
408.231	622.4
408.637	605.4
409.043	632.8
409.449	599.4
409.834	602.8
410.24	608.8
410.646	626.6
411.052	617.8
411.458	621.2
411.865	618.2
412.271	618.8
412.677	614
413.062	621
413.469	600.6
413.875	628.4
414.282	626.4
414.689	614
415.095	618.8
415.502	609.6
415.888	612.8
416.294	602.4
416.701	653
417.108	607.2
417.515	613.4
417.923	611
418.33	640
418.715	621.6
419.123	605.4
419.53	602.2
419.937	616
420.345	622.4
420.752	609.4
421.16	624.8
421.546	608
421.953	620.2
422.361	606.2
422.769	605.8
423.177	598
423.585	637.4
423.992	630.2
424.379	623
424.787	625.4
425.195	629.4
425.603	608.8
426.011	616.6
426.419	622
426.806	606.4
427.214	613.4
427.623	625.8
428.031	625.4
428.44	615.8
428.848	621.8
429.235	624.4
429.644	617.4
430.053	614.4
430.461	631
430.87	647.6
431.279	637.2
431.666	622.4
432.075	623
432.484	631
432.893	626.6
433.302	663.8
433.711	686.2
434.099	648
434.508	647
434.918	650.2
435.327	674.2
435.737	671.4
436.125	669.4
436.534	685.4
436.944	691
437.353	708.6
437.763	720
438.173	710
438.561	729.4
438.971	707
439.381	732
439.791	742.2
440.201	723.2
440.589	758.2
440.999	773.2
441.409	770.4
441.819	769.2
442.23	790.4
442.619	792.4
443.029	788
443.439	800.4
443.85	811.8
444.26	826.6
444.649	818.4
445.06	830.8
445.471	825.8
445.881	827
446.292	843.2
446.682	856.2
447.092	824
447.503	895.2
447.914	858
448.325	860.4
448.715	863.4
449.126	852.6
449.537	861.6
449.948	862.4
450.338	878.2
450.75	883.8
451.161	872.8
451.572	883.2
451.984	875
452.374	869.8
452.786	880.2
453.197	881.4
453.609	878.6
453.999	867.4
454.411	872.2
454.823	892.4
455.235	896.4
455.647	882.8
456.037	901.4
456.449	882.8
456.862	894
457.274	900
457.665	892.6
458.077	892.8
458.489	926.2
458.902	903.8
459.293	905
459.705	893.4
460.118	904.8
460.53	903
460.921	901.4
461.334	908.4
461.747	907.4
462.16	913.6
462.551	915.6
462.964	916
463.377	898.6
463.79	899
464.182	926.2
464.595	887.6
465.008	903.8
465.421	920.8
465.813	910.4
466.226	916.2
466.64	907
467.053	949.4
467.445	924.4
467.859	930.6
468.272	927.2
468.686	933.2
469.078	921.4
469.492	913.6
469.906	916
470.298	923
470.712	913.8
471.126	954.4
471.54	905.2
471.933	905.8
472.347	919.2
472.761	908.4
473.175	903.4
473.568	908.6
473.982	913.8
474.397	914.6
474.79	914.2
475.204	925
475.619	912.8
476.033	912.2
476.426	902.4
476.841	903
477.256	922
477.649	889
478.064	892.2
478.479	892.2
478.872	889.8
479.287	885
479.702	878.4
480.118	909
480.511	887
480.927	885.8
481.342	884.6
481.736	874.6
482.151	888.6
482.566	893
482.96	887
483.376	881
483.792	881.6
484.186	877.4
484.602	874.8
485.017	884
485.412	880.6
485.827	876.8
486.243	864
486.638	899.6
487.054	884
487.47	880.6
487.865	869.4
488.281	862.8
488.697	857.2
489.092	853.8
489.508	861.2
489.925	878.6
490.32	854.4
490.736	857
491.153	851.6
491.548	864.2
491.964	859.2
492.381	847.4
492.776	850.8
493.193	850.2
493.61	848.6
494.006	844.6
494.422	867.4
494.84	835.8
495.235	840.2
495.652	848.8
496.069	842.8
496.465	813.2
496.883	823.8
497.3	860.2
497.696	820
498.113	844.6
498.509	809.2
498.927	807.4
499.344	827.8
499.741	810.6
500.158	828
500.576	827.4
500.973	823.8
501.39	797.6
501.787	802.6
502.205	809.8
502.623	807.6
503.02	792.2
503.438	799.4
503.856	795.4
504.253	799.2
504.671	811.4
505.068	790.4
505.486	785.8
505.905	822.6
506.302	792.4
506.72	802
507.118	780.4
507.536	795.6
507.955	786.4
508.352	780.6
508.771	779
509.169	789.8
509.587	768.2
510.006	775.6
510.404	760.4
510.823	774.4
511.221	767.8
511.64	762.2
512.038	776.4
512.457	767.2
512.877	763.8
513.275	755.6
513.694	754.2
514.092	758.4
514.512	757.4
514.91	763.6
515.33	742.6
515.749	760.2
516.148	754.2
516.568	757.2
516.966	743.2
517.386	738.6
517.785	737.8
518.205	738.2
518.603	736.6
519.024	732.8
519.444	730.8
519.843	748.4
520.263	752.2
520.662	733.8
521.082	724
521.481	728
521.902	723.6
522.301	729.4
522.722	725.8
523.121	716
523.542	722.2
523.963	724.4
524.362	726
524.783	723
525.183	711.4
525.604	724.2
526.003	711.6
526.425	704.2
526.824	712.6
527.246	720.4
527.646	717.6
528.067	706
528.467	711.4
528.888	713.6
529.289	705.6
529.71	708.6
530.11	695
530.532	690
530.932	698.8
531.354	694
531.755	735.2
532.176	710.6
532.577	696.6
532.999	688.2
533.4	697.8
533.822	708
534.223	706.4
534.645	692
535.046	694.2
535.468	697.8
535.869	708
536.292	684
536.693	716.8
537.115	698.2
537.516	687.8
537.939	690
538.34	701
538.742	694.2
539.165	693.4
539.566	675
539.989	672.6
540.391	681.8
540.814	686.6
541.216	676.8
541.639	677.8
542.041	686.6
542.464	681.4
542.866	666
543.268	661
543.691	681.4
544.093	671
544.517	701.2
544.919	668.2
545.343	693.4
545.745	665.2
546.147	674.8
546.571	669
546.974	659.2
547.398	664.6
547.8	680
548.224	669
548.627	668.4
549.03	680.4
549.454	656.2
549.857	651.4
550.281	650.4
550.684	665.8
551.087	668.6
551.512	663.2
551.915	664.2
552.34	657.2
552.743	651
553.146	662
553.571	661.8
553.975	676.6
554.399	641.2
554.803	698.2
555.207	644.6
555.632	642
556.036	655.4
556.461	649.2
556.865	655
557.268	641.6
557.694	647
558.098	662.4
558.502	648.6
558.927	646.6
559.332	650.6
559.736	648.2
560.162	650.6
560.566	649.2
560.992	649.2
561.396	642.8
561.801	644.6
562.227	644.4
562.631	643.2
563.036	657.2
563.462	654
563.867	639.4
564.272	632.4
564.698	645
565.103	628.2
565.508	654.2
565.935	636.8
566.34	630.2
566.745	650.8
567.172	631.8
567.577	655.8
567.982	643.6
568.409	629.8
568.815	632.8
569.22	640.2
569.626	638
570.053	631.4
570.459	641.4
570.865	637.6
571.292	634.6
571.698	628.8
572.104	613
572.531	632.4
572.937	640.4
573.343	631.2
573.75	617.8
574.177	632.8
574.583	628.2
574.99	629.4
575.396	629
575.824	626
576.231	633.8
576.637	614.4
577.065	642
577.472	610
577.879	616.6
578.286	627
578.714	612.4
579.121	618.4
579.528	621.2
579.935	630
580.364	616
580.771	598.6
581.178	608.8
581.585	621.6
582.014	626.6
582.421	611.2
582.829	613.8
583.236	628
583.644	608.4
584.073	617.2
584.481	615.4
584.889	612.8
585.296	622.8
585.726	615.6
586.134	609.2
586.542	610
586.95	634.6
587.358	616.4
587.787	615.8
588.196	623.8
588.604	619.2
589.012	620.8
589.421	613
589.851	602.6
590.259	613
590.668	596.2
591.076	640
591.485	600.4
591.894	608.2
592.324	619.4
592.733	620.4
593.142	603.4
593.551	600.2
593.96	615.4
594.369	604.4
594.8	600
595.209	615.4
595.618	596
596.028	595.6
596.437	603.4
596.847	609
597.256	615.6
597.687	617.6
598.097	605.6
598.507	601.6
598.917	604
599.327	613.2
599.736	611.8
600.146	616.2
600.556	609
600.988	614.2
601.398	602.8
601.808	617.4
602.219	594.6
602.629	614
603.039	606
603.45	635.4
603.86	606.8
604.271	611.8
604.703	611
605.114	610
605.525	606
605.935	604.8
606.346	628
606.757	610.8
607.168	601
607.579	599
607.99	609.6
608.402	597.6
608.813	608.6
609.224	602.8
609.636	596.2
610.047	596.8
610.48	599
610.892	605
611.303	613.2
611.715	597.4
612.127	602.2
612.539	602.2
612.95	606.2
613.362	592.2
613.774	599.8
614.186	592.2
614.599	594.2
615.011	614.4
615.423	612.8
615.835	604
616.248	599
616.66	608
617.073	586.8
617.485	596.4
617.898	603.6
618.311	605.6
618.723	593.4
619.136	628
619.549	611.2
619.962	622.6
620.375	591.4
620.788	605.2
621.201	595.6
621.614	608
622.028	595.2
622.441	601.4
622.854	621
623.268	596.2
623.681	609.6
624.095	597
624.509	614.8
624.922	611
625.336	597
625.728	599.8
626.142	604.4
626.556	620.6
626.97	609.2
627.384	602.6
627.799	596.6
628.213	610.6
628.627	596.4
629.041	594.8
629.456	603.4
629.87	595.8
630.285	611.8
630.699	601
631.093	604
631.507	607.4
631.922	594.4
632.337	613
632.752	586.2
633.167	602.6
633.582	597.8
633.997	595.8
634.412	588.8
634.806	602.4
635.221	589.6
635.637	606.4
636.052	592.8
636.468	604
636.883	615.6
637.299	599.2
637.715	582.4
638.109	594.8
638.525	583.6
638.941	609.2
639.357	606.6
639.773	607
640.189	595
640.584	598.8
641	598.4
641.416	584.2
641.832	602.6
642.249	591.6
642.665	599.4
643.06	597.6
643.477	603.4
643.894	582.4
644.31	594.2
644.727	599
645.123	597.4
645.54	591
645.957	588.4
646.374	603.6
646.77	594
647.187	622
647.604	595
648.021	577.4
648.439	592.8
648.835	604.6
649.252	596
649.67	603.4
650.088	593.4
650.484	593.8
650.902	598.6
651.32	605.4
651.738	596
652.134	603.2
652.552	610.2
652.971	598.6
653.389	599.2
653.786	604
654.204	618.2
654.622	596.4
655.019	598.6
655.438	598.4
655.857	593.4
656.275	598
656.673	588.6
657.091	597
657.51	586.8
657.908	601
658.327	610.4
658.746	579
659.144	591.2
659.563	602.8
659.982	598.6
660.38	586
660.8	600
661.219	596.2
661.617	595
662.037	597.2
662.457	606.8
662.855	581
663.275	624.8
663.695	598.4
664.094	593.6
664.514	587.6
664.934	584
665.333	589.2
665.753	582.8
666.152	582.2
666.572	592.2
666.993	602.4
667.392	587.2
667.812	589
668.212	588.2
668.632	596.6
669.053	584.6
669.453	600.2
669.874	593.8
670.273	598.4
670.694	588.8
671.116	599.8
671.515	604
671.937	582.8
672.337	586.4
672.758	587.4
673.158	589.8
673.58	576.8
673.98	584.8
674.402	596
674.824	583.6
675.224	582.4
675.646	581.8
676.047	574.6
676.469	582.6
676.869	599.4
677.292	592.2
677.693	580
678.115	584.8
678.516	592.6
678.939	594.8
679.34	589
679.762	602.2
680.164	599.4
680.586	583.4
680.988	592.8
681.411	612.8
681.812	587.8
682.236	585.8
682.637	581
683.061	582.4
683.462	593.4
683.864	586.2
684.288	582.6
684.69	582
685.114	599.2
685.516	597.6
685.94	588.2
686.342	601
686.766	578.6
687.168	582.8
687.571	600.2
687.995	581.4
688.398	582
688.822	583.2
689.225	608
689.628	610
690.052	590.2
690.456	589.8
690.88	591.4
691.284	583.2
691.687	588.2
692.112	584.4
692.515	583.8
692.919	589
693.344	595.4
693.747	593.8
694.173	588.4
694.577	597.8
694.98	593.6
695.406	591.4
695.81	597.2
696.214	593.6
696.64	595.8
697.044	591.4
697.448	596.8
697.874	588.4
698.279	586.8
698.684	579.6
699.11	575.4
699.514	585.6
699.919	582.8
700.324	582.2
700.75	582.6
701.156	588
701.561	602.4
701.987	588.4
702.393	602.4
702.798	602.8
703.203	589.6
703.63	583.2
704.036	588
704.442	591.8
704.847	587
705.274	588.2
705.68	594.8
706.086	597
706.492	585.4
706.92	590
707.326	597
707.732	587
708.139	583.8
708.545	584
708.973	587.6
709.38	585.8
709.786	581.6
710.193	598.2
710.6	590.8
711.028	584.6
711.435	588.6
711.842	590
712.249	585.6
712.656	576.2
713.064	593.8
713.492	577.4
713.9	578.6
714.307	594.4
714.715	586.4
715.123	592.6
715.53	593
715.938	596.2
716.367	592
716.775	588
717.184	578.8
717.592	586.8
718	596.2
718.408	623.2
718.816	632.2
719.225	582.2
719.633	588.6
720.042	583.4
720.472	582.4
720.881	603.8
721.29	586.8
721.699	578.2
722.108	596
722.517	587
722.926	581
723.335	602.2
723.744	584.8
724.154	583
724.563	588.6
724.973	585.2
725.382	587
725.792	584.8
726.202	582.2
726.612	609
727.022	587.4
727.432	582.4
779.813	585.8
780.223	625.6
780.634	586.6
781.044	587.6
781.454	589
781.865	598
782.276	573.4
782.686	593.2
783.097	578.4
783.508	579
783.919	589.6
784.33	606
784.741	598.2
785.152	584
785.563	574
785.974	582
786.386	597
786.776	592.2
787.188	587.4
787.599	582.6
788.011	591.4
788.423	588.6
788.835	578.2
789.247	577.4
789.659	584.4
790.071	584.4
790.483	628.8
790.874	585.6
791.286	591.2
791.699	585.8
792.111	591
792.524	581.6
792.937	584.4
793.349	570.2
793.741	578.4
794.154	582.6
794.567	604.2
794.98	586.6
795.393	580.6
795.785	605.8
796.198	578.2
796.612	583.2
797.026	586.8
797.439	576.6
797.831	577.4
798.245	580.4
798.659	586
799.073	583.4
799.487	584
799.88	590
800.294	585.4
800.708	590.4
801.123	592
801.516	603.4
801.93	574.8
802.345	565.8
802.76	593.2
803.153	599.4
803.568	594
803.983	588.4
804.377	594
804.792	573.2
805.207	569.2
805.601	589
806.016	614
806.432	575
806.826	612.8
807.242	593.2
807.658	586.4
808.052	581.6
808.468	583.6
808.884	583.8
809.279	583.6
809.695	596.4
810.111	599.2
810.506	585
810.922	596.2
811.339	589.4
811.734	599.6
812.151	582.4
812.546	573.2
812.963	578.8
813.38	583
813.776	589.2
814.193	609
814.589	581.6
815.006	586.4
815.402	579.2
815.82	574.8
816.237	573.8
816.633	582.2
817.051	570.2
817.448	586
817.866	576.6
818.262	612.2
818.68	581.4
819.077	581
819.495	584.6
819.892	622
820.311	583.8
820.708	576
821.127	575.2
821.524	597.8
821.943	581
822.34	600
822.759	580.6
823.157	583
823.576	593.8
823.974	586.2
824.393	619
824.791	567.2
825.189	574.6
825.609	574.2
826.007	583.2
826.427	575.4
826.826	580.8
827.246	579
827.644	573.4
828.043	586.8
828.463	576.6
828.862	588.2
829.261	587.4
829.682	580
830.081	590.4
830.502	576.8
830.901	586.8
831.301	597.6
831.722	569.4
832.121	578.8
832.521	577.6
832.943	586.2
833.342	584
833.742	567.8
834.164	578
834.564	574.4
834.965	578.2
835.386	575
835.787	587.8
836.188	585.4
836.588	580.2
837.01	578.8
837.411	584.4
837.812	585
838.213	581
838.636	580
839.037	653.4
839.438	584.6
839.84	580
840.263	589.4
840.664	590.8
841.066	587.2
841.468	584
841.891	564.2
842.293	598
842.695	593.2
843.098	587.8
843.5	580.2
843.902	589.2
844.326	589.2
844.729	590.6
845.131	597.2
845.534	587.2
845.937	588.6
846.34	603.6
846.764	573.8
847.167	589
847.571	574.6
847.974	584.6
848.377	581
848.781	634.6
849.184	595.6
849.588	583.2
849.992	578.4
850.396	581.4
850.821	598
851.225	583.6
851.63	573.6
852.034	594.6
852.438	587.8
852.843	609.4
853.247	578
853.652	574.2
854.057	607.2
854.462	584
854.867	592.6
855.272	618.4
855.677	584.4
856.082	575.6
856.487	576.4
856.893	587.6
857.298	581.6
857.704	576
858.11	585.8
