#lambda/nm	C1
208.295	499.6
208.67	458.6
209.045	432.6
209.419	428.4
209.794	614.4
210.169	590.4
210.544	710
210.919	619.2
211.295	598.4
211.67	615.8
212.045	618.6
212.421	606.8
212.796	646.4
213.172	606.4
213.547	614.8
213.923	602.8
214.299	606.8
214.675	616.8
215.051	623
215.427	625
215.803	631.8
216.179	617.2
216.555	605
216.932	615.2
217.308	615.6
217.684	619
218.061	613.6
218.438	620.6
218.814	606.4
219.191	625.4
219.568	601.4
219.945	598.2
220.322	611.8
220.699	609.4
221.076	617.4
221.453	613
221.83	605.4
222.208	608.8
222.585	612.2
222.962	605.4
223.34	607.6
223.717	614
224.095	610.8
224.473	613
224.851	609.6
225.229	605.8
225.607	632.4
225.985	589.4
226.363	615.2
226.741	617.4
227.119	611.8
227.497	632
227.876	603.2
228.254	617.2
228.633	625.4
229.011	617.2
229.39	617.6
229.769	618
230.148	619.2
230.527	635
230.905	612.6
231.284	615.2
231.664	604.6
232.043	624.2
232.422	628.8
232.801	606.4
233.181	616.6
233.56	608.8
233.94	613.6
234.319	596.6
234.699	611.4
235.079	649
235.458	654.6
235.838	633
236.218	603.6
236.598	594
236.978	598.8
237.358	609.2
237.738	618.2
238.119	610
238.499	608
238.88	607
239.26	633
239.641	605.8
240.021	601.6
240.402	615.6
240.783	605.2
241.163	612.8
241.544	616.4
241.925	609.4
242.306	629.4
242.687	612.4
243.069	614.8
243.45	616.2
243.831	611.6
244.212	613.4
244.594	656
244.975	623
245.357	621
245.739	603.4
246.12	609.8
246.502	623
246.884	616.4
247.266	602.2
247.648	615.4
248.03	641.4
248.412	616.8
248.794	619.8
249.176	610.8
249.559	624.8
249.941	602.2
250.323	602.4
250.706	611.6
251.089	617
251.471	615
251.854	607.2
252.237	607.8
252.62	631
253.002	616.8
253.385	611
253.769	629.8
254.152	618.4
254.535	624
254.918	604.2
255.301	600.8
255.685	619.2
256.068	603
256.452	631.6
256.835	627.2
257.219	626
257.603	629.6
257.986	614
258.37	617.4
258.754	601.8
259.138	614.8
259.522	623
259.906	608
260.29	621.8
260.675	610.2
261.059	620
261.443	610.6
261.828	612
262.212	623.6
262.597	601.2
262.981	604
263.366	618
263.751	613.8
264.136	604.6
264.521	617
264.906	601.4
265.291	618.2
265.676	608.8
266.061	618.4
266.446	630.6
266.831	617.8
267.217	631.8
267.602	616
267.987	617.8
268.373	607.8
268.759	619.8
269.144	622.4
269.53	617
269.916	606.2
270.302	620.6
270.688	619
271.074	621.6
271.46	625
271.846	639.4
272.232	622.6
272.618	607.6
273.004	609.6
273.391	622.8
273.777	627.2
274.164	618.6
274.55	626
274.937	618.6
275.324	609
275.71	625.6
276.097	623.8
276.484	604
276.871	612.8
277.258	615.8
277.645	613.2
278.032	608.8
278.419	607.4
278.807	616.8
279.194	608
279.581	605.8
279.969	615.6
280.356	623
280.744	622.6
281.131	645.8
281.519	625
281.907	606.6
282.295	611.8
282.682	619
283.07	610.2
283.458	621
283.846	626.8
284.235	629.6
284.623	625
285.011	605.8
285.399	622
285.788	610.4
286.176	601.6
286.565	624
286.953	606.2
287.342	617.2
287.731	611.2
288.119	600
288.508	611
288.897	613.2
289.286	596.6
289.675	613.8
290.064	617.4
290.453	611.2
290.821	616
291.21	631.2
291.599	610.6
291.989	619.2
292.378	618.8
292.768	636
293.157	624.2
293.547	623.6
293.936	625.8
294.326	611.6
294.716	620.2
295.106	614.8
295.496	623.2
295.886	630.4
296.276	621.8
296.666	611
297.056	608.8
297.446	607
297.836	633.6
298.227	613.8
298.617	618.4
299.008	634
299.398	612
299.789	610
300.179	621.8
300.57	627.4
300.961	615.8
301.352	615.6
301.742	614.4
302.133	615.6
302.524	615.8
302.915	615
303.307	603.4
303.698	623.2
304.089	609
304.48	613.6
304.872	627.4
305.263	617.2
305.655	608.2
306.046	618.4
306.438	620.8
306.829	615.6
307.221	632.8
307.613	618
308.005	620.6
308.397	633
308.789	638.8
309.181	645
309.573	642
309.965	636.8
310.357	624
310.749	636.8
311.142	614
311.534	612
311.926	631
312.319	614.6
312.711	611
313.104	622.2
313.497	621.8
313.889	645.8
314.282	631.8
314.675	649.8
315.068	613.8
315.461	631.2
315.854	641
316.247	617.8
316.64	622
317.033	615.4
317.405	613.8
317.798	610.6
318.192	614.6
318.585	604.2
318.979	623.8
319.372	607.8
319.766	612.4
320.16	625
320.553	629.6
320.947	632.6
321.341	614.4
321.735	618.8
322.129	594
322.523	633.2
322.917	606.8
323.311	624.8
323.705	618.4
324.099	622.2
324.494	633
324.888	620
325.282	612.4
325.677	623.8
326.071	623.2
326.466	626.4
326.861	613.4
327.255	622.2
327.65	626.8
328.045	635.6
328.44	623.6
328.835	617.8
329.23	611.2
329.625	638.2
330.02	613
330.415	633.2
330.81	622.4
331.206	615.2
331.601	612.6
331.996	621.6
332.37	629.2
332.766	611
333.161	641.2
333.557	613.6
333.953	618
334.348	992.4
334.744	610.4
335.14	607.6
335.536	608.6
335.932	625
336.328	612.2
336.724	619.6
337.12	615.6
337.516	619
337.913	621.6
338.309	629.8
338.705	612.2
339.102	633
339.498	618
339.895	634.4
340.291	612
340.688	622
341.085	608.8
341.481	612.2
341.878	616.2
342.275	620.2
342.672	610.8
343.069	621
343.466	600.4
343.842	630.8
344.239	609.2
344.636	614.8
345.033	606
345.431	614.6
345.828	613.6
346.225	602.8
346.623	652.2
347.02	618.2
347.418	625
347.816	625.4
348.213	611.8
348.611	619.4
349.009	617.2
349.407	620.8
349.805	606.6
350.203	600.8
350.601	619.4
350.999	600.2
351.397	659.6
351.795	618
352.193	628
352.57	632.6
352.969	622
353.367	602.4
353.766	598.8
354.164	616.8
354.563	617
354.961	613.2
355.36	614
355.759	606.4
356.158	610
356.557	607.4
356.956	608.4
357.355	597
357.754	621.8
358.153	613.6
358.552	632.4
358.951	612.6
359.35	627.6
359.75	593.4
360.149	601.6
360.527	603.6
360.926	598.4
361.326	605
361.726	611.4
362.125	608.8
362.525	607.8
362.925	605.2
363.325	609.2
363.724	607.6
364.124	603.4
364.524	604
364.924	605.8
365.324	616.8
365.725	596.4
366.125	611.2
366.525	601.6
366.904	600
367.304	593
367.705	623.4
368.105	628.2
368.506	609
368.906	608.4
369.307	612.2
369.708	608
370.108	595.2
370.509	623
370.91	599.6
371.311	618.8
371.712	609.8
372.113	611.2
372.514	600.2
372.894	608.4
373.295	606
373.696	617.6
374.097	616
374.499	639.4
374.9	606.4
375.301	606.2
375.703	615.4
376.105	604.4
376.506	613.2
376.908	611.2
377.309	608
377.711	610.8
378.113	607.4
378.493	606.6
378.895	599.4
379.297	623.4
379.699	598.4
380.102	611.6
380.504	614.4
380.906	603.2
381.308	632
381.71	608
382.113	611.4
382.515	604.4
382.918	612.8
383.299	605.2
383.701	619.2
384.104	615.8
384.507	596.2
384.909	605
385.312	599.4
385.715	602
386.118	602.6
386.521	600.2
386.924	620.8
387.327	603.6
387.709	595.4
388.112	590.2
388.515	604
388.918	603.4
389.322	609
389.725	611.4
390.129	629
390.532	607.6
390.936	606
391.339	596.6
391.743	612
392.125	610.4
392.529	614.6
392.933	620.4
393.337	602.8
393.74	601
394.144	610.8
394.548	601.8
394.953	610.6
395.357	611
395.761	603
396.144	610.6
396.548	600.8
396.952	609.4
397.357	611.8
397.761	607.8
398.166	598.6
398.57	603.4
398.975	590.6
399.379	609.4
399.763	656
400.168	607
400.572	604
400.977	602
401.382	635.2
401.787	610
402.192	619.8
402.597	617
403.002	598.8
403.386	620
403.791	618.2
404.197	611
404.602	602.2
405.007	609.4
405.413	603.8
405.818	612.8
406.224	603.8
406.608	598.2
407.014	596.8
407.42	621.8
407.825	609.2
408.231	615.8
408.637	606.2
409.043	621.6
409.449	603
409.834	599.6
410.24	606.8
410.646	619.6
411.052	624
411.458	608.2
411.865	613.2
412.271	616.4
412.677	608.2
413.062	611
413.469	604.6
413.875	623.4
414.282	619
414.689	612.6
415.095	612.6
415.502	601
415.888	603.4
416.294	599.4
416.701	638.2
417.108	594
417.515	614.4
417.923	597.2
418.33	612.2
418.715	616.8
419.123	601.2
419.53	602.4
419.937	610.8
420.345	618.2
420.752	605.6
421.16	619.6
421.546	608
421.953	614
422.361	597.6
422.769	609
423.177	593.4
423.585	626.4
423.992	621.2
424.379	618.8
424.787	611.6
425.195	632.2
425.603	605.2
426.011	618.6
426.419	622.8
426.806	610.6
427.214	605.6
427.623	615.6
428.031	625.2
428.44	613.2
428.848	612.4
429.235	628.6
429.644	617.6
430.053	611.4
430.461	623.2
430.87	632
431.279	622.4
431.666	601.2
432.075	604.8
432.484	625.2
432.893	616.4
433.302	626
433.711	661.6
434.099	621.4
434.508	613.2
434.918	605.8
435.327	624.8
435.737	622.4
436.125	617.6
436.534	621
436.944	631
437.353	621.6
437.763	647.4
438.173	615.4
438.561	642.6
438.971	613.6
439.381	630.4
439.791	628.4
440.201	621.8
440.589	644
440.999	652.2
441.409	642.4
441.819	636.8
442.23	658
442.619	667.4
443.029	663.6
443.439	661
443.85	665.2
444.26	680.6
444.649	677
445.06	662.6
445.471	656.2
445.881	681.2
446.292	692.4
446.682	698.4
447.092	672
447.503	724.4
447.914	674
448.325	685.6
448.715	684.8
449.126	682.2
449.537	695
449.948	683.4
450.338	699.6
450.75	698.6
451.161	697.8
451.572	703.8
451.984	697.8
452.374	689.8
452.786	697
453.197	703.6
453.609	706.8
453.999	688.6
454.411	695.8
454.823	706
455.235	707.8
455.647	698.2
456.037	712.2
456.449	691.8
456.862	705.6
457.274	711.8
457.665	693.2
458.077	708.4
458.489	735.8
458.902	705
459.293	694.8
459.705	706.6
460.118	694.2
460.53	696.4
460.921	691.8
461.334	703.2
461.747	706.4
462.16	726.6
462.551	721.8
462.964	718
463.377	703
463.79	707.6
464.182	720.4
464.595	706.8
465.008	710
465.421	714.8
465.813	711
466.226	719.4
466.64	712
467.053	762.4
467.445	734.6
467.859	731.6
468.272	712.8
468.686	731.4
469.078	713.4
469.492	721
469.906	722.2
470.298	725.6
470.712	717.2
471.126	764.8
471.54	704.6
471.933	717.4
472.347	709.8
472.761	710.4
473.175	711
473.568	709.8
473.982	709.2
474.397	726.2
474.79	720.8
475.204	734
475.619	722.6
476.033	719.6
476.426	717.4
476.841	717.4
477.256	743.4
477.649	710.6
478.064	712
478.479	716.8
478.872	714.4
479.287	701.2
479.702	711.6
480.118	706.2
480.511	722.2
480.927	709.8
481.342	709
481.736	720.2
482.151	712.2
482.566	730.8
482.96	706
483.376	716.2
483.792	704
484.186	715.2
484.602	716.4
485.017	726
485.412	710.2
485.827	719
486.243	710.2
486.638	729.4
487.054	717.4
487.47	727.6
487.865	706
488.281	707.4
488.697	704.6
489.092	717.8
489.508	701.2
489.925	712.2
490.32	698.6
490.736	711.2
491.153	709.2
491.548	706.4
491.964	708.6
492.381	691.4
492.776	697.2
493.193	699.6
493.61	719.4
494.006	701.4
494.422	708.2
494.84	700.6
495.235	713
495.652	699.2
496.069	698.2
496.465	703.4
496.883	689.8
497.3	720.4
497.696	692.8
498.113	704.8
498.509	679.2
498.927	684.6
499.344	694.6
499.741	688
500.158	691.2
500.576	709.8
500.973	703
501.39	688
501.787	673.4
502.205	692.8
502.623	682.2
503.02	679
503.438	680.6
503.856	685.8
504.253	691.2
504.671	687
505.068	677.2
505.486	687.2
505.905	702.4
506.302	682.8
506.72	691.4
507.118	675.6
507.536	678.8
507.955	675.8
508.352	689.8
508.771	684.6
509.169	692.8
509.587	671.6
510.006	673.6
510.404	663.2
510.823	667.2
511.221	671
511.64	663.2
512.038	677
512.457	655.2
512.877	677
513.275	663.2
513.694	661.8
514.092	664.8
514.512	670.2
514.91	663.8
515.33	664.2
515.749	664.2
516.148	659.8
516.568	655.6
516.966	659.4
517.386	654.2
517.785	657.4
518.205	656.6
518.603	651
519.024	650.6
519.444	662
519.843	678.6
520.263	668
520.662	660.4
521.082	657.8
521.481	655.2
521.902	658
522.301	661.4
522.722	656.8
523.121	651.4
523.542	649.6
523.963	650.2
524.362	659.2
524.783	652.8
525.183	655
525.604	653.2
526.003	647
526.425	645.4
526.824	652.6
527.246	665.2
527.646	657.4
528.067	654.8
528.467	653.6
528.888	663.8
529.289	652.2
529.71	641
530.11	640.2
530.532	647.4
530.932	640.8
531.354	635
531.755	673.6
532.176	652
532.577	645.8
532.999	646.2
533.4	640.6
533.822	647.2
534.223	656.2
534.645	631.8
535.046	642.4
535.468	651.2
535.869	654.4
536.292	643.4
536.693	679.6
537.115	646.4
537.516	640.8
537.939	642.8
538.34	662.6
538.742	646.2
539.165	652
539.566	639.2
539.989	633.4
540.391	645.8
540.814	645.8
541.216	638.2
541.639	635.2
542.041	645
542.464	631.2
542.866	637.8
543.268	621.6
543.691	646.4
544.093	640.6
544.517	662.8
544.919	633.4
545.343	666.8
545.745	628.8
546.147	633.4
546.571	638.8
546.974	621.2
547.398	627.2
547.8	651.4
548.224	628.6
548.627	635.6
549.03	644.6
549.454	622.6
549.857	619.6
550.281	626.6
550.684	622.2
551.087	639.2
551.512	638.6
551.915	634.2
552.34	629.6
552.743	616.8
553.146	623.4
553.571	615
553.975	648.6
554.399	622.6
554.803	669.8
555.207	616.6
555.632	618
556.036	629.6
556.461	624
556.865	627.2
557.268	626.2
557.694	618.8
558.098	615.6
558.502	620.8
558.927	622.6
559.332	621.4
559.736	624.4
560.162	629.2
560.566	616.4
560.992	617.6
561.396	619.4
561.801	622
562.227	629.2
562.631	616
563.036	617.2
563.462	629
563.867	626.6
564.272	614.4
564.698	630.4
565.103	617.4
565.508	641.4
565.935	627.4
566.34	615.8
566.745	627.2
567.172	625.8
567.577	641.2
567.982	637.8
568.409	624.6
568.815	619
569.22	614.2
569.626	624.8
570.053	601.6
570.459	615.4
570.865	616.6
571.292	621.4
571.698	613
572.104	599.2
572.531	613.4
572.937	622.8
573.343	609.4
573.75	609.8
574.177	624.2
574.583	622
574.99	612.4
575.396	621.8
575.824	613.4
576.231	625.8
576.637	609.2
577.065	628.2
577.472	605.8
577.879	608.2
578.286	629.8
578.714	610
579.121	614.4
579.528	615.2
579.935	620.4
580.364	609.6
580.771	601.6
581.178	603.6
581.585	615.8
582.014	616
582.421	608.8
582.829	610.2
583.236	621.8
583.644	603.4
584.073	613
584.481	620
584.889	603.8
585.296	612.8
585.726	608.8
586.134	599.4
586.542	606.4
586.95	629.6
587.358	585.2
587.787	604
588.196	622.2
588.604	606
589.012	611.6
589.421	597.2
589.851	601.8
590.259	612.8
590.668	609
591.076	638.8
591.485	598.4
591.894	608.4
592.324	617.4
592.733	614
593.142	590.2
593.551	604.8
593.96	610.6
594.369	601.8
594.8	593
595.209	599.4
595.618	581.8
596.028	604.6
596.437	594.4
596.847	597.2
597.256	608
597.687	611.6
598.097	613
598.507	595.6
598.917	602
599.327	605.8
599.736	603.4
600.146	608.6
600.556	604.4
600.988	616
601.398	593.6
601.808	615.2
602.219	591.6
602.629	600
603.039	600.4
603.45	619
603.86	597.2
604.271	613.2
604.703	596.2
605.114	600
605.525	607.2
605.935	608.2
606.346	623
606.757	601.6
607.168	596.2
607.579	593.2
607.99	607.2
608.402	601.4
608.813	601.4
609.224	597
609.636	598.6
610.047	595.6
610.48	593.6
610.892	607.8
611.303	599.6
611.715	599.6
612.127	596.8
612.539	587.6
612.95	591.8
613.362	589.4
613.774	589.6
614.186	594.2
614.599	586.8
615.011	611.6
615.423	592.4
615.835	593.6
616.248	591.8
616.66	600
617.073	585.4
617.485	593.4
617.898	592.8
618.311	597.6
618.723	596.6
619.136	623.6
619.549	606.4
619.962	616.2
620.375	588.6
620.788	596.2
621.201	593
621.614	603.2
622.028	579.8
622.441	605.8
622.854	614.2
623.268	583.2
623.681	602.4
624.095	591.4
624.509	607.2
624.922	602.8
625.336	582.8
625.728	585
626.142	607.6
626.556	620
626.97	597.8
627.384	591.4
627.799	587
628.213	603.2
628.627	593.2
629.041	591.8
629.456	597.4
629.87	597.4
630.285	614.2
630.699	600.2
631.093	594.8
631.507	601.6
631.922	593
632.337	606.6
632.752	580
633.167	589.4
633.582	594.4
633.997	594.2
634.412	589.8
634.806	592.2
635.221	585.4
635.637	602
636.052	580.4
636.468	594
636.883	615.6
637.299	591.8
637.715	577.6
638.109	592
638.525	582.4
638.941	597.4
639.357	594.8
639.773	608.6
640.189	586
640.584	597.6
641	599
641.416	589.4
641.832	595
642.249	585.4
642.665	598.8
643.06	592.4
643.477	607
643.894	580.6
644.31	596.6
644.727	597
645.123	590
645.54	583.4
645.957	590.4
646.374	600.4
646.77	590
647.187	628.4
647.604	588.6
648.021	588.8
648.439	584.2
648.835	602.2
649.252	591.2
649.67	594.4
650.088	588
650.484	595.8
650.902	596.8
651.32	601.8
651.738	586.4
652.134	586
652.552	609.6
652.971	604
653.389	592.8
653.786	595.4
654.204	612.6
654.622	585
655.019	589
655.438	595.2
655.857	588.8
656.275	585.8
656.673	578.4
657.091	599.4
657.51	579
657.908	597.6
658.327	608.2
658.746	581.2
659.144	593.6
659.563	598.2
659.982	595.6
660.38	577.2
660.8	587.2
661.219	600.8
661.617	588
662.037	594
662.457	599.4
662.855	580.6
663.275	623.2
663.695	594
664.094	587.4
664.514	597.2
664.934	580.6
665.333	591.2
665.753	592.2
666.152	577
666.572	584.4
666.993	604.2
667.392	589.4
667.812	594.6
668.212	586.6
668.632	603
669.053	592.6
669.453	600.6
669.874	593.2
670.273	593.4
670.694	583.4
671.116	596.6
671.515	598.6
671.937	586
672.337	582.2
672.758	579
673.158	599.2
673.58	581.6
673.98	591.8
674.402	605.8
674.824	595.4
675.224	579.4
675.646	579.4
676.047	581
676.469	585.8
676.869	596
677.292	599.6
677.693	579.8
678.115	583.4
678.516	592
678.939	597.2
679.34	601
679.762	600.6
680.164	598.6
680.586	587.8
680.988	589.2
681.411	614.4
681.812	585.4
682.236	580
682.637	578.2
683.061	575.8
683.462	590.6
683.864	586.8
684.288	590
684.69	578
685.114	595.6
685.516	602.2
685.94	577.6
686.342	591.6
686.766	588.8
687.168	594.8
687.571	603.8
687.995	594.8
688.398	578.6
688.822	587.2
689.225	593.2
689.628	609.8
690.052	584.4
690.456	587.4
690.88	588.2
691.284	579.2
691.687	592
692.112	571.2
692.515	579.2
692.919	595
693.344	593.6
693.747	582.8
694.173	584
694.577	601.2
694.98	586
695.406	584.2
695.81	581
696.214	594.4
696.64	589.8
697.044	584.6
697.448	596.2
697.874	587
698.279	590.2
698.684	583
699.11	586.4
699.514	584.8
699.919	587
700.324	578.6
700.75	586.4
701.156	581.4
701.561	593.2
701.987	590.2
702.393	592.4
702.798	588.6
703.203	582.6
703.63	573
704.036	576
704.442	578
704.847	578.8
705.274	584
705.68	578.8
706.086	597
706.492	567.6
706.92	581.2
707.326	588.4
707.732	580.6
708.139	567.4
708.545	582
708.973	576.6
709.38	583
709.786	570.2
710.193	597.4
710.6	583.2
711.028	571.2
711.435	581.4
711.842	589.2
712.249	584
712.656	571.8
713.064	592.4
713.492	573.4
713.9	585.4
714.307	595.8
714.715	585.2
715.123	586.8
715.53	594
715.938	590.8
716.367	593.2
716.775	582.4
717.184	575
717.592	583.4
718	603
718.408	613.8
718.816	631
719.225	584
719.633	583.4
720.042	578
720.472	577
720.881	605.6
721.29	588.6
721.699	579.6
722.108	592
722.517	583.4
722.926	584.2
723.335	595.2
723.744	581
724.154	587.4
724.563	584.6
724.973	590.6
725.382	584.6
725.792	583
726.202	584
726.612	602.2
727.022	580.4
727.432	587.2
779.813	588.8
780.223	632.2
780.634	577
781.044	586
781.454	581.4
781.865	599.8
782.276	574
782.686	593.8
783.097	580.6
783.508	576.4
783.919	586
784.33	598
784.741	606.4
785.152	579.6
785.563	577.4
785.974	582.2
786.386	590.4
786.776	589.4
787.188	581.6
787.599	578.4
788.011	590.2
788.423	586
788.835	585
789.247	577
789.659	586.4
790.071	579
790.483	632.2
790.874	582.4
791.286	592.6
791.699	577.6
792.111	584.8
792.524	586.2
792.937	586.2
793.349	579.4
793.741	581.4
794.154	579.8
794.567	605.6
794.98	578.4
795.393	581.6
795.785	601.4
796.198	577.4
796.612	578.2
797.026	578.2
797.439	570.6
797.831	586.6
798.245	574.4
798.659	579
799.073	581.6
799.487	577.2
799.88	582
800.294	576
800.708	584.8
801.123	577.4
801.516	597.2
801.93	571.6
802.345	569.8
802.76	575.2
803.153	586.6
803.568	601.4
803.983	589.4
804.377	589.2
804.792	577.2
805.207	568
805.601	587.2
806.016	614.6
806.432	576.8
806.826	612.4
807.242	602.2
807.658	585.2
808.052	578.4
808.468	586.2
808.884	576.2
809.279	578
809.695	594
810.111	604
810.506	588.6
810.922	601.4
811.339	575.6
811.734	595
812.151	579.8
812.546	577.4
812.963	577.2
813.38	584.8
813.776	585
814.193	602.6
814.589	577
815.006	575.4
815.402	578.2
815.82	583
816.237	582.6
816.633	586.8
817.051	581
817.448	587.6
817.866	572.4
818.262	598
818.68	579.6
819.077	580.6
819.495	588.4
819.892	623.4
820.311	579.6
820.708	581.6
821.127	580
821.524	592.8
821.943	584.8
822.34	600.8
822.759	578.2
823.157	590.8
823.576	600.2
823.974	589.2
824.393	633.8
824.791	578.6
825.189	580.6
825.609	573.2
826.007	584.8
826.427	573.4
826.826	577.6
827.246	584.2
827.644	571
828.043	581.8
828.463	575.6
828.862	588.8
829.261	586.4
829.682	576.6
830.081	587.4
830.502	581.4
830.901	593.4
831.301	590.6
831.722	574
832.121	581.8
832.521	582
832.943	587.4
833.342	573.8
833.742	568.6
834.164	576.8
834.564	572
834.965	576.6
835.386	573.2
835.787	580.2
836.188	580.8
836.588	583.2
837.01	586.4
837.411	577.4
837.812	582.4
838.213	591.2
838.636	581
839.037	649
839.438	593
839.84	579.8
840.263	591
840.664	585.4
841.066	576.4
841.468	582.6
841.891	575.6
842.293	593.4
842.695	583.2
843.098	590.8
843.5	578.8
843.902	592.2
844.326	589.4
844.729	584
845.131	592
845.534	587.4
845.937	590.4
846.34	597
846.764	587.8
847.167	589.8
847.571	573.6
847.974	577.2
848.377	580.6
848.781	616.2
849.184	592
849.588	571.4
849.992	584.4
850.396	577.8
850.821	597
851.225	578.6
851.63	572.2
852.034	584
852.438	571.6
852.843	656.6
853.247	569.8
853.652	567.4
854.057	591.8
854.462	579.4
854.867	580.8
855.272	604.6
855.677	577.4
856.082	566.8
856.487	568.2
856.893	582.6
857.298	573.8
857.704	581.8
