#lambda/nm	C1
208.295	517.2
208.67	467.4
209.045	431.2
209.419	435.4
209.794	612.6
210.169	601.2
210.544	727.4
210.919	624.8
211.295	602.8
211.67	619.2
212.045	612.8
212.421	610.6
212.796	653
213.172	609
213.547	614.4
213.923	614.8
214.299	616.4
214.675	614
215.051	625.4
215.427	621.4
215.803	631.8
216.179	615.6
216.555	607.4
216.932	616.6
217.308	610.2
217.684	611.2
218.061	615.6
218.438	617.8
218.814	609.2
219.191	623
219.568	604.2
219.945	609.6
220.322	618.6
220.699	625
221.076	620.8
221.453	611.2
221.83	611.2
222.208	609.2
222.585	609.2
222.962	611.8
223.34	616.4
223.717	611.2
224.095	614
224.473	619.2
224.851	613.2
225.229	604.4
225.607	634.4
225.985	603.6
226.363	612.4
226.741	610.6
227.119	614.2
227.497	623
227.876	598.8
228.254	614.8
228.633	621.2
229.011	613.8
229.39	620.8
229.769	616
230.148	619.4
230.527	631.8
230.905	615.4
231.284	619.6
231.664	609.2
232.043	625.8
232.422	621.6
232.801	611.2
233.181	625
233.56	612.8
233.94	624
234.319	604.4
234.699	611
235.079	657.8
235.458	656.6
235.838	632.6
236.218	609
236.598	605
236.978	610.8
237.358	610.4
237.738	615.4
238.119	621.4
238.499	611.2
238.88	620
239.26	636.8
239.641	604
240.021	609
240.402	610.2
240.783	606.8
241.163	624
241.544	612.6
241.925	608.6
242.306	629.4
242.687	624.2
243.069	618.2
243.45	630.6
243.831	610.2
244.212	615.4
244.594	652.6
244.975	633.2
245.357	620.4
245.739	611.2
246.12	611.2
246.502	628.8
246.884	615.2
247.266	614.2
247.648	621.6
248.03	639.8
248.412	621.4
248.794	617.2
249.176	613.2
249.559	629
249.941	611.6
250.323	605.8
250.706	606.2
251.089	616.6
251.471	620.2
251.854	619.8
252.237	610
252.62	626
253.002	616
253.385	609.6
253.769	631.6
254.152	618.2
254.535	623.8
254.918	613.2
255.301	611.6
255.685	607.8
256.068	604.2
256.452	634
256.835	627.4
257.219	623.6
257.603	624.2
257.986	604
258.37	626.8
258.754	606
259.138	621.4
259.522	622.6
259.906	609.2
260.29	614.8
260.675	615.2
261.059	614
261.443	608
261.828	624
262.212	620.2
262.597	608.6
262.981	611.8
263.366	619.4
263.751	621.6
264.136	616.8
264.521	605.2
264.906	612.6
265.291	618.6
265.676	611.6
266.061	623.2
266.446	626.4
266.831	615.6
267.217	641.6
267.602	619
267.987	621.8
268.373	614.6
268.759	622
269.144	630
269.53	616
269.916	615.8
270.302	610.8
270.688	627.2
271.074	616.4
271.46	629.8
271.846	650.8
272.232	618.6
272.618	614
273.004	613
273.391	626.2
273.777	628.4
274.164	624.8
274.55	635.8
274.937	618.6
275.324	614.8
275.71	622.2
276.097	618
276.484	608.4
276.871	627.2
277.258	613
277.645	597
278.032	623
278.419	611.6
278.807	619.6
279.194	612.4
279.581	612.6
279.969	620.4
280.356	621.6
280.744	627
281.131	641.4
281.519	639.4
281.907	623.6
282.295	612.4
282.682	625.8
283.07	613.4
283.458	622.6
283.846	625.6
284.235	624
284.623	619.8
285.011	608.4
285.399	629.8
285.788	613.2
286.176	603.6
286.565	629.4
286.953	606.6
287.342	617
287.731	610.4
288.119	607.6
288.508	611.4
288.897	608
289.286	602.4
289.675	610.4
290.064	622.6
290.453	616.6
290.821	617.4
291.21	632
291.599	613
291.989	622.2
292.378	615.2
292.768	636.4
293.157	626.2
293.547	620.4
293.936	622.2
294.326	623
294.716	626
295.106	615.6
295.496	627.2
295.886	620
296.276	625.4
296.666	614.2
297.056	614
297.446	602.4
297.836	631.2
298.227	617
298.617	619
299.008	631.6
299.398	609
299.789	607.2
300.179	618.6
300.57	631
300.961	614.2
301.352	607.6
301.742	622.2
302.133	627.8
302.524	621.4
302.915	630.8
303.307	609.6
303.698	628.8
304.089	627
304.48	618.4
304.872	620
305.263	619.4
305.655	613.2
306.046	620.4
306.438	622.8
306.829	616.4
307.221	630.2
307.613	617
308.005	627.6
308.397	627.6
308.789	646.2
309.181	645.6
309.573	633.2
309.965	630.8
310.357	616.8
310.749	635.8
311.142	609
311.534	617.8
311.926	623.6
312.319	611.6
312.711	613.4
313.104	637
313.497	613.2
313.889	653.6
314.282	629.4
314.675	647.2
315.068	621.2
315.461	617.2
315.854	643.4
316.247	626.4
316.64	610.4
317.033	618.6
317.405	625.8
317.798	611
318.192	620
318.585	606
318.979	618.6
319.372	613.4
319.766	611.8
320.16	631.4
320.553	634.2
320.947	640
321.341	623.2
321.735	613
322.129	605.6
322.523	640.6
322.917	606.4
323.311	623
323.705	627.2
324.099	618.4
324.494	633
324.888	623.4
325.282	618.8
325.677	628
326.071	615
326.466	638.4
326.861	618.2
327.255	629.6
327.65	623
328.045	632
328.44	623
328.835	618
329.23	609
329.625	634.4
330.02	617
330.415	638.8
330.81	620.4
331.206	614.2
331.601	611.8
331.996	628.4
332.37	639.6
332.766	607
333.161	649.8
333.557	611.2
333.953	621.6
334.348	981.2
334.744	621.4
335.14	617.6
335.536	612
335.932	624.6
336.328	617.4
336.724	630.8
337.12	623.4
337.516	626.4
337.913	618.6
338.309	631
338.705	614.4
339.102	628.8
339.498	610.8
339.895	629.2
340.291	608.4
340.688	631.8
341.085	616.2
341.481	609
341.878	611.4
342.275	640.4
342.672	612
343.069	617.6
343.466	602.6
343.842	625.8
344.239	612
344.636	621.2
345.033	607
345.431	613
345.828	615.6
346.225	613.6
346.623	656.6
347.02	615
347.418	619.8
347.816	627.2
348.213	609.8
348.611	623.8
349.009	601.2
349.407	624.2
349.805	599.6
350.203	605
350.601	626.8
350.999	620.6
351.397	656.8
351.795	617.6
352.193	620
352.57	621.2
352.969	620
353.367	604.4
353.766	611.8
354.164	615.4
354.563	625.2
354.961	620.6
355.36	613.8
355.759	617.6
356.158	610.4
356.557	610
356.956	606
357.355	602.8
357.754	613.4
358.153	615
358.552	632.8
358.951	615
359.35	620.6
359.75	612.8
360.149	598
360.527	600.4
360.926	603.8
361.326	616
361.726	620.2
362.125	607.8
362.525	621.6
362.925	614.6
363.325	608.4
363.724	610.6
364.124	611
364.524	606.6
364.924	607
365.324	621.2
365.725	597.4
366.125	619.6
366.525	608.8
366.904	607.4
367.304	598
367.705	627.4
368.105	616.2
368.506	609.2
368.906	614.4
369.307	603
369.708	615.8
370.108	602.6
370.509	621.4
370.91	604.8
371.311	611.2
371.712	614.8
372.113	610.4
372.514	602.6
372.894	611.6
373.295	612
373.696	623.2
374.097	617.4
374.499	641.8
374.9	621.6
375.301	607.2
375.703	616
376.105	610.2
376.506	615.8
376.908	617.4
377.309	604.2
377.711	614.8
378.113	600.4
378.493	603.2
378.895	602.2
379.297	614.2
379.699	600
380.102	613.8
380.504	609
380.906	603.2
381.308	636.2
381.71	619.2
382.113	610.4
382.515	609.6
382.918	614.6
383.299	608.8
383.701	613
384.104	612.4
384.507	590.2
384.909	607.4
385.312	595.4
385.715	602.8
386.118	603
386.521	599
386.924	617.4
387.327	601.6
387.709	592
388.112	599
388.515	603.4
388.918	605.6
389.322	610.8
389.725	602.8
390.129	628.4
390.532	618.4
390.936	604.8
391.339	600.4
391.743	607.4
392.125	603.4
392.529	618.4
392.933	619.6
393.337	607.4
393.74	602.8
394.144	604.2
394.548	604.2
394.953	608.2
395.357	618.2
395.761	599.4
396.144	616.4
396.548	614.2
396.952	608.4
397.357	606
397.761	612.2
398.166	609
398.57	605.8
398.975	595.4
399.379	616.4
399.763	649.6
400.168	605
400.572	613.2
400.977	610.8
401.382	628.4
401.787	618.8
402.192	624
402.597	619.8
403.002	603.8
403.386	620.4
403.791	622
404.197	603.6
404.602	615.6
405.007	610.6
405.413	604.4
405.818	610.4
406.224	608.4
406.608	615
407.014	599.6
407.42	629.4
407.825	607.8
408.231	614.6
408.637	604.4
409.043	624
409.449	593.4
409.834	594.8
410.24	606
410.646	618.8
411.052	623.8
411.458	605.2
411.865	619.4
412.271	616.4
412.677	607.6
413.062	616.4
413.469	598.6
413.875	634.2
414.282	627.2
414.689	616
415.095	619.8
415.502	598.8
415.888	614.8
416.294	598.2
416.701	653
417.108	598.2
417.515	628.2
417.923	613.4
418.33	634.4
418.715	610.4
419.123	609.6
419.53	601.2
419.937	603.2
420.345	631
420.752	608
421.16	624
421.546	612.2
421.953	614.6
422.361	596.4
422.769	610.8
423.177	602.2
423.585	620.8
423.992	628.8
424.379	619.8
424.787	614.6
425.195	629.8
425.603	610.2
426.011	623
426.419	621.6
426.806	605
427.214	612.4
427.623	623.2
428.031	624.6
428.44	618.6
428.848	628
429.235	618.6
429.644	611.6
430.053	606.2
430.461	630.4
430.87	632.6
431.279	626.8
431.666	611.6
432.075	622
432.484	622.8
432.893	610.8
433.302	628.2
433.711	654.6
434.099	618.4
434.508	620.2
434.918	610.4
435.327	627
435.737	630.2
436.125	626.6
436.534	632.6
436.944	627.8
437.353	643
437.763	659
438.173	635
438.561	652.2
438.971	630.6
439.381	637.6
439.791	656.4
440.201	640
440.589	659.2
440.999	670
441.409	675.4
441.819	660.6
442.23	680.4
442.619	691
443.029	680.6
443.439	684
443.85	699.2
444.26	695.4
444.649	700
445.06	701
445.471	695.6
445.881	710.2
446.292	719.6
446.682	733.4
447.092	703.6
447.503	757.2
447.914	717.6
448.325	716.2
448.715	727.6
449.126	712.2
449.537	723.6
449.948	715
450.338	723.8
450.75	735.2
451.161	729.6
451.572	737.6
451.984	733.6
452.374	724
452.786	738.6
453.197	741.8
453.609	743.8
453.999	731.6
454.411	742.4
454.823	750.2
455.235	747.6
455.647	745
456.037	760
456.449	739.6
456.862	751.2
457.274	758.2
457.665	746.2
458.077	763
458.489	788.4
458.902	749.2
459.293	772.4
459.705	761.8
460.118	762.4
460.53	771.4
460.921	762.8
461.334	778.8
461.747	763.2
462.16	779
462.551	790.6
462.964	779
463.377	760.2
463.79	759.6
464.182	790.4
464.595	764.6
465.008	768.2
465.421	775.8
465.813	774.4
466.226	780.8
466.64	781.2
467.053	813.8
467.445	789.8
467.859	803.2
468.272	778.6
468.686	795
469.078	787.8
469.492	775.8
469.906	780
470.298	789.4
470.712	781.4
471.126	835.4
471.54	781.4
471.933	788
472.347	787.8
472.761	788.4
473.175	786
473.568	785.6
473.982	781
474.397	793.4
474.79	795
475.204	798.8
475.619	796.6
476.033	790.8
476.426	789.2
476.841	783.2
477.256	811.6
477.649	785.6
478.064	777.8
478.479	775.8
478.872	776
479.287	771.2
479.702	772.6
480.118	778.4
480.511	785.8
480.927	784
481.342	781.6
481.736	788.4
482.151	772.8
482.566	791.4
482.96	787.2
483.376	789.6
483.792	786
484.186	783.6
484.602	775.6
485.017	772.4
485.412	780.4
485.827	782.8
486.243	767.6
486.638	794.4
487.054	786
487.47	789.6
487.865	779.2
488.281	774
488.697	762.6
489.092	764.8
489.508	770
489.925	781.2
490.32	770.2
490.736	779.2
491.153	775
491.548	773.4
491.964	785.2
492.381	759.6
492.776	776.8
493.193	765.2
493.61	758.8
494.006	778.6
494.422	765
494.84	761.8
495.235	765.6
495.652	752.8
496.069	766.2
496.465	746.8
496.883	746.8
497.3	785.8
497.696	746.8
498.113	759.4
498.509	747
498.927	748.6
499.344	734.2
499.741	740.8
500.158	754.4
500.576	752.8
500.973	750
501.39	735.2
501.787	728.6
502.205	735.2
502.623	722.2
503.02	728.8
503.438	729.8
503.856	741.2
504.253	736.8
504.671	737.2
505.068	733.4
505.486	725.6
505.905	747.2
506.302	729.4
506.72	737
507.118	714
507.536	724.6
507.955	723.6
508.352	730.8
508.771	731
509.169	729.6
509.587	720
510.006	719.4
510.404	702.2
510.823	714
511.221	719.2
511.64	720.6
512.038	729.6
512.457	719.8
512.877	713
513.275	709.8
513.694	709.4
514.092	705.2
514.512	712.6
514.91	713.8
515.33	708
515.749	705.2
516.148	705.2
516.568	715.8
516.966	702.2
517.386	691.2
517.785	698.2
518.205	693.8
518.603	683
519.024	683
519.444	702.4
519.843	698.8
520.263	709
520.662	687.4
521.082	696.4
521.481	694.8
521.902	687.6
522.301	684.2
522.722	686.6
523.121	688
523.542	679
523.963	688.4
524.362	681.6
524.783	682.4
525.183	685.6
525.604	679.4
526.003	682
526.425	670.2
526.824	690
527.246	685.6
527.646	696
528.067	667.2
528.467	678
528.888	679.6
529.289	676.6
529.71	672.6
530.11	663
530.532	672.2
530.932	663.6
531.354	667
531.755	699
532.176	674.4
532.577	662
532.999	670
533.4	666.2
533.822	671.8
534.223	676.2
534.645	650.8
535.046	649
535.468	654
535.869	666.4
536.292	654.8
536.693	694.6
537.115	670.4
537.516	663
537.939	656.2
538.34	678.8
538.742	672.4
539.165	664.6
539.566	665.2
539.989	657.4
540.391	654.4
540.814	660.8
541.216	660.8
541.639	654.6
542.041	653
542.464	646.8
542.866	645.4
543.268	644
543.691	652.4
544.093	657.6
544.517	679.8
544.919	640
545.343	671.8
545.745	644
546.147	653.8
546.571	648.8
546.974	640.2
547.398	648.4
547.8	662.4
548.224	642.4
548.627	636
549.03	652.6
549.454	644.2
549.857	632.4
550.281	648.8
550.684	636.6
551.087	651.8
551.512	646.6
551.915	646.6
552.34	641.2
552.743	639.4
553.146	639.8
553.571	648
553.975	664
554.399	633.6
554.803	688.8
555.207	635.2
555.632	628.4
556.036	645
556.461	635.4
556.865	642.8
557.268	631.6
557.694	632
558.098	642.2
558.502	648.6
558.927	631.6
559.332	639.4
559.736	631
560.162	642.6
560.566	627
560.992	638.4
561.396	625.2
561.801	628
562.227	631.2
562.631	620.2
563.036	623.6
563.462	635.6
563.867	627.6
564.272	613.2
564.698	636.4
565.103	624
565.508	650.4
565.935	625.4
566.34	623.2
566.745	636.6
567.172	625.8
567.577	643.4
567.982	646.4
568.409	625.8
568.815	619.4
569.22	624.4
569.626	631.8
570.053	611.6
570.459	625.8
570.865	624
571.292	628.8
571.698	624.2
572.104	608.6
572.531	615.8
572.937	629.6
573.343	626
573.75	613
574.177	619.2
574.583	631.2
574.99	611.2
575.396	621
575.824	612.4
576.231	629.2
576.637	607
577.065	650.8
577.472	611.8
577.879	611.4
578.286	625.6
578.714	608
579.121	611.8
579.528	621.4
579.935	628.2
580.364	613.8
580.771	604.4
581.178	609
581.585	617.8
582.014	618.6
582.421	620.6
582.829	614.8
583.236	614.6
583.644	611
584.073	608.8
584.481	611.2
584.889	613.4
585.296	625.4
585.726	611
586.134	601.2
586.542	609.2
586.95	625.8
587.358	598.8
587.787	616
588.196	614.4
588.604	611.8
589.012	603.8
589.421	596.6
589.851	613.2
590.259	611.2
590.668	605
591.076	643
591.485	610.6
591.894	602.4
592.324	615.2
592.733	618.8
593.142	598.6
593.551	604.8
593.96	618.8
594.369	598
594.8	598.2
595.209	612.8
595.618	593.6
596.028	606.6
596.437	590.8
596.847	598
597.256	605
597.687	608.4
598.097	603.2
598.507	594.8
598.917	610.8
599.327	607.4
599.736	604.2
600.146	621
600.556	599.2
600.988	610.4
601.398	597.4
601.808	610
602.219	587.2
602.629	596.4
603.039	600.8
603.45	625
603.86	607
604.271	624.4
604.703	602.8
605.114	606.4
605.525	600.2
605.935	600.4
606.346	617.6
606.757	599.6
607.168	605.8
607.579	598.2
607.99	614.4
608.402	600
608.813	604.2
609.224	598.8
609.636	591
610.047	596.8
610.48	597.6
610.892	612.2
611.303	620.2
611.715	602.8
612.127	591.4
612.539	600
612.95	607
613.362	589.6
613.774	588.2
614.186	592.2
614.599	603.4
615.011	611.8
615.423	600.2
615.835	599.2
616.248	580
616.66	601.6
617.073	589.2
617.485	598.8
617.898	605
618.311	598.4
618.723	595
619.136	629.8
619.549	617.8
619.962	623.4
620.375	595.2
620.788	612.4
621.201	596
621.614	603.4
622.028	599.2
622.441	602.6
622.854	613.4
623.268	586.8
623.681	601.6
624.095	597
624.509	611
624.922	604.6
625.336	586
625.728	597.8
626.142	606.2
626.556	616.4
626.97	599
627.384	597.6
627.799	603.2
628.213	607.6
628.627	595.4
629.041	594.8
629.456	597
629.87	604.8
630.285	608.4
630.699	607
631.093	592.8
631.507	600.2
631.922	601.2
632.337	614.6
632.752	583.2
633.167	593.2
633.582	592.4
633.997	595
634.412	593.2
634.806	597
635.221	587.4
635.637	610.4
636.052	588.8
636.468	595.4
636.883	614.2
637.299	596.2
637.715	585.6
638.109	600
638.525	586
638.941	611.6
639.357	602.8
639.773	602.8
640.189	602.4
640.584	597
641	604.4
641.416	585.6
641.832	603.8
642.249	589
642.665	597.4
643.06	600.6
643.477	609.4
643.894	573
644.31	590.8
644.727	587.6
645.123	598.4
645.54	586.6
645.957	594.6
646.374	602.2
646.77	604.8
647.187	633.4
647.604	591.8
648.021	585.8
648.439	587.6
648.835	602.2
649.252	594.8
649.67	591.4
650.088	596.4
650.484	600.2
650.902	604.4
651.32	604.6
651.738	597.4
652.134	597
652.552	615.4
652.971	600.8
653.389	604.2
653.786	609.2
654.204	612
654.622	587.2
655.019	597.4
655.438	598.2
655.857	592.2
656.275	597.2
656.673	596.6
657.091	599.6
657.51	582
657.908	598.6
658.327	608
658.746	584.2
659.144	591.8
659.563	612.8
659.982	594.4
660.38	584.8
660.8	593.8
661.219	597.2
661.617	596.4
662.037	589
662.457	603.2
662.855	575.4
663.275	627.4
663.695	591.2
664.094	589.2
664.514	596.8
664.934	586.4
665.333	598.2
665.753	590.8
666.152	577
666.572	585.8
666.993	594.4
667.392	585
667.812	586.8
668.212	581.8
668.632	609.6
669.053	593
669.453	584.6
669.874	586
670.273	596.6
670.694	581.4
671.116	606.6
671.515	598
671.937	593
672.337	584
672.758	589.4
673.158	598.6
673.58	584.6
673.98	592.8
674.402	599.2
674.824	592.8
675.224	579.8
675.646	586.4
676.047	586
676.469	589.6
676.869	599.6
677.292	597.2
677.693	584.4
678.115	584
678.516	596.2
678.939	595.8
679.34	584.6
679.762	599.6
680.164	596.2
680.586	581.4
680.988	602.8
681.411	611
681.812	590.8
682.236	582.6
682.637	583.2
683.061	581
683.462	593.8
683.864	586.4
684.288	600.4
684.69	580
685.114	600.8
685.516	598.6
685.94	589.2
686.342	599.6
686.766	590.4
687.168	592.8
687.571	607.4
687.995	588.6
688.398	589.8
688.822	590.2
689.225	602
689.628	609.8
690.052	592.8
690.456	595.2
690.88	591.4
691.284	579.4
691.687	591
692.112	577.2
692.515	574.4
692.919	596.6
693.344	592.8
693.747	586.8
694.173	586.8
694.577	599.8
694.98	590
695.406	589.2
695.81	594.2
696.214	592.2
696.64	591.2
697.044	593
697.448	597.6
697.874	592.8
698.279	590.6
698.684	576.2
699.11	582.2
699.514	584
699.919	576
700.324	575.4
700.75	587.8
701.156	591
701.561	599.4
701.987	585
702.393	603.8
702.798	593
703.203	589.6
703.63	581.8
704.036	582.6
704.442	579.8
704.847	584.8
705.274	586.2
705.68	591.6
706.086	596.4
706.492	580.4
706.92	587.8
707.326	601.4
707.732	589.8
708.139	580.4
708.545	576
708.973	569.4
709.38	586.8
709.786	571.2
710.193	596.6
710.6	580.4
711.028	578
711.435	584.4
711.842	584.8
712.249	582.2
712.656	574.2
713.064	590.2
713.492	569.6
713.9	582.2
714.307	582
714.715	579
715.123	585.4
715.53	591.2
715.938	595.8
716.367	591.8
716.775	575.4
717.184	585.8
717.592	588
718	600.4
718.408	614.4
718.816	633.8
719.225	596.8
719.633	591.8
720.042	581.6
720.472	582.2
720.881	596
721.29	594.2
721.699	578.4
722.108	601.4
722.517	590
722.926	588.8
723.335	598.6
723.744	591.2
724.154	593.4
724.563	594.4
724.973	589.6
725.382	576.4
725.792	588.8
726.202	579.2
726.612	605.8
727.022	594.4
727.432	586.6
779.813	589.6
780.223	628
780.634	589.6
781.044	581.8
781.454	588
781.865	603.8
782.276	582.8
782.686	600.2
783.097	590.2
783.508	582.4
783.919	587
784.33	605.2
784.741	603.2
785.152	580
785.563	572.8
785.974	576.2
786.386	603
786.776	584.8
787.188	585.8
787.599	580
788.011	588.2
788.423	597.2
788.835	585.4
789.247	573
789.659	576.4
790.071	580.6
790.483	622.6
790.874	578.8
791.286	591.8
791.699	579.2
792.111	589.4
792.524	583.4
792.937	585
793.349	569.4
793.741	583.2
794.154	574.6
794.567	597
794.98	577.6
795.393	568.6
795.785	598.6
796.198	576.6
796.612	590.8
797.026	583.2
797.439	572
797.831	588
798.245	575.6
798.659	582.6
799.073	575.8
799.487	575.6
799.88	593
800.294	585.4
800.708	592
801.123	592
801.516	604
801.93	570.6
802.345	571.2
802.76	588
803.153	596.4
803.568	594.6
803.983	594.2
804.377	593.2
804.792	568
805.207	569.6
805.601	597
806.016	616.4
806.432	581.8
806.826	618
807.242	596.8
807.658	594
808.052	590.2
808.468	587.6
808.884	580.2
809.279	581.8
809.695	598.6
810.111	606.4
810.506	595.6
810.922	592.6
811.339	574
811.734	596
812.151	581.4
812.546	580
812.963	578.4
813.38	586
813.776	589.2
814.193	606.8
814.589	578
815.006	581.8
815.402	580.8
815.82	584
816.237	579.4
816.633	578.8
817.051	578.8
817.448	580.6
817.866	574.2
818.262	601
818.68	582.4
819.077	579
819.495	585.6
819.892	621.4
820.311	569
820.708	586.6
821.127	570.6
821.524	592.6
821.943	579
822.34	598.2
822.759	590.4
823.157	578.6
823.576	596.6
823.974	587.6
824.393	615.6
824.791	575.4
825.189	580.2
825.609	584
826.007	585.6
826.427	580.4
826.826	584
827.246	588.8
827.644	565.8
828.043	594.4
828.463	585.8
828.862	592.4
829.261	588.4
829.682	575.8
830.081	595
830.502	581.4
830.901	589.6
831.301	600.2
831.722	571.6
832.121	582.6
832.521	578.8
832.943	582.6
833.342	581.8
833.742	575.8
834.164	577
834.564	575.2
834.965	584.8
835.386	580
835.787	592.2
836.188	576.6
836.588	582
837.01	582.6
837.411	579.2
837.812	585.6
838.213	587.6
838.636	583.6
839.037	652
839.438	585.6
839.84	582.6
840.263	590.2
840.664	589
841.066	575.2
841.468	584.8
841.891	577.2
842.293	589.4
842.695	580.8
843.098	591.2
843.5	583.8
843.902	589.8
844.326	593
844.729	579.8
845.131	593.8
845.534	577.8
845.937	593.6
846.34	604.2
846.764	578.2
847.167	583
847.571	578
847.974	589.4
848.377	583.2
848.781	632.8
849.184	599.4
849.588	587.6
849.992	570.2
850.396	594
850.821	592.6
851.225	588
851.63	570.4
852.034	598
852.438	584.2
852.843	609.4
853.247	573.8
853.652	582.4
854.057	600.8
854.462	590
854.867	591.6
855.272	612.4
855.677	592.6
856.082	579.8
856.487	576.8
856.893	582.2
857.298	577.8
