#lambda/nm	C1
208.295	511.6
208.67	466.4
209.045	431.6
209.419	436.2
209.794	618.6
210.169	600
210.544	723.6
210.919	617.8
211.295	609.8
211.67	622.2
212.045	614.4
212.421	613.2
212.796	647.2
213.172	612.2
213.547	606
213.923	610.8
214.299	617
214.675	624.2
215.051	611.8
215.427	615
215.803	636.6
216.179	619.4
216.555	611
216.932	629.4
217.308	615.4
217.684	609
218.061	619.6
218.438	617.6
218.814	617.6
219.191	624
219.568	607.8
219.945	611.8
220.322	616.6
220.699	617.8
221.076	628.8
221.453	622.8
221.83	597
222.208	611
222.585	608.4
222.962	615.8
223.34	616.2
223.717	614.4
224.095	607
224.473	606.2
224.851	602.4
225.229	608.6
225.607	629.4
225.985	604.4
226.363	617.6
226.741	613.4
227.119	607.8
227.497	627.6
227.876	606.4
228.254	619.2
228.633	624.8
229.011	619.8
229.39	619.6
229.769	617.6
230.148	619.8
230.527	643.2
230.905	622.8
231.284	617.8
231.664	608
232.043	624.4
232.422	621.6
232.801	606.8
233.181	616.6
233.56	609.2
233.94	612.2
234.319	595.8
234.699	609.8
235.079	655.2
235.458	649
235.838	620.4
236.218	606.2
236.598	605
236.978	601
237.358	606.2
237.738	612.4
238.119	626.2
238.499	603
238.88	619.2
239.26	628.6
239.641	609.8
240.021	614.8
240.402	610.4
240.783	617
241.163	614.8
241.544	613.4
241.925	614.8
242.306	640.2
242.687	614.2
243.069	620.2
243.45	623
243.831	612
244.212	613.8
244.594	657
244.975	617.6
245.357	618
245.739	611.2
246.12	621.2
246.502	621
246.884	610.8
247.266	612
247.648	610.2
248.03	634
248.412	610.6
248.794	612.4
249.176	609.6
249.559	622.6
249.941	614.8
250.323	608.6
250.706	610.8
251.089	610.4
251.471	620.6
251.854	612.8
252.237	616.2
252.62	615.4
253.002	617.8
253.385	615.2
253.769	637
254.152	612.2
254.535	615.8
254.918	609.2
255.301	619.8
255.685	607.8
256.068	607
256.452	627.4
256.835	625.4
257.219	615.6
257.603	622
257.986	620.4
258.37	626.8
258.754	611.4
259.138	625.4
259.522	625.8
259.906	612.4
260.29	622.4
260.675	615.2
261.059	611.4
261.443	601.2
261.828	615.4
262.212	618
262.597	607.6
262.981	603.6
263.366	630.6
263.751	605.8
264.136	612.4
264.521	611.6
264.906	610.8
265.291	628
265.676	613.6
266.061	622.2
266.446	634.6
266.831	625.4
267.217	637.6
267.602	616.2
267.987	623.6
268.373	615.6
268.759	626
269.144	620.6
269.53	613.6
269.916	618
270.302	616.8
270.688	616.8
271.074	619.6
271.46	631
271.846	649.2
272.232	619.6
272.618	618.2
273.004	620.8
273.391	626.8
273.777	628.4
274.164	617.4
274.55	636
274.937	615
275.324	618.8
275.71	617.6
276.097	632
276.484	614.4
276.871	625.4
277.258	630.4
277.645	609.8
278.032	622
278.419	615.4
278.807	614
279.194	613.2
279.581	611
279.969	627.2
280.356	619.8
280.744	623.8
281.131	644.6
281.519	629.6
281.907	620.2
282.295	616.4
282.682	628.8
283.07	620.2
283.458	625.2
283.846	625.8
284.235	620
284.623	625.2
285.011	615
285.399	622
285.788	614
286.176	608.2
286.565	629.6
286.953	618.8
287.342	606.8
287.731	617.6
288.119	615.2
288.508	614.4
288.897	630.6
289.286	605.6
289.675	605.2
290.064	626
290.453	611
290.821	613.8
291.21	630.6
291.599	617.8
291.989	617.8
292.378	628
292.768	634.2
293.157	630
293.547	630.4
293.936	612.6
294.326	613.8
294.716	616.2
295.106	608
295.496	628.2
295.886	628.8
296.276	624.4
296.666	606.2
297.056	609.8
297.446	610
297.836	630.2
298.227	608.4
298.617	621.4
299.008	632.4
299.398	612.6
299.789	618.4
300.179	622.4
300.57	634.8
300.961	611.8
301.352	618.2
301.742	631.8
302.133	616.6
302.524	614.8
302.915	614
303.307	601.4
303.698	625.8
304.089	617.6
304.48	614.4
304.872	622.2
305.263	616.6
305.655	612.8
306.046	621.6
306.438	630
306.829	613.8
307.221	630.6
307.613	628
308.005	623.8
308.397	632
308.789	635.8
309.181	637.8
309.573	634
309.965	627.8
310.357	618.4
310.749	628.6
311.142	611.6
311.534	610.4
311.926	613.8
312.319	613
312.711	614.4
313.104	631.6
313.497	612.2
313.889	648.8
314.282	631
314.675	644.4
315.068	613
315.461	622.8
315.854	652.2
316.247	618.4
316.64	617.8
317.033	621.2
317.405	622
317.798	619.2
318.192	618
318.585	611.4
318.979	623.6
319.372	605.2
319.766	610.4
320.16	620.2
320.553	636.4
320.947	631
321.341	608.2
321.735	616.4
322.129	597.2
322.523	639.6
322.917	609
323.311	627.6
323.705	620.4
324.099	617
324.494	638.6
324.888	633
325.282	612.4
325.677	630.8
326.071	618.2
326.466	625.2
326.861	615.8
327.255	630
327.65	633
328.045	637.2
328.44	624.4
328.835	626.2
329.23	616.8
329.625	645.8
330.02	616.6
330.415	640.8
330.81	625.6
331.206	623.4
331.601	616
331.996	625
332.37	635
332.766	603
333.161	634.4
333.557	615
333.953	609.6
334.348	943.4
334.744	620
335.14	610.4
335.536	606.8
335.932	625.8
336.328	625.8
336.724	622.2
337.12	621.8
337.516	621.8
337.913	613.6
338.309	631.2
338.705	608.2
339.102	629.2
339.498	607.2
339.895	631.2
340.291	615.8
340.688	629
341.085	615.6
341.481	607.4
341.878	612.2
342.275	633.8
342.672	616
343.069	614.6
343.466	612
343.842	621.2
344.239	613.2
344.636	618
345.033	609.2
345.431	613
345.828	615.6
346.225	616.8
346.623	652.2
347.02	616.8
347.418	625.6
347.816	630.6
348.213	606.6
348.611	622.8
349.009	617.4
349.407	622
349.805	610.6
350.203	610.4
350.601	627.4
350.999	605.2
351.397	659
351.795	608.6
352.193	624.4
352.57	625
352.969	625.6
353.367	605.6
353.766	610
354.164	610.6
354.563	626
354.961	623.2
355.36	605.4
355.759	612.6
356.158	615.8
356.557	599.2
356.956	604.6
357.355	593.8
357.754	623
358.153	623.2
358.552	630.6
358.951	614.6
359.35	626.8
359.75	609
360.149	609
360.527	593.6
360.926	604.2
361.326	614.6
361.726	613
362.125	608
362.525	616.6
362.925	608.4
363.325	614.6
363.724	616.4
364.124	609.6
364.524	602.8
364.924	607.6
365.324	623
365.725	597.8
366.125	619.8
366.525	616
366.904	604.8
367.304	596
367.705	632.2
368.105	620.2
368.506	608
368.906	614
369.307	615
369.708	613.6
370.108	598.6
370.509	620.8
370.91	603.4
371.311	605
371.712	611.8
372.113	604.4
372.514	600.2
372.894	602.2
373.295	604
373.696	615.2
374.097	623.2
374.499	641.8
374.9	613
375.301	599.6
375.703	615
376.105	604.8
376.506	614.8
376.908	616.8
377.309	612.4
377.711	615.8
378.113	606.8
378.493	609.2
378.895	609.8
379.297	622.8
379.699	599
380.102	618
380.504	615
380.906	610.8
381.308	628.8
381.71	606
382.113	618.6
382.515	607.8
382.918	617.6
383.299	605.8
383.701	620
384.104	617.4
384.507	594
384.909	609.6
385.312	593.2
385.715	600.4
386.118	615
386.521	598
386.924	615.8
387.327	599.6
387.709	600
388.112	594.4
388.515	608.8
388.918	601.6
389.322	616
389.725	604.8
390.129	625.4
390.532	614.4
390.936	598.2
391.339	609.4
391.743	608.4
392.125	600.8
392.529	617
392.933	617.8
393.337	602.4
393.74	615.4
394.144	607
394.548	609
394.953	599.4
395.357	611.6
395.761	598.6
396.144	615.4
396.548	603.8
396.952	611.2
397.357	610.2
397.761	598.4
398.166	607.6
398.57	605.8
398.975	600.6
399.379	615.6
399.763	663
400.168	608.4
400.572	607.4
400.977	604.4
401.382	624.2
401.787	617.6
402.192	622.4
402.597	622.8
403.002	601.6
403.386	620.4
403.791	626
404.197	602.4
404.602	608.8
405.007	609.8
405.413	599.6
405.818	609.6
406.224	602.6
406.608	606.6
407.014	596
407.42	617
407.825	601.2
408.231	613.4
408.637	607.4
409.043	619.6
409.449	601.8
409.834	596.6
410.24	606.4
410.646	617.8
411.052	620
411.458	611.8
411.865	611
412.271	612.6
412.677	605.8
413.062	609.8
413.469	602
413.875	630.2
414.282	630.2
414.689	610.2
415.095	619.2
415.502	610.2
415.888	601.8
416.294	596.2
416.701	646
417.108	596.8
417.515	612.2
417.923	609.6
418.33	625.2
418.715	617.2
419.123	606.6
419.53	609.4
419.937	612.8
420.345	621.4
420.752	605.4
421.16	624.2
421.546	608.2
421.953	621.2
422.361	603.4
422.769	609
423.177	608.6
423.585	637.2
423.992	629
424.379	627.6
424.787	622
425.195	631
425.603	613
426.011	622
426.419	619
426.806	618
427.214	615.4
427.623	614
428.031	627.6
428.44	608
428.848	623.2
429.235	631.6
429.644	618
430.053	608.6
430.461	628
430.87	640.6
431.279	619.6
431.666	607
432.075	626.6
432.484	625
432.893	629.6
433.302	638.2
433.711	657
434.099	635.4
434.508	628.2
434.918	622.4
435.327	641.2
435.737	631.6
436.125	633.2
436.534	644
436.944	652.8
437.353	642.2
437.763	670.8
438.173	649
438.561	676.2
438.971	643.6
439.381	663
439.791	670.6
440.201	661.2
440.589	671
440.999	690.6
441.409	689.6
441.819	685.6
442.23	707.4
442.619	705.4
443.029	707.4
443.439	717
443.85	714.6
444.26	726.2
444.649	718.8
445.06	716.4
445.471	712
445.881	729.6
446.292	746.2
446.682	758.8
447.092	718
447.503	787
447.914	744.4
448.325	743
448.715	744.4
449.126	736
449.537	741.4
449.948	757.8
450.338	747
450.75	756
451.161	763.6
451.572	761
451.984	744.6
452.374	749
452.786	765.8
453.197	768.2
453.609	774.8
453.999	765
454.411	756.6
454.823	787.2
455.235	784
455.647	769
456.037	773.4
456.449	755
456.862	774.4
457.274	782
457.665	769
458.077	778.6
458.489	807
458.902	778.6
459.293	774.8
459.705	785
460.118	766
460.53	786.2
460.921	782
461.334	790.6
461.747	774.4
462.16	808.8
462.551	797.6
462.964	791
463.377	784.6
463.79	788.2
464.182	790.2
464.595	786.2
465.008	797.4
465.421	792
465.813	784.2
466.226	793.6
466.64	794
467.053	837.6
467.445	804.6
467.859	811.6
468.272	796.6
468.686	816.8
469.078	796.4
469.492	783.8
469.906	809.2
470.298	806.8
470.712	786
471.126	852.4
471.54	802.6
471.933	791.6
472.347	792.4
472.761	801.4
473.175	791.4
473.568	792.2
473.982	789.4
474.397	801.8
474.79	800.2
475.204	803.2
475.619	802
476.033	807.8
476.426	805.8
476.841	788.4
477.256	813.6
477.649	793.2
478.064	790.4
478.479	789.2
478.872	787.8
479.287	779.8
479.702	790.4
480.118	784.2
480.511	790
480.927	790.8
481.342	787.2
481.736	799.2
482.151	781.8
482.566	790.8
482.96	798.6
483.376	798.4
483.792	795.6
484.186	798
484.602	789.8
485.017	777.8
485.412	780.6
485.827	793.2
486.243	779.4
486.638	807.2
487.054	788
487.47	802.8
487.865	783.8
488.281	784
488.697	775.6
489.092	778.6
489.508	770.8
489.925	785.2
490.32	763.8
490.736	774.4
491.153	777.8
491.548	762.4
491.964	776.8
492.381	763.4
492.776	781.8
493.193	765.6
493.61	766.6
494.006	763.2
494.422	781.2
494.84	759.8
495.235	773.2
495.652	773
496.069	761.8
496.465	750
496.883	756.2
497.3	784
497.696	754.6
498.113	758.4
498.509	736.8
498.927	742.2
499.344	741.4
499.741	746.4
500.158	748
500.576	756.4
500.973	746.6
501.39	743
501.787	737.2
502.205	741.8
502.623	743.4
503.02	728.6
503.438	731.6
503.856	738.4
504.253	752
504.671	739.2
505.068	730.2
505.486	734
505.905	742.4
506.302	736.6
506.72	735.6
507.118	721.4
507.536	727.8
507.955	731.8
508.352	730.6
508.771	721
509.169	731.6
509.587	721
510.006	727.2
510.404	702.6
510.823	713.8
511.221	716.8
511.64	714
512.038	721.8
512.457	717
512.877	707.6
513.275	707.8
513.694	707
514.092	714.4
514.512	704.8
514.91	712.4
515.33	704.8
515.749	711
516.148	705.6
516.568	703
516.966	706.4
517.386	694.8
517.785	703.6
518.205	702.6
518.603	696
519.024	691.2
519.444	696.6
519.843	695.2
520.263	703.2
520.662	702
521.082	689.2
521.481	695.6
521.902	694
522.301	692.8
522.722	682.8
523.121	694.4
523.542	687.2
523.963	683
524.362	687.8
524.783	690.6
525.183	680.4
525.604	682.4
526.003	672.4
526.425	681
526.824	670.8
527.246	688
527.646	690
528.067	685.4
528.467	674.8
528.888	679.6
529.289	670.4
529.71	671.8
530.11	669.8
530.532	668.4
530.932	667.4
531.354	661.4
531.755	703.2
532.176	675.2
532.577	679.6
532.999	675.2
533.4	667.2
533.822	678
534.223	674.6
534.645	663
535.046	661.8
535.468	670.6
535.869	681
536.292	661.8
536.693	699.2
537.115	670
537.516	660.2
537.939	666.8
538.34	681.8
538.742	661.2
539.165	661
539.566	656.4
539.989	653.8
540.391	652.4
540.814	652.8
541.216	655.2
541.639	654
542.041	660.4
542.464	648.2
542.866	651.2
543.268	650
543.691	661.8
544.093	658.6
544.517	669.2
544.919	641.8
545.343	669
545.745	643
546.147	643.6
546.571	637.6
546.974	639.6
547.398	642.2
547.8	662.8
548.224	640
548.627	638
549.03	654.6
549.454	633
549.857	635
550.281	636.4
550.684	643.6
551.087	651
551.512	644.4
551.915	647.4
552.34	635.4
552.743	642
553.146	640.8
553.571	632.8
553.975	661.4
554.399	633.8
554.803	689.6
555.207	628.8
555.632	638
556.036	635.6
556.461	637
556.865	635.4
557.268	626
557.694	628.8
558.098	646.8
558.502	640.4
558.927	628.6
559.332	642.4
559.736	635.4
560.162	629.6
560.566	632.2
560.992	643
561.396	629.6
561.801	621.8
562.227	639.2
562.631	625.4
563.036	628.8
563.462	631.4
563.867	635.2
564.272	614.8
564.698	637.2
565.103	615.4
565.508	648.8
565.935	626.2
566.34	624.4
566.745	643.2
567.172	619.4
567.577	651.4
567.982	632
568.409	628
568.815	627
569.22	619.8
569.626	623
570.053	609.8
570.459	622.6
570.865	619.6
571.292	624.6
571.698	625.4
572.104	608.2
572.531	618.8
572.937	629.4
573.343	617.8
573.75	613.2
574.177	626.8
574.583	630.2
574.99	620.4
575.396	630.2
575.824	610.2
576.231	632.8
576.637	605.6
577.065	643
577.472	613.8
577.879	626.2
578.286	632.2
578.714	607
579.121	618.6
579.528	616.2
579.935	620.6
580.364	620.4
580.771	601.4
581.178	605.6
581.585	616.8
582.014	626.2
582.421	606.2
582.829	601.8
583.236	624.8
583.644	605.8
584.073	616.8
584.481	605.4
584.889	605.4
585.296	612.6
585.726	613.8
586.134	602.2
586.542	612.2
586.95	632
587.358	601.4
587.787	618
588.196	626.6
588.604	607.4
589.012	610.2
589.421	606.2
589.851	605
590.259	608.8
590.668	603.6
591.076	648.6
591.485	604
591.894	599.4
592.324	620
592.733	618
593.142	598
593.551	599.8
593.96	636
594.369	598.2
594.8	593
595.209	604.6
595.618	589
596.028	597
596.437	593
596.847	608.6
597.256	605.8
597.687	612.4
598.097	608.2
598.507	593.2
598.917	607.6
599.327	604.2
599.736	598.6
600.146	607.6
600.556	602.2
600.988	611.6
601.398	602.2
601.808	614.6
602.219	581.2
602.629	598
603.039	602.2
603.45	626.6
603.86	599
604.271	612.4
604.703	615.4
605.114	606
605.525	605.2
605.935	606.4
606.346	624.8
606.757	606.6
607.168	607.4
607.579	597.8
607.99	607.6
608.402	594.4
608.813	609.6
609.224	609.6
609.636	583.2
610.047	589.6
610.48	604
610.892	606.8
611.303	610
611.715	600.2
612.127	592.2
612.539	592.6
612.95	599.2
613.362	590.8
613.774	587.8
614.186	590.4
614.599	597.8
615.011	609.6
615.423	598.6
615.835	591.2
616.248	593.4
616.66	608.4
617.073	595.6
617.485	606
617.898	607.4
618.311	606
618.723	595.8
619.136	623.6
619.549	617.2
619.962	624.8
620.375	603.6
620.788	597.4
621.201	596
621.614	608.4
622.028	602.4
622.441	607
622.854	609.6
623.268	582.8
623.681	598.2
624.095	607.8
624.509	604.8
624.922	607.2
625.336	588.2
625.728	600.8
626.142	615.4
626.556	614.4
626.97	608.6
627.384	593
627.799	596.8
628.213	605.6
628.627	599.2
629.041	596.6
629.456	593.8
629.87	603.2
630.285	608.4
630.699	611.2
631.093	604.2
631.507	603.2
631.922	607.8
632.337	612.2
632.752	584.2
633.167	609.6
633.582	596.8
633.997	591.8
634.412	599.2
634.806	593.2
635.221	589.4
635.637	615
636.052	588.4
636.468	600.8
636.883	613.8
637.299	595
637.715	586.2
638.109	596.8
638.525	584.8
638.941	610.6
639.357	588
639.773	603.4
640.189	590.6
640.584	590
641	590
641.416	591
641.832	589.6
642.249	592
642.665	609.4
643.06	607.6
643.477	603
643.894	573.8
644.31	591.4
644.727	600.2
645.123	588.4
645.54	587.8
645.957	596.2
646.374	608.8
646.77	597.4
647.187	626.2
647.604	587
648.021	583.2
648.439	589.8
648.835	592.8
649.252	603.8
649.67	590
650.088	598.8
650.484	591.8
650.902	598.2
651.32	601.4
651.738	585.8
652.134	601.8
652.552	603
652.971	596
653.389	587.6
653.786	595.4
654.204	611.6
654.622	583
655.019	589.4
655.438	590
655.857	587
656.275	597.2
656.673	584
657.091	592.8
657.51	587.2
657.908	604.6
658.327	605.4
658.746	583
659.144	591.4
659.563	606
659.982	602.2
660.38	580.4
660.8	585.2
661.219	599
661.617	600.8
662.037	592.8
662.457	598.8
662.855	578
663.275	621.6
663.695	602
664.094	596
664.514	602.2
664.934	594.4
665.333	605.6
665.753	586.6
666.152	581.2
666.572	591.4
666.993	599.4
667.392	597
667.812	588
668.212	594.4
668.632	598.4
669.053	594
669.453	595.6
669.874	596.2
670.273	598.2
670.694	583
671.116	607.8
671.515	606.6
671.937	593
672.337	597.2
672.758	586.6
673.158	595.6
673.58	584.4
673.98	598.6
674.402	600.6
674.824	594.8
675.224	587.6
675.646	587
676.047	584.2
676.469	589.4
676.869	596.2
677.292	600.8
677.693	588
678.115	588.2
678.516	599.4
678.939	590.6
679.34	596
679.762	596.6
680.164	594.6
680.586	587.6
680.988	600.4
681.411	614.8
681.812	586.4
682.236	579.4
682.637	586.8
683.061	582.4
683.462	595.2
683.864	595.2
684.288	594.8
684.69	585.2
685.114	605.6
685.516	597
685.94	578.4
686.342	600
686.766	580
687.168	583.4
687.571	605.4
687.995	583
688.398	586.8
688.822	584.2
689.225	599
689.628	605
690.052	582.8
690.456	601.8
690.88	580.6
691.284	583.6
691.687	598.2
692.112	576.6
692.515	583.4
692.919	588.8
693.344	588.2
693.747	587.8
694.173	584.4
694.577	598.6
694.98	586.4
695.406	586.6
695.81	594.2
696.214	590.2
696.64	599.4
697.044	588.8
697.448	600.2
697.874	590.2
698.279	583.8
698.684	578.6
699.11	586.6
699.514	589
699.919	582.4
700.324	581.2
700.75	586.4
701.156	589.4
701.561	599
701.987	594
702.393	606.8
702.798	609.2
703.203	587.4
703.63	588
704.036	593.6
704.442	588.4
704.847	580.8
705.274	583
705.68	599.8
706.086	594.2
706.492	580.8
706.92	582.6
707.326	591.6
707.732	581.2
708.139	589.2
708.545	578.4
708.973	572.6
709.38	591.6
709.786	575.2
710.193	602
710.6	591
711.028	574.6
711.435	583.2
711.842	588.4
712.249	584.4
712.656	581.6
713.064	596
713.492	582.8
713.9	592.4
714.307	596
714.715	582.2
715.123	595.2
715.53	602.4
715.938	594.2
716.367	594
716.775	588.4
717.184	578
717.592	585
718	597.2
718.408	617.4
718.816	630.6
719.225	592.6
719.633	583.2
720.042	577.6
720.472	581.4
720.881	593.8
721.29	588.2
721.699	578.8
722.108	588.2
722.517	591
722.926	581
723.335	591.4
723.744	582.8
724.154	587.4
724.563	587.2
724.973	587.6
725.382	590.4
725.792	591.2
726.202	583.8
726.612	606
727.022	584.4
727.432	583
779.813	588
780.223	633.4
780.634	586.6
781.044	580.2
781.454	579.2
781.865	597.2
782.276	576.4
782.686	590.4
783.097	583.2
783.508	582.6
783.919	592.6
784.33	595.6
784.741	601.2
785.152	577.6
785.563	577
785.974	581
786.386	598.6
786.776	589.2
787.188	574.4
787.599	573.2
788.011	588.8
788.423	588.6
788.835	578.2
789.247	575.2
789.659	577.6
790.071	579.8
790.483	620.6
790.874	585.8
791.286	596
791.699	592.2
792.111	582
792.524	591.2
792.937	586.2
793.349	580.6
793.741	578.4
794.154	575.4
794.567	606.6
794.98	586.6
795.393	573.8
795.785	605.2
796.198	584.6
796.612	582.6
797.026	581.4
797.439	572.2
797.831	585.6
798.245	580.2
798.659	576.6
799.073	586.6
799.487	587.6
799.88	585.8
800.294	581.4
800.708	585
801.123	585.2
801.516	598.6
801.93	572.2
802.345	570
802.76	587.8
803.153	591.2
803.568	591.4
803.983	586.8
804.377	581.4
804.792	573.4
805.207	564.2
805.601	584.4
806.016	618.4
806.432	574
806.826	621.2
807.242	601.6
807.658	596
808.052	578.4
808.468	577.6
808.884	579
809.279	584.4
809.695	594.6
810.111	608.4
810.506	589.8
810.922	598.4
811.339	572.8
811.734	583
812.151	580
812.546	578.2
812.963	575.6
813.38	593.8
813.776	590
814.193	606.6
814.589	574.8
815.006	581.8
815.402	581.6
815.82	576.8
816.237	577.6
816.633	592.2
817.051	574.8
817.448	587.6
817.866	579.2
818.262	602
818.68	588.6
819.077	579
819.495	589.6
819.892	629.4
820.311	580.8
820.708	581.4
821.127	578.2
821.524	593.4
821.943	587.6
822.34	600.8
822.759	589.8
823.157	576.8
823.576	598.4
823.974	586.4
824.393	610.4
824.791	576.2
825.189	578.6
825.609	581.2
826.007	589.4
826.427	577.6
826.826	578.2
827.246	593.2
827.644	567.6
828.043	595.2
828.463	583.2
828.862	595.4
829.261	586.8
829.682	566.8
830.081	593.8
830.502	582.8
830.901	581.8
831.301	592.4
831.722	568.2
832.121	583.2
832.521	578.6
832.943	583.6
833.342	576
833.742	579
834.164	579.4
834.564	573.4
834.965	580.8
835.386	576
835.787	577.6
836.188	580.6
836.588	580.2
837.01	581.8
837.411	572.2
837.812	588.2
838.213	580.4
838.636	577.6
839.037	649
839.438	578
839.84	573.6
840.263	596
840.664	589.6
841.066	581.2
841.468	583
841.891	578.2
842.293	592
842.695	577.2
843.098	595.4
843.5	573.8
843.902	585.8
844.326	587
844.729	586
845.131	593.6
845.534	581.8
845.937	599
846.34	601.8
846.764	571.6
847.167	580.8
847.571	578.4
847.974	588.8
848.377	583.2
848.781	635
849.184	596.6
849.588	577.6
849.992	579.6
850.396	588.2
850.821	599.6
851.225	588.2
851.63	589.4
852.034	597.4
852.438	584.6
852.843	661.4
853.247	577.2
853.652	582
854.057	597.2
854.462	583.2
854.867	598
855.272	616.6
855.677	590.4
856.082	567.8
856.487	576.6
856.893	584.8
857.298	574
857.704	573.2
