#lambda/nm	C1
208.295	510.8
208.67	466.8
209.045	427.2
209.419	427.4
209.794	610.4
210.169	606
210.544	720.4
210.919	621.4
211.295	606.4
211.67	616.4
212.045	611.2
212.421	611
212.796	642
213.172	612.4
213.547	615.4
213.923	614.8
214.299	611.4
214.675	618.6
215.051	617.8
215.427	630.8
215.803	636.6
216.179	610
216.555	605.8
216.932	620.2
217.308	617
217.684	613
218.061	619.2
218.438	614.6
218.814	610.4
219.191	620.4
219.568	606.4
219.945	613.4
220.322	623.6
220.699	622.2
221.076	619.8
221.453	618
221.83	609.2
222.208	612.2
222.585	615.8
222.962	616.2
223.34	617
223.717	620.6
224.095	605.2
224.473	620
224.851	608
225.229	602.6
225.607	634.2
225.985	612
226.363	615.6
226.741	614.6
227.119	613.8
227.497	628
227.876	603.2
228.254	626.2
228.633	620.6
229.011	618.6
229.39	622.8
229.769	625.8
230.148	621.8
230.527	641.4
230.905	617.2
231.284	621.2
231.664	618.2
232.043	632.4
232.422	622.8
232.801	613.6
233.181	620.6
233.56	615.4
233.94	621.6
234.319	601
234.699	610.6
235.079	654.4
235.458	654.8
235.838	632
236.218	602
236.598	594.6
236.978	607.4
237.358	604.8
237.738	608.6
238.119	619
238.499	603.4
238.88	614.2
239.26	625.4
239.641	603
240.021	609.2
240.402	613.2
240.783	609.8
241.163	613.8
241.544	628.2
241.925	613.8
242.306	625.4
242.687	616.2
243.069	610
243.45	627.8
243.831	616
244.212	607.8
244.594	655.6
244.975	618.2
245.357	622.6
245.739	603.2
246.12	624.4
246.502	629.6
246.884	618.2
247.266	619.2
247.648	620
248.03	633.8
248.412	619.6
248.794	628
249.176	620.4
249.559	618.2
249.941	613
250.323	617
250.706	611.6
251.089	611.2
251.471	618.2
251.854	625.6
252.237	615.4
252.62	625
253.002	607.6
253.385	623
253.769	633.6
254.152	618
254.535	628.2
254.918	605
255.301	614
255.685	614.2
256.068	606.8
256.452	641
256.835	631
257.219	619
257.603	627.4
257.986	609.2
258.37	619
258.754	600.8
259.138	625.8
259.522	623.4
259.906	609.2
260.29	628.2
260.675	617.8
261.059	609
261.443	606.6
261.828	622.4
262.212	624.8
262.597	613.6
262.981	611.2
263.366	619.6
263.751	625.2
264.136	602.2
264.521	608.2
264.906	611.4
265.291	622.4
265.676	622.2
266.061	619.8
266.446	635.8
266.831	623.4
267.217	636.4
267.602	620.8
267.987	615.6
268.373	606
268.759	616.4
269.144	621.4
269.53	615.6
269.916	607.4
270.302	612
270.688	619.6
271.074	618.4
271.46	629.4
271.846	650.2
272.232	611
272.618	608.6
273.004	614.2
273.391	630.6
273.777	637
274.164	609.4
274.55	619.2
274.937	616.2
275.324	615.8
275.71	614.2
276.097	619.8
276.484	608.6
276.871	622.8
277.258	618
277.645	612
278.032	623.6
278.419	609.4
278.807	621.4
279.194	608.8
279.581	610.4
279.969	617.6
280.356	615.4
280.744	615
281.131	645
281.519	629.4
281.907	616.4
282.295	605.6
282.682	628.6
283.07	616.4
283.458	630.6
283.846	631.2
284.235	628.2
284.623	620.6
285.011	608.8
285.399	624.2
285.788	616.6
286.176	608.6
286.565	621.4
286.953	609.4
287.342	616
287.731	603.8
288.119	600
288.508	613.4
288.897	612.6
289.286	599
289.675	618.8
290.064	628.4
290.453	619
290.821	619.8
291.21	636
291.599	616
291.989	619.6
292.378	626.6
292.768	642.8
293.157	626.4
293.547	631.2
293.936	616.8
294.326	612.4
294.716	619.4
295.106	621.8
295.496	621.4
295.886	624.8
296.276	619.2
296.666	608
297.056	613
297.446	607.6
297.836	630.2
298.227	615.8
298.617	618.4
299.008	625.8
299.398	614.4
299.789	610.6
300.179	621
300.57	627.6
300.961	610
301.352	612.8
301.742	620.6
302.133	608.2
302.524	620
302.915	612.8
303.307	604
303.698	628.2
304.089	622.8
304.48	625.6
304.872	618.4
305.263	612.6
305.655	612.2
306.046	626.6
306.438	618.6
306.829	618.4
307.221	633.4
307.613	621.2
308.005	626.8
308.397	632
308.789	643
309.181	650.8
309.573	628.8
309.965	631.2
310.357	609
310.749	631.8
311.142	614.8
311.534	613.4
311.926	625
312.319	625.4
312.711	612.6
313.104	627.2
313.497	617.2
313.889	653.4
314.282	636.6
314.675	643.4
315.068	623.8
315.461	620.2
315.854	647.8
316.247	624.4
316.64	615.2
317.033	619.6
317.405	629.6
317.798	623.8
318.192	619.8
318.585	612.4
318.979	616.6
319.372	605.8
319.766	616.8
320.16	625
320.553	631
320.947	639.2
321.341	616.4
321.735	619.4
322.129	610.8
322.523	647.2
322.917	603.4
323.311	629.4
323.705	616.8
324.099	620.6
324.494	641.2
324.888	629.4
325.282	617.8
325.677	629
326.071	629.8
326.466	624.6
326.861	619.2
327.255	634.4
327.65	631.8
328.045	634.8
328.44	621
328.835	621.8
329.23	617.6
329.625	641.2
330.02	610.6
330.415	639.4
330.81	627
331.206	622.6
331.601	617.8
331.996	625
332.37	640.2
332.766	608.2
333.161	642.4
333.557	615.6
333.953	618.8
334.348	992.8
334.744	623.8
335.14	612.8
335.536	606.4
335.932	624.8
336.328	612.8
336.724	623.2
337.12	605
337.516	620.2
337.913	612.2
338.309	627.8
338.705	601
339.102	622.8
339.498	612.4
339.895	622.2
340.291	612.6
340.688	618.6
341.085	607.2
341.481	614.4
341.878	614.4
342.275	641
342.672	610
343.069	618.2
343.466	609.8
343.842	616.4
344.239	615.4
344.636	616
345.033	610.8
345.431	611.2
345.828	621.6
346.225	610.4
346.623	643.4
347.02	614.4
347.418	617.2
347.816	627.6
348.213	610.2
348.611	624.2
349.009	613.8
349.407	624.6
349.805	606
350.203	616
350.601	619.4
350.999	615
351.397	666.8
351.795	616.8
352.193	628.2
352.57	617.8
352.969	623
353.367	616.6
353.766	606.8
354.164	606.2
354.563	619.6
354.961	613
355.36	606.6
355.759	621.6
356.158	611.6
356.557	614.2
356.956	611
357.355	607.2
357.754	621.4
358.153	617
358.552	638.2
358.951	610.6
359.35	617.4
359.75	605
360.149	605.8
360.527	603.8
360.926	604.2
361.326	609.8
361.726	613.4
362.125	606.8
362.525	610.2
362.925	607.8
363.325	611.4
363.724	616.8
364.124	608.4
364.524	607.8
364.924	611.4
365.324	622.8
365.725	604.6
366.125	615
366.525	615.2
366.904	599.2
367.304	593.6
367.705	631.6
368.105	612.8
368.506	607.6
368.906	603.2
369.307	609.6
369.708	618.8
370.108	588.6
370.509	611.8
370.91	602.8
371.311	614.6
371.712	616.4
372.113	606
372.514	594.8
372.894	613.8
373.295	606.8
373.696	622.8
374.097	622
374.499	632.4
374.9	612.6
375.301	609
375.703	612.2
376.105	604.8
376.506	608
376.908	615.8
377.309	609.6
377.711	615.2
378.113	594.2
378.493	617
378.895	603.4
379.297	617.4
379.699	592.2
380.102	614.2
380.504	614.8
380.906	603
381.308	631.8
381.71	606.4
382.113	611.8
382.515	609.6
382.918	620.6
383.299	607.4
383.701	614.4
384.104	606.2
384.507	587.6
384.909	611.6
385.312	595.2
385.715	594.2
386.118	607.4
386.521	599.4
386.924	614.4
387.327	611
387.709	600.6
388.112	596
388.515	612.6
388.918	609.8
389.322	615.6
389.725	597.6
390.129	627.8
390.532	613.4
390.936	602.2
391.339	610
391.743	613.6
392.125	605.2
392.529	622.4
392.933	629.2
393.337	610
393.74	608.8
394.144	612.4
394.548	603
394.953	613.2
395.357	614.6
395.761	606.2
396.144	607.2
396.548	605.8
396.952	611
397.357	600.8
397.761	604.2
398.166	603.6
398.57	604.2
398.975	603
399.379	610.2
399.763	656.8
400.168	612.6
400.572	609.6
400.977	598.6
401.382	627.4
401.787	614.8
402.192	619.6
402.597	627.2
403.002	598.4
403.386	624.6
403.791	616.6
404.197	601.2
404.602	612.6
405.007	607
405.413	605.4
405.818	611.8
406.224	597.6
406.608	613.2
407.014	599
407.42	628.2
407.825	599.8
408.231	617.6
408.637	605.4
409.043	626.2
409.449	604.4
409.834	596.8
410.24	604.6
410.646	625.6
411.052	615.8
411.458	612
411.865	614.2
412.271	612
412.677	604.8
413.062	614.4
413.469	605.6
413.875	627
414.282	617.6
414.689	604.6
415.095	624.6
415.502	601
415.888	615.6
416.294	590.8
416.701	650
417.108	604.2
417.515	615.6
417.923	610.4
418.33	629.8
418.715	616.4
419.123	609.8
419.53	604.2
419.937	614.8
420.345	626.4
420.752	606.4
421.16	634.2
421.546	611.2
421.953	616.8
422.361	597
422.769	610.6
423.177	608.8
423.585	631.6
423.992	631.6
424.379	625.6
424.787	631.2
425.195	623
425.603	616
426.011	624.6
426.419	623.8
426.806	613.2
427.214	613.8
427.623	617.4
428.031	624.4
428.44	616.8
428.848	624.2
429.235	627
429.644	615.4
430.053	604.2
430.461	626.8
430.87	631
431.279	623
431.666	606.8
432.075	610.4
432.484	609
432.893	609.8
433.302	637.6
433.711	647.6
434.099	616
434.508	608.2
434.918	601.2
435.327	621.2
435.737	615.6
436.125	622.6
436.534	621
436.944	630.8
437.353	629
437.763	649.8
438.173	620.4
438.561	635.2
438.971	620.8
439.381	639.8
439.791	634.2
440.201	620.4
440.589	641.6
440.999	660
441.409	644.2
441.819	641.2
442.23	663.6
442.619	668.8
443.029	662.8
443.439	670.2
443.85	672.2
444.26	686.8
444.649	676.8
445.06	676
445.471	666.8
445.881	685.4
446.292	687.8
446.682	705.2
447.092	679.6
447.503	734.2
447.914	698
448.325	696
448.715	702
449.126	696.2
449.537	704.6
449.948	702.8
450.338	707.2
450.75	710
451.161	702.2
451.572	721.8
451.984	697.8
452.374	691.6
452.786	710.6
453.197	718.8
453.609	718.6
453.999	702.4
454.411	709
454.823	725.8
455.235	715.6
455.647	708.6
456.037	722.4
456.449	704.8
456.862	713
457.274	715.8
457.665	710
458.077	726
458.489	746.4
458.902	721.8
459.293	728
459.705	720.8
460.118	720.6
460.53	722.6
460.921	730
461.334	736
461.747	731.8
462.16	739.8
462.551	743.4
462.964	730.6
463.377	720.2
463.79	722.8
464.182	750.4
464.595	727.2
465.008	746.4
465.421	745
465.813	730.6
466.226	741.4
466.64	738.8
467.053	794
467.445	749
467.859	747.8
468.272	736.8
468.686	748.6
469.078	745.2
469.492	737
469.906	752.4
470.298	761.8
470.712	740.4
471.126	798.8
471.54	738
471.933	741.8
472.347	749.4
472.761	748.2
473.175	746.2
473.568	746.8
473.982	736
474.397	749.6
474.79	753.2
475.204	750.2
475.619	745.6
476.033	748
476.426	751.8
476.841	738.4
477.256	770.6
477.649	741
478.064	754
478.479	741.2
478.872	737.4
479.287	729.6
479.702	745.2
480.118	750.8
480.511	750.4
480.927	747.4
481.342	737.2
481.736	755.8
482.151	744.6
482.566	756.4
482.96	737
483.376	747.8
483.792	741.6
484.186	750.8
484.602	738
485.017	746
485.412	745.4
485.827	743
486.243	746.4
486.638	769.4
487.054	761.6
487.47	753.2
487.865	742.2
488.281	735.4
488.697	733.6
489.092	736.6
489.508	723.6
489.925	757
490.32	732.8
490.736	751.6
491.153	740
491.548	738.2
491.964	740.6
492.381	722.8
492.776	737.8
493.193	727.2
493.61	742
494.006	733.8
494.422	742.8
494.84	717.8
495.235	734
495.652	733.8
496.069	725.8
496.465	724.8
496.883	721.2
497.3	755.2
497.696	725.6
498.113	732
498.509	708.4
498.927	721.2
499.344	718
499.741	709.2
500.158	731.2
500.576	730.2
500.973	722.2
501.39	711.2
501.787	715.8
502.205	715.4
502.623	714.8
503.02	701.2
503.438	715.2
503.856	717.6
504.253	718.8
504.671	716.6
505.068	699.2
505.486	706.4
505.905	723
506.302	701.4
506.72	713.6
507.118	684.8
507.536	700
507.955	685.6
508.352	702
508.771	697.2
509.169	707
509.587	691.4
510.006	694
510.404	684.6
510.823	694.2
511.221	688
511.64	686.8
512.038	707.4
512.457	696.8
512.877	682
513.275	693
513.694	689.4
514.092	687.4
514.512	688.4
514.91	700.2
515.33	686.8
515.749	684.4
516.148	692.6
516.568	689.2
516.966	686.8
517.386	681.4
517.785	683.4
518.205	675.8
518.603	673.4
519.024	683.2
519.444	677.6
519.843	696.8
520.263	688.6
520.662	682.2
521.082	677.6
521.481	669.8
521.902	669.8
522.301	671.4
522.722	676.4
523.121	672.2
523.542	670.2
523.963	666.8
524.362	679.8
524.783	671
525.183	658.4
525.604	671.2
526.003	660.4
526.425	658
526.824	671.2
527.246	674.2
527.646	673.2
528.067	672.4
528.467	668.6
528.888	662.8
529.289	660.4
529.71	669.2
530.11	660
530.532	644.6
530.932	654.6
531.354	648.8
531.755	677.2
532.176	656.2
532.577	651.8
532.999	649.6
533.4	653.2
533.822	660.6
534.223	661
534.645	642.6
535.046	645.2
535.468	642.2
535.869	659
536.292	644.8
536.693	685
537.115	658
537.516	648.4
537.939	647.8
538.34	664
538.742	658.4
539.165	649.6
539.566	643.2
539.989	635
540.391	643.8
540.814	648.4
541.216	640.8
541.639	644
542.041	646.4
542.464	643.2
542.866	644.8
543.268	632.2
543.691	663
544.093	650.8
544.517	669.6
544.919	633.8
545.343	663.6
545.745	627.8
546.147	642.4
546.571	639.4
546.974	635
547.398	632
547.8	644.8
548.224	642.2
548.627	625.8
549.03	641.2
549.454	631.6
549.857	632.4
550.281	626.8
550.684	629
551.087	646
551.512	635.4
551.915	636.2
552.34	635.4
552.743	642.6
553.146	639.6
553.571	629.2
553.975	650.2
554.399	619
554.803	683.2
555.207	628
555.632	625.6
556.036	629.6
556.461	623.4
556.865	632
557.268	623.8
557.694	621.2
558.098	634.8
558.502	633.8
558.927	614.2
559.332	633.2
559.736	627.2
560.162	627
560.566	620.8
560.992	629
561.396	617.8
561.801	615
562.227	626.4
562.631	631
563.036	622.4
563.462	627
563.867	616.4
564.272	612.4
564.698	634.2
565.103	604.8
565.508	633.6
565.935	623.8
566.34	617.2
566.745	635
567.172	625.8
567.577	637
567.982	632.4
568.409	623.2
568.815	609
569.22	620.2
569.626	625.2
570.053	614.2
570.459	621.6
570.865	617.2
571.292	621.8
571.698	621.6
572.104	602
572.531	611.8
572.937	623.8
573.343	611.8
573.75	618.4
574.177	620
574.583	617
574.99	613.6
575.396	625.2
575.824	616.8
576.231	621
576.637	610
577.065	635.4
577.472	614.4
577.879	619
578.286	627.2
578.714	608.4
579.121	615.2
579.528	613.8
579.935	625.8
580.364	603.2
580.771	605.4
581.178	600.4
581.585	612.2
582.014	622.2
582.421	612.2
582.829	616.2
583.236	621.4
583.644	608.6
584.073	611.4
584.481	613
584.889	605.8
585.296	610.8
585.726	608.2
586.134	605.4
586.542	609.2
586.95	629.8
587.358	601.6
587.787	608.4
588.196	622.8
588.604	608.2
589.012	613.4
589.421	593.4
589.851	595.2
590.259	616.6
590.668	611.8
591.076	643.6
591.485	598
591.894	607.4
592.324	618.6
592.733	622
593.142	591.4
593.551	600.8
593.96	642
594.369	593.8
594.8	596.2
595.209	603.4
595.618	590.2
596.028	599.4
596.437	591.2
596.847	602.2
597.256	606
597.687	606
598.097	600.2
598.507	592.2
598.917	604.8
599.327	610
599.736	607.6
600.146	605.4
600.556	600.6
600.988	610.4
601.398	596.4
601.808	611.2
602.219	581.2
602.629	601.6
603.039	603
603.45	624
603.86	600.4
604.271	609.6
604.703	600.2
605.114	599.4
605.525	605.4
605.935	600.2
606.346	617.8
606.757	605.8
607.168	595.2
607.579	592.4
607.99	616.4
608.402	599.4
608.813	607.6
609.224	600
609.636	598.4
610.047	590.4
610.48	593.4
610.892	611.6
611.303	607.6
611.715	588.6
612.127	584.6
612.539	598.4
612.95	592.4
613.362	588.8
613.774	584.6
614.186	590
614.599	594
615.011	606.6
615.423	597.4
615.835	593.6
616.248	588.6
616.66	602.8
617.073	591.8
617.485	589
617.898	594
618.311	597
618.723	594.4
619.136	624.6
619.549	611.4
619.962	620.6
620.375	593
620.788	606.8
621.201	592.2
621.614	598
622.028	589.4
622.441	603.8
622.854	608.8
623.268	589.6
623.681	600.4
624.095	592
624.509	603
624.922	608.2
625.336	590.6
625.728	593.2
626.142	614.2
626.556	621.2
626.97	602
627.384	587.6
627.799	602.8
628.213	603.2
628.627	594.8
629.041	590
629.456	596.2
629.87	597.4
630.285	603.8
630.699	598.4
631.093	603.8
631.507	599
631.922	601.6
632.337	607.8
632.752	592.6
633.167	588
633.582	587.6
633.997	588.4
634.412	590.4
634.806	597.4
635.221	585
635.637	601
636.052	590
636.468	598.8
636.883	614
637.299	590.6
637.715	583.2
638.109	597.4
638.525	583.8
638.941	607.4
639.357	599.6
639.773	610.6
640.189	583.8
640.584	602.6
641	597
641.416	590.2
641.832	594
642.249	584.4
642.665	597.6
643.06	599.8
643.477	601.8
643.894	582
644.31	591
644.727	588.8
645.123	600.6
645.54	583.4
645.957	596.6
646.374	608.8
646.77	581.4
647.187	620.8
647.604	593
648.021	583.4
648.439	594.2
648.835	598.2
649.252	589.8
649.67	598.6
650.088	593
650.484	589.4
650.902	600.2
651.32	604.4
651.738	593.6
652.134	596.2
652.552	610
652.971	594.6
653.389	594.4
653.786	601.2
654.204	621.8
654.622	588
655.019	591.6
655.438	600.6
655.857	596.6
656.275	598.2
656.673	586.4
657.091	597
657.51	590.6
657.908	603
658.327	604.4
658.746	584.4
659.144	594.6
659.563	608.6
659.982	594
660.38	579.8
660.8	593
661.219	601.8
661.617	589.6
662.037	582.8
662.457	604.2
662.855	572.8
663.275	624.2
663.695	594.6
664.094	583.8
664.514	592
664.934	591
665.333	596.2
665.753	587.8
666.152	577.6
666.572	588.6
666.993	597.2
667.392	593.6
667.812	598.2
668.212	591.8
668.632	604.4
669.053	591.4
669.453	596.6
669.874	595
670.273	595.2
670.694	584.8
671.116	600
671.515	602.2
671.937	587.6
672.337	587.8
672.758	580.8
673.158	604.2
673.58	581.4
673.98	589.4
674.402	604.6
674.824	586.4
675.224	590.4
675.646	579.8
676.047	589.2
676.469	596
676.869	595.2
677.292	595.2
677.693	583.8
678.115	587.6
678.516	591.2
678.939	596.2
679.34	592.6
679.762	597
680.164	597
680.586	589.8
680.988	593.4
681.411	618.8
681.812	587.8
682.236	589.6
682.637	582.8
683.061	582.4
683.462	589.8
683.864	585.6
684.288	600.2
684.69	581.4
685.114	602.6
685.516	591.4
685.94	580
686.342	596
686.766	577.4
687.168	588.4
687.571	605.2
687.995	586.6
688.398	583.6
688.822	585.6
689.225	604.4
689.628	611.4
690.052	585
690.456	595.6
690.88	595.4
691.284	578.2
691.687	595.6
692.112	581.8
692.515	583.2
692.919	583.2
693.344	599
693.747	582.6
694.173	590.2
694.577	604.4
694.98	597.4
695.406	582.4
695.81	590.2
696.214	599.4
696.64	592.6
697.044	587.4
697.448	596
697.874	589.2
698.279	588.6
698.684	582
699.11	579.2
699.514	582
699.919	585.4
700.324	575.8
700.75	584.2
701.156	587.2
701.561	600.2
701.987	591
702.393	598.4
702.798	593
703.203	591.2
703.63	576.6
704.036	586
704.442	588.6
704.847	578.2
705.274	581
705.68	594.6
706.086	599.2
706.492	583
706.92	588.4
707.326	587.2
707.732	591.2
708.139	583.4
708.545	567.4
708.973	583
709.38	582
709.786	580.8
710.193	606.2
710.6	583
711.028	577
711.435	584.4
711.842	591.2
712.249	587.2
712.656	591
713.064	588.8
713.492	580.2
713.9	580.6
714.307	590.4
714.715	594.6
715.123	593.2
715.53	590.6
715.938	594
716.367	590.4
716.775	584.4
717.184	573.8
717.592	578.4
718	598.6
718.408	613.6
718.816	629
719.225	594.2
719.633	591.6
720.042	581.2
720.472	582.8
720.881	608.8
721.29	592.8
721.699	569.8
722.108	590
722.517	594.4
722.926	582
723.335	597.6
723.744	586.6
724.154	580.4
724.563	589.2
724.973	592.2
725.382	584.6
725.792	585.2
726.202	567.6
726.612	598.6
727.022	588
727.432	574.2
779.813	581.8
780.223	628.8
780.634	583.8
781.044	576
781.454	588.6
781.865	593.6
782.276	582.2
782.686	596.4
783.097	581.2
783.508	585.4
783.919	588.2
784.33	601
784.741	590
785.152	587.8
785.563	566.8
785.974	591
786.386	585.4
786.776	581.2
787.188	579.2
787.599	576.2
788.011	596.2
788.423	589.8
788.835	586.4
789.247	578
789.659	581.2
790.071	581
790.483	627
790.874	583.4
791.286	585.8
791.699	576.4
792.111	586.6
792.524	585.4
792.937	579.8
793.349	580.6
793.741	576.6
794.154	588
794.567	602.8
794.98	585.4
795.393	571
795.785	593
796.198	579
796.612	593.6
797.026	580.4
797.439	569
797.831	578.6
798.245	578.4
798.659	580.2
799.073	578.4
799.487	580
799.88	582.6
800.294	578
800.708	591.2
801.123	590.6
801.516	606.8
801.93	574.4
802.345	577.4
802.76	583
803.153	601.4
803.568	597.6
803.983	598.6
804.377	582.4
804.792	567.8
805.207	571.8
805.601	587.8
806.016	613
806.432	569.6
806.826	608.4
807.242	594.2
807.658	586
808.052	572.4
808.468	580
808.884	575
809.279	578.6
809.695	593.6
810.111	597.8
810.506	581.8
810.922	596.8
811.339	576.2
811.734	587
812.151	575.8
812.546	576.8
812.963	578.6
813.38	594.4
813.776	589.4
814.193	607.2
814.589	576.4
815.006	582.4
815.402	582.8
815.82	586.2
816.237	577.6
816.633	577.2
817.051	578.6
817.448	588.4
817.866	577
818.262	599.8
818.68	580.2
819.077	579.8
819.495	583.8
819.892	622.8
820.311	575.4
820.708	586.6
821.127	583.6
821.524	588.4
821.943	590.6
822.34	601
822.759	586.2
823.157	590.4
823.576	596.2
823.974	597.6
824.393	603
824.791	577.2
825.189	574.8
825.609	586.6
826.007	588
826.427	568.6
826.826	580.4
827.246	592.6
827.644	566.6
828.043	591.2
828.463	573.6
828.862	584.8
829.261	597.2
829.682	569.4
830.081	586.4
830.502	579.6
830.901	593
831.301	593.6
831.722	568.8
832.121	585.2
832.521	584
832.943	586.8
833.342	585.8
833.742	573.8
834.164	580.4
834.564	576.6
834.965	579
835.386	581.8
835.787	580.4
836.188	574.8
836.588	585.4
837.01	578.8
837.411	578.8
837.812	589.8
838.213	590.6
838.636	584.8
839.037	658.2
839.438	591.6
839.84	584.6
840.263	590
840.664	585.4
841.066	590
841.468	594
841.891	577.2
842.293	601.6
842.695	593
843.098	591
843.5	589
843.902	590.2
844.326	582.6
844.729	591.4
845.131	594
845.534	577.2
845.937	594.4
846.34	600
846.764	577
847.167	586.8
847.571	573.4
847.974	578
848.377	574.6
848.781	632.4
849.184	593.8
849.588	579.2
849.992	574.6
850.396	583
850.821	602.6
851.225	591
851.63	573.6
852.034	597.4
852.438	578
852.843	660.6
853.247	578
853.652	571.2
854.057	599.4
854.462	584.4
854.867	583.8
855.272	607.6
855.677	588
856.082	576.2
