#lambda/nm	C1
208.295	512.4
208.67	469.2
209.045	426.4
209.419	435
209.794	613
210.169	597.4
210.544	722.6
210.919	620.8
211.295	607.8
211.67	616.2
212.045	613.2
212.421	607.4
212.796	650.8
213.172	611.8
213.547	619.4
213.923	604
214.299	617
214.675	626
215.051	620.4
215.427	619.8
215.803	629.8
216.179	617.4
216.555	604.4
216.932	630
217.308	619
217.684	614.4
218.061	619.4
218.438	622.4
218.814	603.6
219.191	615.8
219.568	619.2
219.945	605.2
220.322	615.4
220.699	612.8
221.076	619.2
221.453	621.2
221.83	614.4
222.208	615.8
222.585	616.2
222.962	618.8
223.34	616.4
223.717	621
224.095	615.4
224.473	618.2
224.851	606.4
225.229	596
225.607	625.8
225.985	613.8
226.363	618.8
226.741	617.2
227.119	621.8
227.497	629.6
227.876	601
228.254	626
228.633	617.2
229.011	613
229.39	611.4
229.769	612.8
230.148	623.8
230.527	633
230.905	611.6
231.284	615.2
231.664	605.6
232.043	624.4
232.422	619.8
232.801	606
233.181	622.8
233.56	619
233.94	615.6
234.319	605
234.699	607
235.079	660.2
235.458	651
235.838	631.2
236.218	601.8
236.598	606.6
236.978	606.2
237.358	604.8
237.738	613.6
238.119	619.2
238.499	602.8
238.88	618.8
239.26	630.4
239.641	599.4
240.021	618.8
240.402	618.8
240.783	610.8
241.163	616
241.544	612.6
241.925	617
242.306	624.2
242.687	615.6
243.069	619.6
243.45	620.2
243.831	613.4
244.212	613.4
244.594	647.6
244.975	623.8
245.357	619.2
245.739	610.8
246.12	610.2
246.502	627.6
246.884	611.8
247.266	605.2
247.648	618.4
248.03	638.8
248.412	624.4
248.794	622
249.176	621.2
249.559	618
249.941	602
250.323	605.2
250.706	617.6
251.089	615.8
251.471	626
251.854	611
252.237	614.4
252.62	630.6
253.002	613.6
253.385	616.6
253.769	623
254.152	614.6
254.535	617.6
254.918	611.4
255.301	610.2
255.685	614.2
256.068	599.8
256.452	636.4
256.835	621.6
257.219	618.8
257.603	626.2
257.986	607.4
258.37	625
258.754	607
259.138	617.6
259.522	617.2
259.906	612.2
260.29	616
260.675	612.4
261.059	608.8
261.443	603.8
261.828	615.8
262.212	617.6
262.597	601
262.981	612.6
263.366	617.6
263.751	609.4
264.136	607
264.521	616.8
264.906	600.6
265.291	629.6
265.676	617.4
266.061	618.8
266.446	633.6
266.831	620.4
267.217	629.8
267.602	618.4
267.987	621.8
268.373	611.4
268.759	616.4
269.144	626.4
269.53	611.2
269.916	611.2
270.302	619.4
270.688	614.2
271.074	624.6
271.46	633.6
271.846	642.6
272.232	613.8
272.618	616.4
273.004	616.4
273.391	620.2
273.777	630
274.164	618
274.55	630.4
274.937	622
275.324	618.6
275.71	621.6
276.097	618.6
276.484	617.6
276.871	611
277.258	622.6
277.645	601.2
278.032	620
278.419	616
278.807	630.2
279.194	604
279.581	602.2
279.969	618.2
280.356	621.6
280.744	615.4
281.131	635.2
281.519	627.4
281.907	609.4
282.295	615.2
282.682	623.4
283.07	621.4
283.458	623.8
283.846	625.8
284.235	630.4
284.623	623.8
285.011	606.6
285.399	618
285.788	619.8
286.176	602.4
286.565	623.4
286.953	607.4
287.342	614.8
287.731	604.4
288.119	601.4
288.508	610
288.897	606.2
289.286	604.6
289.675	616.4
290.064	626
290.453	615.2
290.821	623.4
291.21	631.4
291.599	612.4
291.989	624
292.378	625
292.768	638.6
293.157	613.8
293.547	633
293.936	619
294.326	615.6
294.716	623.4
295.106	610.2
295.496	610
295.886	629.6
296.276	616
296.666	597.6
297.056	606.8
297.446	598.4
297.836	629.6
298.227	603.8
298.617	613.8
299.008	625
299.398	610
299.789	604.6
300.179	613.4
300.57	624.6
300.961	617.4
301.352	615.8
301.742	622.8
302.133	621
302.524	614.4
302.915	623.4
303.307	608.4
303.698	616.2
304.089	626.6
304.48	612.6
304.872	619
305.263	607
305.655	612.8
306.046	620
306.438	613.6
306.829	605.4
307.221	625.2
307.613	623.2
308.005	627.2
308.397	632.8
308.789	637.6
309.181	646.2
309.573	636.8
309.965	629
310.357	614.6
310.749	632.4
311.142	605.6
311.534	608.2
311.926	625.4
312.319	620.2
312.711	614.8
313.104	630.8
313.497	614.2
313.889	653
314.282	636.4
314.675	650.6
315.068	617.8
315.461	627.6
315.854	645.4
316.247	624.4
316.64	605.4
317.033	625.4
317.405	622.8
317.798	614.8
318.192	623.8
318.585	620.2
318.979	622.2
319.372	611.4
319.766	612.4
320.16	624.6
320.553	637.2
320.947	638
321.341	622.8
321.735	625.6
322.129	604
322.523	643
322.917	613.8
323.311	626.8
323.705	619.6
324.099	618.8
324.494	628.4
324.888	624.8
325.282	614.2
325.677	631
326.071	625.4
326.466	632.4
326.861	617.4
327.255	623.6
327.65	639
328.045	627.2
328.44	622.6
328.835	623.8
329.23	611.2
329.625	643.8
330.02	611.8
330.415	636.2
330.81	619.4
331.206	613
331.601	606
331.996	622.6
332.37	638
332.766	608.8
333.161	638
333.557	617.8
333.953	613.6
334.348	1041.8
334.744	612.8
335.14	611.4
335.536	608
335.932	630.4
336.328	617.8
336.724	621.6
337.12	610.8
337.516	621.2
337.913	617.8
338.309	625.6
338.705	609.6
339.102	636.4
339.498	614.8
339.895	622.2
340.291	609.2
340.688	635.4
341.085	613.4
341.481	615.4
341.878	615.4
342.275	633.4
342.672	612
343.069	606
343.466	600.2
343.842	623
344.239	608.4
344.636	610.4
345.033	611
345.431	606.2
345.828	612.2
346.225	610.2
346.623	643.4
347.02	608.2
347.418	620
347.816	627.6
348.213	604.6
348.611	617.6
349.009	606.8
349.407	626.8
349.805	604
350.203	599.4
350.601	625
350.999	613.4
351.397	677.6
351.795	613.4
352.193	612.8
352.57	620.6
352.969	629
353.367	603.6
353.766	603.6
354.164	613.6
354.563	627.8
354.961	611
355.36	613.4
355.759	604.8
356.158	604.6
356.557	606.2
356.956	604.6
357.355	600.6
357.754	612.6
358.153	613.6
358.552	635.4
358.951	613.8
359.35	627.8
359.75	604.6
360.149	599.2
360.527	599.2
360.926	604.4
361.326	613.4
361.726	608.6
362.125	604
362.525	615
362.925	605
363.325	606.4
363.724	619.4
364.124	606.4
364.524	605.8
364.924	596.2
365.324	620.2
365.725	599.2
366.125	618.2
366.525	614.4
366.904	602.6
367.304	593
367.705	620
368.105	631.2
368.506	609.2
368.906	613.6
369.307	610.6
369.708	623
370.108	602.2
370.509	622.8
370.91	601.4
371.311	617.2
371.712	617.4
372.113	604.4
372.514	598.4
372.894	616.6
373.295	599.6
373.696	620.8
374.097	614.6
374.499	641.2
374.9	617.2
375.301	610
375.703	607.4
376.105	600.4
376.506	616.8
376.908	614
377.309	608
377.711	604.8
378.113	603.8
378.493	603.4
378.895	602
379.297	622.4
379.699	604.2
380.102	613.8
380.504	612
380.906	607.4
381.308	632.2
381.71	607.6
382.113	620.4
382.515	606.6
382.918	608.2
383.299	603.4
383.701	619.4
384.104	609
384.507	596.4
384.909	599.8
385.312	593.6
385.715	600.6
386.118	604
386.521	598
386.924	622
387.327	604.8
387.709	593
388.112	597.2
388.515	608.2
388.918	603.4
389.322	607.8
389.725	604.4
390.129	621.2
390.532	609.8
390.936	610.6
391.339	604.4
391.743	606.8
392.125	601
392.529	614
392.933	617.8
393.337	610.2
393.74	594.2
394.144	611.4
394.548	598.2
394.953	594.2
395.357	611.6
395.761	603
396.144	599.2
396.548	598.8
396.952	611.2
397.357	598.4
397.761	606.8
398.166	595.6
398.57	602.4
398.975	589.8
399.379	608.4
399.763	661
400.168	608.2
400.572	607
400.977	599.2
401.382	626.6
401.787	606.4
402.192	618
402.597	612.8
403.002	599.4
403.386	618.6
403.791	621.2
404.197	601.8
404.602	603.8
405.007	606.4
405.413	602.4
405.818	606.6
406.224	600.8
406.608	598.4
407.014	600.2
407.42	621.6
407.825	601
408.231	614.6
408.637	611.4
409.043	627.8
409.449	608.4
409.834	603.6
410.24	607
410.646	626
411.052	613.4
411.458	610.8
411.865	618.6
412.271	619.4
412.677	611.4
413.062	609.2
413.469	604
413.875	633.8
414.282	622.6
414.689	610.8
415.095	615.4
415.502	599
415.888	606.2
416.294	600.6
416.701	647.8
417.108	599.6
417.515	623
417.923	595.2
418.33	627.6
418.715	618
419.123	607.2
419.53	610
419.937	607
420.345	614.2
420.752	602.8
421.16	616.4
421.546	614.2
421.953	621
422.361	604.8
422.769	597
423.177	604.6
423.585	642.2
423.992	627
424.379	615.4
424.787	619.4
425.195	624.8
425.603	605.6
426.011	623.8
426.419	622.6
426.806	609.8
427.214	612.2
427.623	619.8
428.031	627.2
428.44	613.6
428.848	623.2
429.235	631.2
429.644	615.6
430.053	612
430.461	631.4
430.87	646.6
431.279	622.2
431.666	616.4
432.075	624.2
432.484	634.2
432.893	632.8
433.302	650.2
433.711	674.6
434.099	638.2
434.508	645.8
434.918	631
435.327	653.6
435.737	660.6
436.125	661.6
436.534	676.2
436.944	678.6
437.353	685.2
437.763	709
438.173	684.2
438.561	714.4
438.971	681
439.381	707.4
439.791	723.6
440.201	706
440.589	719
440.999	737
441.409	740.2
441.819	739
442.23	760.4
442.619	762.2
443.029	760.8
443.439	759.6
443.85	788.2
444.26	783.4
444.649	777.8
445.06	795.2
445.471	785.6
445.881	791
446.292	795.6
446.682	807.8
447.092	787.4
447.503	847.4
447.914	811.8
448.325	809.4
448.715	801.6
449.126	813
449.537	810.8
449.948	812.6
450.338	808.6
450.75	829.6
451.161	825.6
451.572	822
451.984	817.4
452.374	816
452.786	819.4
453.197	826.4
453.609	833.2
453.999	817
454.411	835
454.823	831.2
455.235	846.2
455.647	827
456.037	836.2
456.449	831.8
456.862	839.6
457.274	836.8
457.665	833.2
458.077	852
458.489	873.2
458.902	841.2
459.293	839.2
459.705	847.8
460.118	843.2
460.53	853.4
460.921	863.4
461.334	865
461.747	846.8
462.16	861.8
462.551	867.2
462.964	855.4
463.377	833.6
463.79	845.8
464.182	861.2
464.595	858.4
465.008	852.6
465.421	852.2
465.813	849.6
466.226	861.8
466.64	860.6
467.053	904.2
467.445	878
467.859	876
468.272	859.6
468.686	868
469.078	858.2
469.492	853.4
469.906	872.2
470.298	869.6
470.712	853.4
471.126	906.8
471.54	838.6
471.933	859.2
472.347	850.6
472.761	852.2
473.175	857.8
473.568	853.2
473.982	856.8
474.397	848
474.79	861
475.204	860.4
475.619	847.4
476.033	847.2
476.426	858.2
476.841	843.6
477.256	881
477.649	837.2
478.064	837.2
478.479	837.8
478.872	836.8
479.287	839.8
479.702	837.2
480.118	842.8
480.511	836.6
480.927	840.2
481.342	834.2
481.736	836.2
482.151	838.4
482.566	847.2
482.96	845.4
483.376	848.6
483.792	839.2
484.186	840.6
484.602	834.4
485.017	830.2
485.412	828.8
485.827	830.4
486.243	835.4
486.638	856
487.054	829.8
487.47	840.2
487.865	828.4
488.281	821.4
488.697	823.6
489.092	824.2
489.508	807.6
489.925	820.2
490.32	802.8
490.736	813
491.153	820.4
491.548	812.2
491.964	821.2
492.381	793.6
492.776	802.2
493.193	811.6
493.61	808.2
494.006	788.8
494.422	807.8
494.84	788.8
495.235	811.6
495.652	796
496.069	800.8
496.465	793.2
496.883	792.6
497.3	815.6
497.696	789.6
498.113	800.6
498.509	786
498.927	785.2
499.344	764
499.741	784
500.158	787.6
500.576	790.4
500.973	791
501.39	763.8
501.787	757.2
502.205	770
502.623	764
503.02	752.8
503.438	765.2
503.856	760.8
504.253	765
504.671	760.8
505.068	762.8
505.486	748.6
505.905	775.2
506.302	768
506.72	772.6
507.118	759.4
507.536	756.6
507.955	758.8
508.352	751.4
508.771	755
509.169	752.2
509.587	737
510.006	762.4
510.404	736.2
510.823	739.6
511.221	744.4
511.64	736.2
512.038	741.6
512.457	733.6
512.877	745
513.275	732
513.694	735.2
514.092	730.2
514.512	728.2
514.91	749
515.33	732.2
515.749	728
516.148	725.8
516.568	723
516.966	725.4
517.386	723
517.785	728.2
518.205	717.8
518.603	719.6
519.024	705.2
519.444	721.6
519.843	722.4
520.263	718.8
520.662	716.4
521.082	705
521.481	709.8
521.902	709.6
522.301	711.6
522.722	718.8
523.121	709.6
523.542	702
523.963	708.8
524.362	704.2
524.783	712.6
525.183	699.2
525.604	694.6
526.003	696.4
526.425	698.2
526.824	700.2
527.246	700
527.646	699.8
528.067	696.4
528.467	695
528.888	699.4
529.289	690.6
529.71	689.8
530.11	690
530.532	691.4
530.932	671
531.354	668.8
531.755	716
532.176	691
532.577	683.8
532.999	674.6
533.4	677
533.822	689.8
534.223	687.8
534.645	666.4
535.046	676.4
535.468	686.8
535.869	687.2
536.292	669.6
536.693	708.4
537.115	684.8
537.516	675.6
537.939	669.2
538.34	690
538.742	693
539.165	667.6
539.566	679.6
539.989	664
540.391	674.8
540.814	667.4
541.216	669.6
541.639	671.8
542.041	674
542.464	668
542.866	658
543.268	657.2
543.691	656
544.093	664.4
544.517	676.8
544.919	651
545.343	679.4
545.745	646.2
546.147	658.8
546.571	650.6
546.974	647.8
547.398	655.4
547.8	667.4
548.224	656.8
548.627	642.8
549.03	664.8
549.454	649
549.857	642.6
550.281	635.2
550.684	651.4
551.087	664.4
551.512	643.6
551.915	651.2
552.34	648.4
552.743	650.8
553.146	648
553.571	647.8
553.975	664.8
554.399	627.2
554.803	696.6
555.207	640.6
555.632	630.8
556.036	649.4
556.461	629.8
556.865	634.6
557.268	640.2
557.694	635.8
558.098	651.4
558.502	644.4
558.927	640.6
559.332	641.2
559.736	641.2
560.162	642
560.566	641.8
560.992	639.2
561.396	640.2
561.801	641.2
562.227	635.8
562.631	630.6
563.036	633.6
563.462	646.4
563.867	640.2
564.272	621.4
564.698	637
565.103	626.4
565.508	651.6
565.935	634.6
566.34	631
566.745	633
567.172	632.8
567.577	656
567.982	641.6
568.409	631.8
568.815	616
569.22	636.8
569.626	640
570.053	617.2
570.459	632.4
570.865	628.8
571.292	632
571.698	630.2
572.104	614.6
572.531	627.2
572.937	626.4
573.343	629
573.75	622.2
574.177	628.8
574.583	630.8
574.99	625.8
575.396	625.6
575.824	622.2
576.231	632.8
576.637	623.4
577.065	646.4
577.472	614.6
577.879	620.6
578.286	637.6
578.714	613.2
579.121	616.6
579.528	627.4
579.935	627.8
580.364	624.8
580.771	607.4
581.178	611.6
581.585	625.4
582.014	627.6
582.421	620.2
582.829	619.6
583.236	626.8
583.644	613.8
584.073	611.6
584.481	611.4
584.889	606
585.296	623.2
585.726	611.4
586.134	604.6
586.542	611.2
586.95	632.2
587.358	601
587.787	608.8
588.196	622.8
588.604	611
589.012	612
589.421	605
589.851	608.8
590.259	616.8
590.668	604.4
591.076	640.8
591.485	610.2
591.894	617.4
592.324	637.6
592.733	627
593.142	602.8
593.551	617
593.96	623.4
594.369	601.4
594.8	602.8
595.209	614.4
595.618	605
596.028	609
596.437	607.2
596.847	617.8
597.256	615.2
597.687	609.4
598.097	622.2
598.507	598.6
598.917	611.4
599.327	624.4
599.736	621.4
600.146	630.6
600.556	616.2
600.988	625.8
601.398	615.2
601.808	621.4
602.219	609.6
602.629	611.6
603.039	616.4
603.45	642.4
603.86	613.4
604.271	639.2
604.703	617
605.114	611.8
605.525	611
605.935	611.8
606.346	637.6
606.757	620.8
607.168	615
607.579	613.6
607.99	625.6
608.402	622.4
608.813	611.6
609.224	611.2
609.636	607.4
610.047	607.6
610.48	613.4
610.892	623.2
611.303	622
611.715	606.6
612.127	607.6
612.539	615.4
612.95	614
613.362	607
613.774	600.6
614.186	617.4
614.599	599.2
615.011	627.6
615.423	618.6
615.835	613
616.248	613.2
616.66	616.6
617.073	604.8
617.485	616
617.898	623.4
618.311	610.2
618.723	607.6
619.136	646.4
619.549	625.8
619.962	634.6
620.375	608
620.788	630.8
621.201	611.4
621.614	619.6
622.028	616.4
622.441	619.8
622.854	632.6
623.268	607.8
623.681	618
624.095	614.4
624.509	625
624.922	621.4
625.336	613.4
625.728	613.4
626.142	627
626.556	633.4
626.97	622.2
627.384	616.2
627.799	622.2
628.213	630.6
628.627	614.8
629.041	609.8
629.456	620.2
629.87	616.6
630.285	623
630.699	623.2
631.093	618.2
631.507	625.2
631.922	618.8
632.337	630
632.752	613.4
633.167	621
633.582	613.4
633.997	610
634.412	605.8
634.806	611
635.221	613
635.637	624.2
636.052	605.6
636.468	620.2
636.883	637.4
637.299	613.6
637.715	609
638.109	613.4
638.525	603.4
638.941	626.6
639.357	622.2
639.773	623.4
640.189	609.4
640.584	601
641	608.4
641.416	597.6
641.832	598.4
642.249	604.8
642.665	601
643.06	614
643.477	609.2
643.894	586.6
644.31	595.2
644.727	604.4
645.123	611.4
645.54	607.8
645.957	608.4
646.374	619.8
646.77	606.4
647.187	628.8
647.604	606.4
648.021	592.8
648.439	598.4
648.835	598.6
649.252	605.2
649.67	607.6
650.088	600.8
650.484	608.6
650.902	614.2
651.32	614.8
651.738	599.8
652.134	609
652.552	618.4
652.971	611.6
653.389	601.6
653.786	617.6
654.204	614.8
654.622	597.8
655.019	604.8
655.438	605.2
655.857	609.6
656.275	610.8
656.673	595.8
657.091	610.2
657.51	598.6
657.908	610.2
658.327	618.6
658.746	596.4
659.144	605.8
659.563	612
659.982	607.6
660.38	596.4
660.8	599.6
661.219	615
661.617	607.2
662.037	594
662.457	608
662.855	583.6
663.275	632.6
663.695	602
664.094	597.2
664.514	606
664.934	594.6
665.333	608.2
665.753	594
666.152	589
666.572	593.2
666.993	617.8
667.392	594.6
667.812	595
668.212	600.6
668.632	607.2
669.053	601.2
669.453	599.8
669.874	604.8
670.273	596.6
670.694	594.2
671.116	606.2
671.515	602.8
671.937	600.2
672.337	591.8
672.758	591.4
673.158	602.8
673.58	590.2
673.98	601.8
674.402	605.2
674.824	597.4
675.224	593.6
675.646	591.6
676.047	588.8
676.469	595.8
676.869	597
677.292	599.4
677.693	589.8
678.115	585.8
678.516	600.2
678.939	598.4
679.34	590.4
679.762	606.6
680.164	593.6
680.586	588.2
680.988	601
681.411	619.4
681.812	587.4
682.236	585
682.637	581.2
683.061	582.6
683.462	595.4
683.864	587.2
684.288	595.8
684.69	580.6
685.114	598.4
685.516	611
685.94	589.4
686.342	599.6
686.766	586.2
687.168	589.4
687.571	608.4
687.995	590.8
688.398	582.8
688.822	585.4
689.225	610.2
689.628	608.2
690.052	580.4
690.456	604.4
690.88	584.6
691.284	577
691.687	598.4
692.112	582.4
692.515	581.4
692.919	598.8
693.344	587.4
693.747	585.6
694.173	583
694.577	605
694.98	591
695.406	581.8
695.81	599.2
696.214	601.2
696.64	593.2
697.044	597
697.448	600
697.874	592.8
698.279	595.4
698.684	582.8
699.11	583
699.514	586
699.919	585
700.324	575.2
700.75	587.6
701.156	592.6
701.561	595.8
701.987	595
702.393	596.2
702.798	594.4
703.203	583.6
703.63	589.8
704.036	587.8
704.442	599.4
704.847	575
705.274	589
705.68	598.6
706.086	600
706.492	576.8
706.92	588.8
707.326	593.4
707.732	594.2
708.139	584
708.545	578
708.973	579
709.38	590.6
709.786	575.8
710.193	601.8
710.6	587
711.028	578.4
711.435	585
711.842	583.2
712.249	581.8
712.656	586.4
713.064	591
713.492	584
713.9	586
714.307	595.8
714.715	580.8
715.123	586.6
715.53	590.4
715.938	593.2
716.367	595
716.775	583.4
717.184	569.2
717.592	586
718	595.6
718.408	623.8
718.816	637.8
719.225	589
719.633	586.6
720.042	577.6
720.472	587.6
720.881	611.2
721.29	590.4
721.699	582.2
722.108	589.6
722.517	587.2
722.926	584.8
723.335	590
723.744	583
724.154	588
724.563	589
724.973	581
725.382	584.6
725.792	578.4
726.202	577.2
726.612	611
727.022	580.6
727.432	584.2
779.813	581.8
780.223	627.6
780.634	591.4
781.044	581.6
781.454	582.6
781.865	599
782.276	578.6
782.686	593.6
783.097	589
783.508	585.8
783.919	596
784.33	595
784.741	592.2
785.152	580.8
785.563	565.8
785.974	575.2
786.386	594.2
786.776	590
787.188	588
787.599	583.4
788.011	588
788.423	584.6
788.835	578.2
789.247	570
789.659	578
790.071	579.4
790.483	619.6
790.874	578.2
791.286	592.2
791.699	581.2
792.111	584.8
792.524	582.4
792.937	574.6
793.349	575.8
793.741	575.2
794.154	578.2
794.567	601.4
794.98	579
795.393	578.4
795.785	601
796.198	586.6
796.612	574.6
797.026	584.4
797.439	568.8
797.831	576.8
798.245	563.4
798.659	575
799.073	572.6
799.487	576.2
799.88	572.4
800.294	583.4
800.708	583.6
801.123	584.8
801.516	605.2
801.93	568.4
802.345	563.6
802.76	586
803.153	598.2
803.568	601
803.983	595.8
804.377	595.4
804.792	580.2
805.207	572.8
805.601	585.6
806.016	615.8
806.432	574
806.826	609.8
807.242	593.8
807.658	591.8
808.052	591.4
808.468	578.6
808.884	577.2
809.279	587.2
809.695	599.2
810.111	598.4
810.506	595.8
810.922	606
811.339	581.4
811.734	587.2
812.151	579.2
812.546	576.4
812.963	585
813.38	588.4
813.776	584
814.193	601.4
814.589	582.4
815.006	587.6
815.402	579.6
815.82	575.4
816.237	583.6
816.633	586.4
817.051	579.2
817.448	582.2
817.866	573.4
818.262	606.6
818.68	581.6
819.077	577.6
819.495	586.6
819.892	630.2
820.311	576.2
820.708	577.4
821.127	582
821.524	591.8
821.943	587.2
822.34	614.8
822.759	592.6
823.157	580
823.576	601.2
823.974	589.6
824.393	605.4
824.791	582.8
825.189	578.2
825.609	568.8
826.007	580.4
826.427	570.6
826.826	578.4
827.246	586.2
827.644	560
828.043	591.4
828.463	580.6
828.862	592.8
829.261	593.4
829.682	569.8
830.081	584
830.502	568.4
830.901	583.2
831.301	593.8
831.722	569.8
832.121	579.6
832.521	577.2
832.943	575.2
833.342	580.4
833.742	572.6
834.164	579
834.564	572.2
834.965	578.4
835.386	577.2
835.787	583.4
836.188	581.4
836.588	578.2
837.01	581.6
837.411	575.4
837.812	587.6
838.213	586.6
838.636	581.8
839.037	640.4
839.438	583.6
839.84	581.4
840.263	593.8
840.664	576
841.066	583.8
841.468	581.4
841.891	583.2
842.293	591.2
842.695	589.6
843.098	591.2
843.5	580.4
843.902	587.6
844.326	581.8
844.729	581.2
845.131	599.2
845.534	587
845.937	593.2
846.34	601.8
846.764	573.2
847.167	589.4
847.571	581.8
847.974	577
848.377	588.4
848.781	630.4
849.184	595.2
849.588	581.8
849.992	582.6
850.396	585.4
850.821	603.4
851.225	579.6
851.63	578
852.034	603
852.438	581
852.843	611.8
853.247	569.4
853.652	583.6
854.057	598.8
854.462	585
854.867	580.4
855.272	608.2
855.677	590.4
