#lambda/nm	C1
208.295	510
208.67	467.8
209.045	427.2
209.419	431.4
209.794	612.6
210.169	599.8
210.544	715.8
210.919	621.2
211.295	603.4
211.67	624.4
212.045	609.4
212.421	609.4
212.796	655.8
213.172	614.8
213.547	609.2
213.923	613
214.299	605.6
214.675	627.6
215.051	617.4
215.427	619.4
215.803	637.6
216.179	622
216.555	611.4
216.932	615.6
217.308	613.4
217.684	611.2
218.061	619.2
218.438	620.2
218.814	601
219.191	615.4
219.568	609.2
219.945	605
220.322	613
220.699	616.4
221.076	628.6
221.453	618.2
221.83	608.8
222.208	604.6
222.585	606.6
222.962	614.6
223.34	609
223.717	609.8
224.095	608
224.473	616.8
224.851	611.6
225.229	604.8
225.607	630.6
225.985	610
226.363	616.4
226.741	615.2
227.119	621.6
227.497	629
227.876	600.4
228.254	616
228.633	622
229.011	617.6
229.39	619.2
229.769	618
230.148	620.8
230.527	634
230.905	608
231.284	616.8
231.664	615.6
232.043	628.8
232.422	626
232.801	607.4
233.181	616.2
233.56	621.6
233.94	623
234.319	609.2
234.699	608
235.079	653.8
235.458	659.8
235.838	632.8
236.218	602.8
236.598	610.2
236.978	605.8
237.358	607
237.738	608.8
238.119	629.4
238.499	609.2
238.88	612.6
239.26	630.8
239.641	596.2
240.021	614.6
240.402	611.8
240.783	609.2
241.163	609.6
241.544	610.6
241.925	607.6
242.306	632.4
242.687	616.8
243.069	619.4
243.45	626.4
243.831	610
244.212	612.6
244.594	649
244.975	623.8
245.357	614.6
245.739	602.8
246.12	622.8
246.502	641.4
246.884	611.2
247.266	615.6
247.648	614.4
248.03	632.4
248.412	625.4
248.794	618
249.176	611.8
249.559	629.4
249.941	605.2
250.323	608.2
250.706	610.6
251.089	609.6
251.471	620.4
251.854	609.8
252.237	622
252.62	629
253.002	608.6
253.385	617.6
253.769	626.6
254.152	617.4
254.535	619
254.918	611.8
255.301	623.4
255.685	612.2
256.068	603
256.452	637.6
256.835	625.2
257.219	618.4
257.603	623
257.986	594.2
258.37	623
258.754	603.6
259.138	619.4
259.522	636.6
259.906	608.4
260.29	620.2
260.675	610
261.059	623
261.443	607.6
261.828	620.8
262.212	624.6
262.597	606.2
262.981	615
263.366	620.6
263.751	624.8
264.136	618
264.521	612
264.906	604.2
265.291	621.8
265.676	617.8
266.061	622.4
266.446	630
266.831	614.8
267.217	633.6
267.602	618.6
267.987	614.6
268.373	615.2
268.759	623.8
269.144	626
269.53	616.8
269.916	612.4
270.302	620.2
270.688	631.2
271.074	620.4
271.46	631.4
271.846	645.8
272.232	619.6
272.618	607.8
273.004	616.8
273.391	627.6
273.777	633.2
274.164	628
274.55	629.8
274.937	620.8
275.324	615.2
275.71	626.8
276.097	621
276.484	609.8
276.871	617.2
277.258	616.8
277.645	597
278.032	613.2
278.419	619
278.807	623.6
279.194	608.2
279.581	605
279.969	616.8
280.356	612.6
280.744	610.8
281.131	640
281.519	621.8
281.907	609
282.295	609.4
282.682	631.8
283.07	619.8
283.458	622.6
283.846	626.6
284.235	630.2
284.623	624.6
285.011	604
285.399	615.4
285.788	617.4
286.176	606
286.565	634.2
286.953	597.8
287.342	612.6
287.731	612.2
288.119	608.8
288.508	607.2
288.897	620.6
289.286	609.2
289.675	623.8
290.064	625.2
290.453	610
290.821	619.4
291.21	628.2
291.599	614.4
291.989	620.4
292.378	614.6
292.768	629.4
293.157	619.4
293.547	615.6
293.936	615.4
294.326	610.8
294.716	617.4
295.106	610
295.496	620.8
295.886	622.2
296.276	620.4
296.666	608.2
297.056	615
297.446	606.8
297.836	634.6
298.227	608.4
298.617	624.4
299.008	625
299.398	619.4
299.789	607.4
300.179	626.6
300.57	631.8
300.961	615.4
301.352	616.4
301.742	616.6
302.133	616
302.524	616.4
302.915	620.8
303.307	606.6
303.698	631.6
304.089	623.2
304.48	620.4
304.872	632.6
305.263	616.8
305.655	607.8
306.046	629
306.438	630.2
306.829	597
307.221	628.4
307.613	626
308.005	624.4
308.397	634.2
308.789	641.2
309.181	642
309.573	632.8
309.965	632.2
310.357	612
310.749	632.6
311.142	617.8
311.534	615
311.926	631.4
312.319	613.4
312.711	615.4
313.104	635.4
313.497	609.2
313.889	658.6
314.282	631.8
314.675	641.6
315.068	618.6
315.461	628.8
315.854	647.8
316.247	611.8
316.64	608.8
317.033	620
317.405	622
317.798	622.6
318.192	617.8
318.585	609
318.979	621.4
319.372	604.4
319.766	610.4
320.16	620.6
320.553	632.6
320.947	637.8
321.341	608.6
321.735	609
322.129	608.4
322.523	643.2
322.917	605.4
323.311	616
323.705	610.6
324.099	623.8
324.494	631.4
324.888	632.6
325.282	617.4
325.677	629
326.071	623.4
326.466	627.2
326.861	615.6
327.255	626.4
327.65	630.4
328.045	636.4
328.44	621.8
328.835	615.2
329.23	617.6
329.625	641.8
330.02	622
330.415	641.6
330.81	625.8
331.206	622
331.601	617.2
331.996	631.2
332.37	643.2
332.766	607
333.161	639
333.557	623
333.953	623.8
334.348	993.4
334.744	616.2
335.14	610.6
335.536	610.4
335.932	625.8
336.328	612.6
336.724	629.4
337.12	617
337.516	616
337.913	614.2
338.309	635
338.705	614.8
339.102	621.8
339.498	610.8
339.895	621.2
340.291	613.8
340.688	631.6
341.085	603.8
341.481	618.4
341.878	612.2
342.275	636.2
342.672	602.6
343.069	606.4
343.466	599.8
343.842	619.8
344.239	608.4
344.636	617.6
345.033	605.4
345.431	604
345.828	610
346.225	614.6
346.623	656.2
347.02	610.4
347.418	632.6
347.816	632.4
348.213	604.4
348.611	607.6
349.009	608.8
349.407	621.4
349.805	604.2
350.203	602.6
350.601	625.2
350.999	616
351.397	683.6
351.795	615.4
352.193	624
352.57	615.4
352.969	630.6
353.367	605.8
353.766	600.6
354.164	610.6
354.563	623.8
354.961	609.6
355.36	607.4
355.759	605.4
356.158	606.8
356.557	609.4
356.956	599
357.355	606.8
357.754	612.2
358.153	615.6
358.552	642.2
358.951	612.6
359.35	629.4
359.75	614.8
360.149	602.2
360.527	603.6
360.926	599.2
361.326	606
361.726	606
362.125	601.4
362.525	619.4
362.925	607.8
363.325	615
363.724	612
364.124	603.8
364.524	607.4
364.924	608
365.324	623.2
365.725	591.4
366.125	614.8
366.525	620.2
366.904	606.6
367.304	594.2
367.705	623.4
368.105	624.8
368.506	607.2
368.906	607
369.307	613.6
369.708	614
370.108	601.8
370.509	622
370.91	599.8
371.311	614.6
371.712	613.8
372.113	602
372.514	604.6
372.894	608.8
373.295	606
373.696	625
374.097	618.8
374.499	634.4
374.9	606.6
375.301	603.2
375.703	601.6
376.105	606.2
376.506	604
376.908	610.6
377.309	610.4
377.711	615.8
378.113	602
378.493	612.2
378.895	598
379.297	623.2
379.699	597.4
380.102	614.8
380.504	605.8
380.906	598
381.308	627.2
381.71	609
382.113	623.2
382.515	601.4
382.918	611.6
383.299	607.4
383.701	614.8
384.104	612
384.507	592.4
384.909	598.2
385.312	596.6
385.715	604.2
386.118	611.6
386.521	602
386.924	606
387.327	598.4
387.709	595.4
388.112	589.4
388.515	606.4
388.918	606.8
389.322	607.4
389.725	603.4
390.129	624
390.532	604.4
390.936	605.2
391.339	602.8
391.743	611
392.125	599.6
392.529	612.6
392.933	613.4
393.337	609.6
393.74	604.4
394.144	612
394.548	600
394.953	598.2
395.357	613.8
395.761	604.6
396.144	609.6
396.548	606.8
396.952	608.6
397.357	606.8
397.761	604
398.166	605.2
398.57	608.2
398.975	607.8
399.379	615.6
399.763	656
400.168	616.6
400.572	607.2
400.977	611
401.382	626.6
401.787	625.8
402.192	623
402.597	623.8
403.002	597.6
403.386	624
403.791	635
404.197	617.6
404.602	605.8
405.007	609
405.413	607.4
405.818	609.4
406.224	602.6
406.608	606.8
407.014	595.8
407.42	629.2
407.825	610
408.231	616
408.637	616.2
409.043	624.6
409.449	603.6
409.834	608
410.24	604.6
410.646	625.8
411.052	619.2
411.458	616
411.865	614.8
412.271	621
412.677	620.6
413.062	615.4
413.469	601
413.875	637.4
414.282	616.6
414.689	606.8
415.095	609
415.502	601.2
415.888	607.8
416.294	585.6
416.701	645
417.108	603.4
417.515	611.8
417.923	608.6
418.33	632.6
418.715	619.2
419.123	614.4
419.53	603.2
419.937	613.4
420.345	621.2
420.752	613
421.16	619.6
421.546	607.4
421.953	623.4
422.361	603.4
422.769	610.4
423.177	603.6
423.585	627.8
423.992	627.4
424.379	627.6
424.787	624.8
425.195	628
425.603	617.8
426.011	615.2
426.419	629.8
426.806	607.2
427.214	613.6
427.623	620.2
428.031	620.4
428.44	614
428.848	623.6
429.235	631.2
429.644	613.6
430.053	611.4
430.461	635
430.87	643
431.279	625.6
431.666	614.4
432.075	619.4
432.484	632.6
432.893	617.8
433.302	649.8
433.711	662.4
434.099	630
434.508	621.6
434.918	622.4
435.327	629.8
435.737	639
436.125	638.4
436.534	646.8
436.944	657
437.353	660.6
437.763	682.6
438.173	657.4
438.561	680.4
438.971	658.8
439.381	682
439.791	693
440.201	677.8
440.589	700.8
440.999	708.4
441.409	707.6
441.819	697.2
442.23	729.2
442.619	737.4
443.029	732.8
443.439	735.8
443.85	742.6
444.26	756.2
444.649	750.4
445.06	756.4
445.471	749
445.881	763.6
446.292	788.8
446.682	788.8
447.092	758.8
447.503	821.6
447.914	776
448.325	774.2
448.715	779.6
449.126	777.2
449.537	786.4
449.948	788.4
450.338	790
450.75	809.4
451.161	798.6
451.572	803.2
451.984	789.4
452.374	782.2
452.786	803.4
453.197	807.2
453.609	806
453.999	798.8
454.411	791.4
454.823	817.8
455.235	812.4
455.647	802.6
456.037	807
456.449	792.4
456.862	804.2
457.274	816.6
457.665	812.4
458.077	817
458.489	846
458.902	821.2
459.293	822.2
459.705	815.8
460.118	816.2
460.53	819.6
460.921	818.4
461.334	817
461.747	815
462.16	839.2
462.551	834.4
462.964	827.2
463.377	817.6
463.79	831.2
464.182	840.8
464.595	820.2
465.008	836.8
465.421	834.6
465.813	829.4
466.226	841
466.64	829.2
467.053	875.2
467.445	853
467.859	848
468.272	833.8
468.686	855.2
469.078	845.8
469.492	825.2
469.906	839
470.298	838.4
470.712	835.8
471.126	878.4
471.54	810.8
471.933	825.2
472.347	832.2
472.761	835.2
473.175	818.2
473.568	832
473.982	809.8
474.397	822.4
474.79	829
475.204	845.6
475.619	835.8
476.033	827.8
476.426	828.6
476.841	821.2
477.256	850
477.649	821
478.064	811.6
478.479	823.8
478.872	822
479.287	815.2
479.702	821.4
480.118	822.2
480.511	820.2
480.927	821.4
481.342	831.4
481.736	820.4
482.151	807.6
482.566	820.8
482.96	823
483.376	826
483.792	807
484.186	827.6
484.602	810.8
485.017	812
485.412	797
485.827	812.6
486.243	814.8
486.638	818
487.054	813.2
487.47	820.6
487.865	803.4
488.281	805.6
488.697	803.4
489.092	803.8
489.508	795.6
489.925	818.6
490.32	787.6
490.736	813.4
491.153	804.8
491.548	803.2
491.964	805
492.381	780.4
492.776	796
493.193	799.4
493.61	792.4
494.006	785.4
494.422	789
494.84	767
495.235	789.8
495.652	780.4
496.069	777.4
496.465	761.6
496.883	783.4
497.3	805
497.696	773.2
498.113	776.8
498.509	749.8
498.927	761.6
499.344	757.6
499.741	762.2
500.158	775.6
500.576	776.6
500.973	760.4
501.39	758.8
501.787	749.8
502.205	759.4
502.623	742.8
503.02	749
503.438	755.4
503.856	752
504.253	758.6
504.671	770.6
505.068	742.8
505.486	743.4
505.905	764.8
506.302	747.4
506.72	751.2
507.118	735
507.536	740
507.955	747.2
508.352	741.8
508.771	740.8
509.169	743.8
509.587	729.2
510.006	724
510.404	714.8
510.823	719.6
511.221	711
511.64	722
512.038	734.8
512.457	718.6
512.877	723.8
513.275	706.2
513.694	719.4
514.092	715.6
514.512	720.6
514.91	733.2
515.33	707
515.749	712
516.148	724.4
516.568	711
516.966	709
517.386	711.4
517.785	704.6
518.205	701.2
518.603	696.6
519.024	695.2
519.444	706.2
519.843	710.2
520.263	711.2
520.662	702.4
521.082	696
521.481	706.2
521.902	699.2
522.301	705.8
522.722	708.4
523.121	691.2
523.542	694
523.963	700.6
524.362	692.8
524.783	684.4
525.183	700.8
525.604	697.4
526.003	680
526.425	682.6
526.824	698.4
527.246	698
527.646	692.8
528.067	695
528.467	675.6
528.888	681.6
529.289	686.2
529.71	680.2
530.11	677
530.532	678
530.932	673.6
531.354	672.8
531.755	704.4
532.176	679.6
532.577	670.6
532.999	679.4
533.4	666.6
533.822	684.4
534.223	683.4
534.645	667.2
535.046	674.6
535.468	674
535.869	672.4
536.292	660.4
536.693	703.6
537.115	663
537.516	661.2
537.939	651.2
538.34	677.8
538.742	681.4
539.165	664.4
539.566	666.2
539.989	654.2
540.391	655.8
540.814	666.8
541.216	663.6
541.639	660.6
542.041	682.4
542.464	656
542.866	654
543.268	652.8
543.691	657.6
544.093	661
544.517	675
544.919	657.6
545.343	673.8
545.745	646.6
546.147	657.6
546.571	653.2
546.974	650
547.398	647.2
547.8	665.8
548.224	635.8
548.627	649
549.03	659.4
549.454	635
549.857	650.8
550.281	638.4
550.684	638.4
551.087	654.8
551.512	646.8
551.915	653.4
552.34	644
552.743	636.6
553.146	644.4
553.571	646
553.975	653.6
554.399	631.2
554.803	683.8
555.207	634
555.632	631.6
556.036	646.6
556.461	633.2
556.865	649.2
557.268	625.8
557.694	637.2
558.098	635.6
558.502	642.4
558.927	630.8
559.332	631
559.736	629.4
560.162	632.6
560.566	630
560.992	637.2
561.396	637.4
561.801	634.8
562.227	636.6
562.631	636.4
563.036	625
563.462	644.8
563.867	629.6
564.272	621.6
564.698	631
565.103	621.8
565.508	655.6
565.935	630
566.34	634.6
566.745	643.2
567.172	622.6
567.577	653.8
567.982	643.6
568.409	633.8
568.815	621.8
569.22	627.4
569.626	627.8
570.053	610.6
570.459	625.8
570.865	638
571.292	647.4
571.698	635
572.104	612.6
572.531	621.4
572.937	633.4
573.343	623.4
573.75	619.6
574.177	621
574.583	629.4
574.99	616
575.396	631
575.824	618
576.231	627
576.637	622.8
577.065	648
577.472	615.2
577.879	621.6
578.286	637.2
578.714	613.4
579.121	603.2
579.528	626.2
579.935	625
580.364	612.8
580.771	601.6
581.178	604.4
581.585	616
582.014	622.2
582.421	609.6
582.829	609.8
583.236	613.8
583.644	605.4
584.073	615
584.481	617.6
584.889	611.4
585.296	616.4
585.726	611.2
586.134	609
586.542	609.8
586.95	636
587.358	599
587.787	612.6
588.196	619
588.604	608.8
589.012	606.6
589.421	604.4
589.851	609.4
590.259	616.8
590.668	606.8
591.076	643.2
591.485	607
591.894	608.8
592.324	622.4
592.733	622.2
593.142	594.4
593.551	613.2
593.96	638.6
594.369	607.4
594.8	597.8
595.209	607.8
595.618	595.4
596.028	602
596.437	585.8
596.847	606.4
597.256	614.8
597.687	613
598.097	595.6
598.507	593.2
598.917	606.8
599.327	607.8
599.736	617.4
600.146	607.8
600.556	609
600.988	618.4
601.398	605.6
601.808	620.8
602.219	593.6
602.629	605.6
603.039	612
603.45	621.2
603.86	605.2
604.271	622.8
604.703	607.8
605.114	598.4
605.525	609
605.935	605.8
606.346	627
606.757	586.6
607.168	596.2
607.579	595.6
607.99	605.2
608.402	594.8
608.813	602.8
609.224	598
609.636	582.2
610.047	592.4
610.48	594.4
610.892	601.4
611.303	604.2
611.715	588.6
612.127	592.4
612.539	589.4
612.95	596.6
613.362	592
613.774	596
614.186	587.4
614.599	590.2
615.011	605.4
615.423	597.6
615.835	600.8
616.248	593.4
616.66	608.8
617.073	593.2
617.485	602.6
617.898	606
618.311	602
618.723	598.6
619.136	633.4
619.549	600
619.962	620
620.375	592.8
620.788	606.2
621.201	588.2
621.614	603.2
622.028	601.8
622.441	597.8
622.854	613
623.268	592.4
623.681	610.2
624.095	593.6
624.509	606.8
624.922	602.8
625.336	590.4
625.728	588.8
626.142	601.4
626.556	610.4
626.97	607
627.384	588.8
627.799	587.4
628.213	603.6
628.627	595
629.041	592
629.456	593.8
629.87	592.4
630.285	600.8
630.699	603.6
631.093	599.4
631.507	596.8
631.922	596.6
632.337	612.2
632.752	587.2
633.167	599.6
633.582	589.6
633.997	586.2
634.412	595.2
634.806	599.2
635.221	588.8
635.637	609
636.052	586.4
636.468	599.8
636.883	616.4
637.299	594.2
637.715	573
638.109	595
638.525	586.2
638.941	605.2
639.357	601.8
639.773	605.4
640.189	589.8
640.584	591
641	596.6
641.416	573.2
641.832	594.2
642.249	592.6
642.665	593.6
643.06	599.8
643.477	602
643.894	573.4
644.31	589.2
644.727	589.2
645.123	596.6
645.54	587
645.957	589.8
646.374	603.8
646.77	594.8
647.187	627
647.604	595.4
648.021	576.4
648.439	581.8
648.835	595.4
649.252	585.2
649.67	591.2
650.088	591.4
650.484	591.8
650.902	594.2
651.32	592.2
651.738	589
652.134	591.8
652.552	615.6
652.971	596
653.389	590.8
653.786	605.4
654.204	614.8
654.622	594
655.019	593.2
655.438	588.4
655.857	601.6
656.275	606.2
656.673	581
657.091	598.6
657.51	593.4
657.908	603.6
658.327	614
658.746	588.8
659.144	586.6
659.563	599.2
659.982	599.8
660.38	588.2
660.8	597
661.219	597.6
661.617	595
662.037	588.6
662.457	599.8
662.855	578.6
663.275	626.4
663.695	590
664.094	589
664.514	592
664.934	585.2
665.333	596.8
665.753	586.8
666.152	584
666.572	583.2
666.993	598.6
667.392	596.8
667.812	591
668.212	587.4
668.632	605.6
669.053	588.6
669.453	590.8
669.874	583.6
670.273	592.8
670.694	579.8
671.116	606.8
671.515	595.8
671.937	588.4
672.337	591
672.758	595.2
673.158	597.2
673.58	585.6
673.98	596.4
674.402	603.2
674.824	584.8
675.224	585.4
675.646	581.8
676.047	577.2
676.469	590.2
676.869	591.8
677.292	590.8
677.693	578
678.115	582
678.516	601.6
678.939	583.4
679.34	592
679.762	596
680.164	591.2
680.586	573
680.988	595.6
681.411	626.4
681.812	591
682.236	586.6
682.637	578.4
683.061	589.6
683.462	594.2
683.864	585.2
684.288	597
684.69	573.6
685.114	596
685.516	596.8
685.94	579.6
686.342	601.8
686.766	589
687.168	588.2
687.571	604
687.995	595.8
688.398	578
688.822	585.2
689.225	602
689.628	612.6
690.052	584
690.456	589
690.88	586
691.284	577.2
691.687	593.6
692.112	584
692.515	578.2
692.919	590.8
693.344	593.8
693.747	582.4
694.173	586.6
694.577	595.6
694.98	588.2
695.406	588.2
695.81	592.8
696.214	597.8
696.64	598
697.044	585.2
697.448	597.8
697.874	584.4
698.279	593.6
698.684	577.6
699.11	577.2
699.514	583.6
699.919	588
700.324	583.4
700.75	595.4
701.156	592
701.561	602.2
701.987	591.2
702.393	605.2
702.798	593.2
703.203	589.6
703.63	588
704.036	588.2
704.442	584.8
704.847	579
705.274	586.4
705.68	584
706.086	594.6
706.492	572.2
706.92	578.8
707.326	586.6
707.732	583.4
708.139	577.4
708.545	582
708.973	582.4
709.38	590.4
709.786	568.2
710.193	603.8
710.6	593.2
711.028	571.6
711.435	576.4
711.842	583.6
712.249	582
712.656	581.2
713.064	593.4
713.492	582.2
713.9	587.8
714.307	590.4
714.715	590.8
715.123	586.8
715.53	585.2
715.938	596.2
716.367	591
716.775	582.8
717.184	575
717.592	588.8
718	596.6
718.408	622.8
718.816	629.2
719.225	583.4
719.633	588.2
720.042	577.8
720.472	585.2
720.881	609.4
721.29	591
721.699	578.6
722.108	590.2
722.517	592
722.926	585
723.335	591.4
723.744	583.4
724.154	584.2
724.563	589.2
724.973	588.8
725.382	594.8
725.792	588.4
726.202	576.2
726.612	606.4
727.022	586.8
727.432	578.8
779.813	590.6
780.223	623.2
780.634	579.2
781.044	581.8
781.454	582.4
781.865	576.4
782.276	589
782.686	598
783.097	585.8
783.508	582.4
783.919	592.6
784.33	596.6
784.741	596.6
785.152	580.6
785.563	571
785.974	580.2
786.386	587.4
786.776	582.6
787.188	575.4
787.599	570.4
788.011	592.8
788.423	585.6
788.835	587
789.247	577.8
789.659	587
790.071	589.8
790.483	632.2
790.874	577.4
791.286	585
791.699	582
792.111	584.8
792.524	588.2
792.937	584
793.349	574.8
793.741	580.4
794.154	580.6
794.567	605.6
794.98	579
795.393	573.2
795.785	598.4
796.198	584.6
796.612	582.4
797.026	579
797.439	570.4
797.831	583.6
798.245	576.6
798.659	579.8
799.073	575.8
799.487	576.6
799.88	582.2
800.294	586.2
800.708	590.4
801.123	588.8
801.516	602
801.93	574
802.345	578.8
802.76	592.2
803.153	595.4
803.568	607
803.983	592.4
804.377	592.2
804.792	578.8
805.207	572.4
805.601	589.2
806.016	608.4
806.432	575
806.826	615
807.242	598.8
807.658	576
808.052	578
808.468	583.8
808.884	571.8
809.279	588.2
809.695	597
810.111	604.8
810.506	581
810.922	610.2
811.339	581.2
811.734	593.8
812.151	581
812.546	580.6
812.963	581.2
813.38	589.6
813.776	584.8
814.193	601.8
814.589	583.2
815.006	582.6
815.402	576.8
815.82	586.2
816.237	585
816.633	590.2
817.051	582
817.448	584.2
817.866	564
818.262	597.2
818.68	586
819.077	578
819.495	585.2
819.892	630.4
820.311	581.4
820.708	577.6
821.127	573
821.524	596.6
821.943	590.8
822.34	598.2
822.759	577.8
823.157	582.8
823.576	587.8
823.974	591.6
824.393	618
824.791	576
825.189	576
825.609	580.4
826.007	586.8
826.427	569.8
826.826	575.4
827.246	588
827.644	570.6
828.043	596
828.463	574.6
828.862	592.8
829.261	592.2
829.682	566
830.081	588.8
830.502	579.8
830.901	585.8
831.301	592
831.722	569.8
832.121	584.2
832.521	583
832.943	589.8
833.342	579.8
833.742	577.8
834.164	582.4
834.564	574.2
834.965	585
835.386	578.4
835.787	582.6
836.188	580
836.588	588.8
837.01	577.8
837.411	579.6
837.812	585
838.213	584.4
838.636	569.2
839.037	661.4
839.438	584.4
839.84	584.2
840.263	579.8
840.664	584.2
841.066	583.6
841.468	581.6
841.891	582.6
842.293	596.8
842.695	592.2
843.098	598.6
843.5	580
843.902	594.4
844.326	583.6
844.729	586.4
845.131	590
845.534	581.6
845.937	591.6
846.34	609.8
846.764	575.8
847.167	584.8
847.571	569.4
847.974	577.8
848.377	586
848.781	622.4
849.184	589
849.588	576
849.992	575.6
850.396	585
850.821	599
851.225	587.6
851.63	578.8
852.034	597.8
852.438	578.2
852.843	666
853.247	577
853.652	571.6
854.057	599
854.462	590
854.867	582.4
855.272	609.8
855.677	589.6
856.082	573.2
856.487	569.6
856.893	591
857.298	578.2
857.704	567.6
