#lambda/nm	C1
208.295	508
208.67	468.8
209.045	425
209.419	430
209.794	612.6
210.169	591.2
210.544	710.4
210.919	619.6
211.295	609.4
211.67	618.8
212.045	617.2
212.421	621.2
212.796	648.6
213.172	607
213.547	614.8
213.923	603.6
214.299	606.8
214.675	623
215.051	617.6
215.427	617.4
215.803	632.6
216.179	621.4
216.555	613.4
216.932	620
217.308	616.8
217.684	616.6
218.061	624.4
218.438	613.4
218.814	610
219.191	616
219.568	606.4
219.945	600
220.322	617.8
220.699	618.8
221.076	625
221.453	618.6
221.83	609.2
222.208	603.8
222.585	606.4
222.962	624.4
223.34	608.8
223.717	605.2
224.095	611.2
224.473	623.6
224.851	603.4
225.229	611.4
225.607	631
225.985	606
226.363	613.2
226.741	615.2
227.119	609
227.497	632.2
227.876	599.6
228.254	617.6
228.633	620.4
229.011	615.8
229.39	616.6
229.769	607.8
230.148	620.2
230.527	631.4
230.905	620
231.284	613.2
231.664	605.4
232.043	620.4
232.422	619
232.801	608.8
233.181	620
233.56	615.4
233.94	610
234.319	606.6
234.699	614.8
235.079	654.6
235.458	660.6
235.838	626.8
236.218	605.2
236.598	602
236.978	617.2
237.358	611.8
237.738	607.8
238.119	622.4
238.499	600.4
238.88	616.6
239.26	630.8
239.641	607.8
240.021	614
240.402	613.6
240.783	613.4
241.163	603.4
241.544	615.6
241.925	612.6
242.306	625.8
242.687	620.4
243.069	616.6
243.45	621
243.831	613.2
244.212	614.4
244.594	650.4
244.975	620
245.357	609.6
245.739	606.4
246.12	617.6
246.502	632.4
246.884	606.8
247.266	612
247.648	619.8
248.03	624.6
248.412	625
248.794	622.4
249.176	601.4
249.559	622
249.941	602.6
250.323	601.2
250.706	606
251.089	613.6
251.471	614.2
251.854	612
252.237	611
252.62	625.2
253.002	611.4
253.385	615.8
253.769	617.8
254.152	615.6
254.535	618.2
254.918	603.4
255.301	614.8
255.685	609
256.068	606.2
256.452	634.2
256.835	629
257.219	624.2
257.603	625.2
257.986	597.4
258.37	618.6
258.754	606.6
259.138	615.6
259.522	628
259.906	611
260.29	624.4
260.675	613.2
261.059	614.6
261.443	603.4
261.828	623
262.212	614
262.597	608.2
262.981	603.4
263.366	632.4
263.751	617
264.136	602.6
264.521	602.6
264.906	606.8
265.291	627.4
265.676	608.2
266.061	619.6
266.446	634.8
266.831	621.6
267.217	638
267.602	612
267.987	617
268.373	608
268.759	626.2
269.144	617.6
269.53	617.8
269.916	616.6
270.302	611.6
270.688	619.6
271.074	620.6
271.46	623.6
271.846	642.4
272.232	619.6
272.618	608.2
273.004	623.4
273.391	626.2
273.777	629.4
274.164	621
274.55	632.4
274.937	620
275.324	611.6
275.71	619.6
276.097	626.4
276.484	607.4
276.871	619.4
277.258	620.6
277.645	606
278.032	615.8
278.419	603.6
278.807	619.2
279.194	613.6
279.581	611.8
279.969	622.4
280.356	615.8
280.744	620.4
281.131	641.2
281.519	624.4
281.907	616.4
282.295	605.4
282.682	632.6
283.07	635.6
283.458	624.6
283.846	634.4
284.235	632.4
284.623	623
285.011	608.4
285.399	617.4
285.788	613.4
286.176	598
286.565	633
286.953	611.6
287.342	609.4
287.731	614.8
288.119	602.2
288.508	601.4
288.897	612.8
289.286	599.2
289.675	622.8
290.064	628
290.453	599.2
290.821	609
291.21	623.4
291.599	617.2
291.989	614
292.378	622.2
292.768	637.2
293.157	616.6
293.547	616.6
293.936	610.8
294.326	616.4
294.716	619.2
295.106	618.8
295.496	618.8
295.886	624.2
296.276	607.4
296.666	602.8
297.056	606.2
297.446	605.8
297.836	631
298.227	607.6
298.617	616
299.008	624.4
299.398	609.2
299.789	608.8
300.179	626.8
300.57	620.4
300.961	609
301.352	610.8
301.742	626.4
302.133	612
302.524	610
302.915	613.4
303.307	607.4
303.698	615.2
304.089	622.4
304.48	615.2
304.872	623.4
305.263	615.2
305.655	609
306.046	624.6
306.438	624
306.829	609
307.221	630
307.613	624.4
308.005	626.2
308.397	629.8
308.789	642.6
309.181	637.6
309.573	636
309.965	634
310.357	623.6
310.749	622.2
311.142	605.6
311.534	611.2
311.926	618.8
312.319	620.6
312.711	611.6
313.104	629.4
313.497	615.6
313.889	662
314.282	629
314.675	632.6
315.068	627.4
315.461	622
315.854	644.8
316.247	619.2
316.64	619.6
317.033	611.4
317.405	626.2
317.798	619.6
318.192	620.2
318.585	611.2
318.979	627.2
319.372	618.2
319.766	616.6
320.16	633.4
320.553	634.4
320.947	635
321.341	617.8
321.735	619.4
322.129	608.2
322.523	639.4
322.917	612.2
323.311	630.2
323.705	623
324.099	625.2
324.494	634.6
324.888	629.8
325.282	620.2
325.677	636.4
326.071	619
326.466	625.2
326.861	619.6
327.255	628.8
327.65	627.6
328.045	636.4
328.44	615.6
328.835	610.4
329.23	605
329.625	632.8
330.02	610.8
330.415	635.4
330.81	617.8
331.206	619.4
331.601	609.8
331.996	621
332.37	641.2
332.766	612.4
333.161	636
333.557	609
333.953	623.6
334.348	978.8
334.744	605.6
335.14	619.6
335.536	609.4
335.932	625.8
336.328	613.8
336.724	625.6
337.12	619.4
337.516	625
337.913	619.4
338.309	624.8
338.705	613.2
339.102	626.4
339.498	610.8
339.895	633
340.291	611.4
340.688	629.2
341.085	606.8
341.481	620.4
341.878	624.8
342.275	634.4
342.672	611.8
343.069	613
343.466	604
343.842	622.4
344.239	610.6
344.636	612.8
345.033	611
345.431	600.6
345.828	621.2
346.225	609.2
346.623	650.4
347.02	606.4
347.418	618.2
347.816	629.4
348.213	600.4
348.611	623
349.009	599.8
349.407	622
349.805	607
350.203	601.2
350.601	621.8
350.999	614.4
351.397	668.4
351.795	611.6
352.193	621.6
352.57	627
352.969	623.4
353.367	600.6
353.766	615.6
354.164	617
354.563	627
354.961	606
355.36	608.4
355.759	616.6
356.158	600.6
356.557	605.8
356.956	601.6
357.355	600.8
357.754	613
358.153	616
358.552	635
358.951	616
359.35	626.4
359.75	617.4
360.149	608.4
360.527	598.4
360.926	607
361.326	610.6
361.726	607.4
362.125	606.2
362.525	623
362.925	613.4
363.325	603.8
363.724	617
364.124	601.8
364.524	606.8
364.924	606.8
365.324	620.2
365.725	599.6
366.125	611.8
366.525	612
366.904	606.4
367.304	589.6
367.705	622.6
368.105	621
368.506	610.4
368.906	609.2
369.307	606.4
369.708	619.2
370.108	604.8
370.509	620.4
370.91	605
371.311	608
371.712	608.6
372.113	612
372.514	598.2
372.894	615
373.295	596
373.696	620.4
374.097	615.4
374.499	644
374.9	611.4
375.301	610.8
375.703	612
376.105	604.6
376.506	611.4
376.908	617
377.309	608.4
377.711	606
378.113	609.4
378.493	607.4
378.895	613.8
379.297	604
379.699	609.4
380.102	620.8
380.504	608.8
380.906	607.6
381.308	634
381.71	599.8
382.113	615.2
382.515	602.2
382.918	613.2
383.299	597.6
383.701	613
384.104	611.4
384.507	594.2
384.909	602
385.312	595.4
385.715	594.2
386.118	598.8
386.521	596.2
386.924	610.6
387.327	602
387.709	588.2
388.112	592.6
388.515	597.8
388.918	607.6
389.322	609
389.725	607.6
390.129	629
390.532	610.4
390.936	599.4
391.339	605.4
391.743	604.4
392.125	607.2
392.529	616.4
392.933	619.6
393.337	598.4
393.74	602.4
394.144	602
394.548	593.2
394.953	600
395.357	614.8
395.761	607.6
396.144	601.2
396.548	601.6
396.952	604.4
397.357	603.6
397.761	601
398.166	601.4
398.57	607.8
398.975	588.2
399.379	612.4
399.763	657
400.168	611.2
400.572	603.2
400.977	599.6
401.382	624.4
401.787	609
402.192	629.4
402.597	611.6
403.002	595.8
403.386	629.4
403.791	623.2
404.197	617.2
404.602	610.8
405.007	613
405.413	601.4
405.818	609.8
406.224	597.6
406.608	611.2
407.014	602.2
407.42	624.8
407.825	609.4
408.231	622.6
408.637	614.8
409.043	616.4
409.449	600.4
409.834	603.2
410.24	605.8
410.646	618.6
411.052	617.8
411.458	611.8
411.865	613.2
412.271	617.2
412.677	609
413.062	612.4
413.469	600.8
413.875	631.4
414.282	624.6
414.689	610
415.095	613.6
415.502	604.4
415.888	607.2
416.294	592.4
416.701	641.6
417.108	597.8
417.515	617.6
417.923	610.2
418.33	633.8
418.715	624.2
419.123	610.8
419.53	603.4
419.937	613.8
420.345	624.4
420.752	602.2
421.16	625.2
421.546	606.8
421.953	613.2
422.361	600.8
422.769	615.6
423.177	604
423.585	620.4
423.992	630.2
424.379	626.8
424.787	619.6
425.195	625.8
425.603	608
426.011	619.6
426.419	623.6
426.806	614.8
427.214	609.6
427.623	623.4
428.031	629.6
428.44	616.6
428.848	617.8
429.235	623.4
429.644	608.4
430.053	616
430.461	621.4
430.87	645
431.279	620.6
431.666	605.2
432.075	612.4
432.484	617
432.893	612.8
433.302	637.4
433.711	654.2
434.099	621.4
434.508	608.4
434.918	608.8
435.327	623.8
435.737	612.4
436.125	605.6
436.534	610.8
436.944	610.2
437.353	627.8
437.763	633.4
438.173	601.2
438.561	626.6
438.971	601.6
439.381	608.4
439.791	611.6
440.201	596
440.589	613.4
440.999	619.8
441.409	612.8
441.819	597.4
442.23	619
442.619	616
443.029	616.2
443.439	616.2
443.85	621.2
444.26	636.6
444.649	623
445.06	612
445.471	604.6
445.881	618.6
446.292	626.2
446.682	637
447.092	604
447.503	669.8
447.914	619.6
448.325	619.2
448.715	617.8
449.126	625
449.537	617.8
449.948	627.6
450.338	615.8
450.75	631
451.161	620.2
451.572	631.6
451.984	612.6
452.374	611
452.786	613.6
453.197	624.2
453.609	625
453.999	606.2
454.411	611.2
454.823	636.8
455.235	616.4
455.647	617.6
456.037	621.8
456.449	602.2
456.862	610.8
457.274	609.4
457.665	611.6
458.077	626.4
458.489	644
458.902	616.4
459.293	614.8
459.705	608.4
460.118	617.6
460.53	615.8
460.921	607.8
461.334	619.4
461.747	612.8
462.16	626.4
462.551	617.2
462.964	609.6
463.377	596
463.79	615.4
464.182	628.4
464.595	602.6
465.008	613.4
465.421	609.6
465.813	601.4
466.226	617.6
466.64	605.6
467.053	656.8
467.445	616.8
467.859	627.2
468.272	606.6
468.686	626
469.078	606.4
469.492	599.6
469.906	619.4
470.298	617.2
470.712	605.4
471.126	656.6
471.54	594.4
471.933	595.8
472.347	606.6
472.761	599.8
473.175	607.8
473.568	600.2
473.982	597.2
474.397	606.6
474.79	601.8
475.204	611.2
475.619	604.8
476.033	611.4
476.426	605.4
476.841	605
477.256	630.6
477.649	604.2
478.064	586
478.479	598.8
478.872	596.8
479.287	584.8
479.702	586.2
480.118	604.6
480.511	599.8
480.927	593.4
481.342	595.8
481.736	601.2
482.151	591.6
482.566	602.2
482.96	603.8
483.376	611.8
483.792	593.8
484.186	600.8
484.602	595.8
485.017	607.4
485.412	596.6
485.827	611.2
486.243	599.4
486.638	625
487.054	603.6
487.47	615.6
487.865	593.8
488.281	594.6
488.697	591.8
489.092	592.4
489.508	596
489.925	604.8
490.32	591.4
490.736	602.6
491.153	595
491.548	601.4
491.964	612.4
492.381	584.2
492.776	605.6
493.193	607
493.61	612.8
494.006	591.4
494.422	613.2
494.84	600.8
495.235	607.4
495.652	598.4
496.069	600
496.465	584.4
496.883	597.6
497.3	630
497.696	595.8
498.113	610.4
498.509	587.6
498.927	591.8
499.344	591.2
499.741	594.2
500.158	596.6
500.576	611.4
500.973	602.4
501.39	593
501.787	586
502.205	600.6
502.623	596.8
503.02	589.2
503.438	584.2
503.856	590.6
504.253	601
504.671	606.8
505.068	593.8
505.486	596.2
505.905	618.2
506.302	597.4
506.72	613.2
507.118	598.6
507.536	591.8
507.955	600.8
508.352	603.6
508.771	600.6
509.169	613.2
509.587	589.2
510.006	600
510.404	597.8
510.823	589.4
511.221	594.6
511.64	600.2
512.038	615.6
512.457	590.2
512.877	601.2
513.275	592.4
513.694	598.4
514.092	597
514.512	595.8
514.91	603.4
515.33	593.6
515.749	598
516.148	601
516.568	601
516.966	597
517.386	589
517.785	597.4
518.205	593
518.603	592.4
519.024	593.4
519.444	601
519.843	606.4
520.263	608.2
520.662	612.4
521.082	593.8
521.481	593.4
521.902	594.8
522.301	603
522.722	603.2
523.121	592.2
523.542	594.8
523.963	604
524.362	602.4
524.783	607.6
525.183	597.8
525.604	600.6
526.003	592
526.425	590.6
526.824	603
527.246	602.8
527.646	611.6
528.067	599.8
528.467	610
528.888	607.2
529.289	592.4
529.71	603.4
530.11	600.2
530.532	597.8
530.932	588.6
531.354	590.2
531.755	640
532.176	604.6
532.577	602.8
532.999	603.6
533.4	595.6
533.822	604.8
534.223	616.4
534.645	602
535.046	600.2
535.468	603
535.869	607.8
536.292	594.6
536.693	625.6
537.115	606.6
537.516	600.2
537.939	599
538.34	614.8
538.742	618.2
539.165	600.6
539.566	598.4
539.989	593.6
540.391	592
540.814	598.2
541.216	594.8
541.639	604.8
542.041	610
542.464	596.4
542.866	594.4
543.268	593.8
543.691	599.4
544.093	603.2
544.517	617.4
544.919	588.2
545.343	625.6
545.745	594.4
546.147	605
546.571	600.4
546.974	592.4
547.398	608.8
547.8	606.8
548.224	597.8
548.627	597.4
549.03	608.2
549.454	601
549.857	597
550.281	599.8
550.684	599.4
551.087	608
551.512	600
551.915	611.8
552.34	596.4
552.743	591.4
553.146	608
553.571	603.8
553.975	622.2
554.399	590.6
554.803	650.4
555.207	591
555.632	596.4
556.036	607.8
556.461	589.2
556.865	607.4
557.268	593.8
557.694	601
558.098	607
558.502	606.2
558.927	592.8
559.332	596.4
559.736	600
560.162	595.4
560.566	600.4
560.992	606
561.396	599.4
561.801	604
562.227	600.8
562.631	591.6
563.036	601.2
563.462	608.8
563.867	603.2
564.272	593
564.698	608.8
565.103	594.4
565.508	609.8
565.935	607.8
566.34	595
566.745	610.2
567.172	594.6
567.577	624.2
567.982	612.6
568.409	596.4
568.815	587
569.22	597.6
569.626	604.6
570.053	582.2
570.459	602.4
570.865	612.2
571.292	607.8
571.698	609.6
572.104	586.8
572.531	593.4
572.937	612.6
573.343	595.8
573.75	594.4
574.177	598.8
574.583	606.2
574.99	600.2
575.396	601.8
575.824	596.4
576.231	609.8
576.637	597
577.065	622
577.472	594.2
577.879	582.4
578.286	604
578.714	597.2
579.121	594.4
579.528	599
579.935	609.4
580.364	589.6
580.771	578
581.178	589.8
581.585	602.4
582.014	593.2
582.421	595
582.829	584
583.236	604
583.644	578.8
584.073	586.2
584.481	591.8
584.889	596.4
585.296	607.8
585.726	596.6
586.134	586.8
586.542	593.6
586.95	614.2
587.358	583.6
587.787	594.2
588.196	599.2
588.604	595.6
589.012	586
589.421	582.4
589.851	587.8
590.259	595.2
590.668	588.6
591.076	625.6
591.485	595.8
591.894	585.8
592.324	605.2
592.733	601.6
593.142	575.8
593.551	586.4
593.96	631
594.369	588.8
594.8	584
595.209	595
595.618	578.2
596.028	594.2
596.437	578.2
596.847	599.8
597.256	593.8
597.687	598.6
598.097	587.2
598.507	589
598.917	587.4
599.327	605.6
599.736	596.4
600.146	608.4
600.556	593.2
600.988	601.2
601.398	591.4
601.808	601
602.219	579.6
602.629	593.4
603.039	594.8
603.45	615
603.86	596
604.271	612.8
604.703	599.2
605.114	594
605.525	602.2
605.935	603.2
606.346	608.2
606.757	603.6
607.168	592.6
607.579	583.4
607.99	609.4
608.402	595.2
608.813	600.4
609.224	584.4
609.636	584.4
610.047	591
610.48	588
610.892	597
611.303	606
611.715	593.4
612.127	587.4
612.539	586.8
612.95	597
613.362	577.4
613.774	578
614.186	587.2
614.599	586.2
615.011	598.2
615.423	598
615.835	579.8
616.248	589
616.66	593.2
617.073	578.6
617.485	587.6
617.898	595.2
618.311	594.4
618.723	588.4
619.136	619.4
619.549	603.2
619.962	612
620.375	593.4
620.788	593.6
621.201	582.4
621.614	601
622.028	595.4
622.441	594.6
622.854	608.4
623.268	578.8
623.681	595.8
624.095	587.4
624.509	601.8
624.922	588
625.336	587.4
625.728	588.2
626.142	601.6
626.556	596.6
626.97	605.2
627.384	587.2
627.799	595.6
628.213	591.4
628.627	598
629.041	586.8
629.456	584.4
629.87	603.6
630.285	608.6
630.699	597.2
631.093	595.6
631.507	602.6
631.922	591
632.337	600.2
632.752	579.2
633.167	595.6
633.582	586.2
633.997	585.2
634.412	584.8
634.806	591.8
635.221	575.2
635.637	594.6
636.052	584
636.468	591.2
636.883	610.2
637.299	587.8
637.715	574.4
638.109	587
638.525	577
638.941	597.6
639.357	589.2
639.773	597.2
640.189	575.4
640.584	587.6
641	593
641.416	578
641.832	580.4
642.249	583.4
642.665	585
643.06	591.6
643.477	596.8
643.894	574.6
644.31	591.8
644.727	597.4
645.123	590.4
645.54	580.2
645.957	593
646.374	604.2
646.77	589.2
647.187	622.8
647.604	596.2
648.021	574.2
648.439	582.4
648.835	582.6
649.252	590
649.67	590.8
650.088	583
650.484	592.2
650.902	589
651.32	595.8
651.738	587.6
652.134	586
652.552	607.8
652.971	595.8
653.389	589.6
653.786	602.8
654.204	618
654.622	578.6
655.019	586.4
655.438	597.6
655.857	588.4
656.275	595.2
656.673	579
657.091	597.4
657.51	579
657.908	592.6
658.327	607.8
658.746	574
659.144	589
659.563	593.6
659.982	595.2
660.38	584.2
660.8	588.2
661.219	595.4
661.617	596.8
662.037	594
662.457	606.4
662.855	582.8
663.275	625.2
663.695	584.6
664.094	587.6
664.514	591
664.934	577
665.333	595
665.753	581.8
666.152	586
666.572	579.6
666.993	599
667.392	585.4
667.812	583.8
668.212	591
668.632	590.8
669.053	589.4
669.453	592.4
669.874	591.8
670.273	590.4
670.694	573.6
671.116	597.8
671.515	593.8
671.937	584.8
672.337	577
672.758	579.2
673.158	594.8
673.58	579.2
673.98	584
674.402	595.6
674.824	582.8
675.224	582
675.646	578.4
676.047	583
676.469	580.2
676.869	586.2
677.292	593.2
677.693	578.4
678.115	571
678.516	590.2
678.939	591.6
679.34	588.2
679.762	603.6
680.164	593.8
680.586	587.8
680.988	589.2
681.411	607.4
681.812	578
682.236	578.2
682.637	580.2
683.061	572.2
683.462	588.2
683.864	581.6
684.288	595.6
684.69	577.2
685.114	594.8
685.516	594
685.94	574.2
686.342	591
686.766	579.6
687.168	573.6
687.571	596
687.995	589.2
688.398	572.2
688.822	584.8
689.225	587.8
689.628	616.4
690.052	586.2
690.456	589.4
690.88	588.6
691.284	583.6
691.687	591
692.112	585.6
692.515	576.6
692.919	587
693.344	595.8
693.747	583.2
694.173	578.6
694.577	596.4
694.98	583
695.406	589.4
695.81	595
696.214	600
696.64	593.8
697.044	590.2
697.448	596.4
697.874	588.2
698.279	584
698.684	582.6
699.11	577.6
699.514	581.8
699.919	585
700.324	574
700.75	585.8
701.156	587.4
701.561	592.8
701.987	595
702.393	591
702.798	601.2
703.203	582
703.63	579.6
704.036	589
704.442	596.6
704.847	581.8
705.274	586.6
705.68	591.8
706.086	592.4
706.492	574.6
706.92	586
707.326	597.4
707.732	579.2
708.139	587.4
708.545	576.6
708.973	591.4
709.38	587.4
709.786	580.2
710.193	605.8
710.6	591.6
711.028	582.2
711.435	589
711.842	584.8
712.249	581.2
712.656	578.6
713.064	597.6
713.492	576.2
713.9	582.8
714.307	582.4
714.715	577.4
715.123	589.4
715.53	583.6
715.938	598.6
716.367	595.8
716.775	586.2
717.184	587
717.592	578
718	595.2
718.408	622.2
718.816	637.6
719.225	588.4
719.633	594.4
720.042	584.6
720.472	582.4
720.881	602.4
721.29	587.6
721.699	583.4
722.108	590.6
722.517	579.8
722.926	585.6
723.335	593.4
723.744	581.2
724.154	588.6
724.563	591.8
724.973	589.8
725.382	596
725.792	585.6
726.202	575.8
726.612	599.4
727.022	585.2
727.432	584.2
779.813	579.6
780.223	624.2
780.634	587.4
781.044	581.2
781.454	590.4
781.865	603.2
782.276	576.2
782.686	594
783.097	580.8
783.508	592.8
783.919	585.4
784.33	603.8
784.741	603
785.152	580.2
785.563	572.6
785.974	574.8
786.386	598
786.776	581.4
787.188	581.8
787.599	575.8
788.011	591.8
788.423	581.6
788.835	575
789.247	579.2
789.659	569.6
790.071	581.8
790.483	625.8
790.874	574
791.286	595.2
791.699	578
792.111	582
792.524	592.6
792.937	582.8
793.349	576.2
793.741	578.6
794.154	585.6
794.567	602.8
794.98	586.6
795.393	571.2
795.785	595.8
796.198	585
796.612	587.8
797.026	574
797.439	565.8
797.831	578.2
798.245	567.8
798.659	586
799.073	582.2
799.487	576.8
799.88	591.2
800.294	585
800.708	586.6
801.123	591.8
801.516	602
801.93	576.4
802.345	568.8
802.76	579.6
803.153	594.6
803.568	606.8
803.983	587
804.377	594.6
804.792	569.6
805.207	568
805.601	585.2
806.016	622.6
806.432	578.6
806.826	615.8
807.242	596.2
807.658	582.2
808.052	580.2
808.468	575.4
808.884	578.4
809.279	579.4
809.695	599
810.111	607.4
810.506	591
810.922	606.8
811.339	576.4
811.734	582.6
812.151	570.4
812.546	574.6
812.963	584.2
813.38	583.4
813.776	582.2
814.193	598
814.589	580
815.006	574.2
815.402	576.4
815.82	583.2
816.237	589.8
816.633	584.8
817.051	574
817.448	584.8
817.866	571.6
818.262	596.4
818.68	577.8
819.077	580.6
819.495	577.2
819.892	616.4
820.311	572
820.708	571.2
821.127	575.8
821.524	584.6
821.943	585.8
822.34	604.6
822.759	573.4
823.157	578.2
823.576	593.8
823.974	582.4
824.393	626
824.791	571
825.189	571.8
825.609	574
826.007	580.4
826.427	567
826.826	582
827.246	587.6
827.644	569.4
828.043	584.8
828.463	581.8
828.862	582.2
829.261	588.8
829.682	567.4
830.081	593.4
830.502	571.2
830.901	587.8
831.301	592.8
831.722	564
832.121	575
832.521	573.6
832.943	579.2
833.342	581
833.742	570.6
834.164	568.2
834.564	566.2
834.965	572.2
835.386	572.4
835.787	577.6
836.188	580.6
836.588	582.2
837.01	580.4
837.411	575.2
837.812	588.2
838.213	585.8
838.636	574
839.037	645.4
839.438	585.2
839.84	580.2
840.263	587
840.664	583.8
841.066	577.4
841.468	587.2
841.891	580
842.293	596
842.695	588.2
843.098	598.4
843.5	577
843.902	588.4
844.326	589.8
844.729	582.2
845.131	593.8
845.534	582.4
845.937	597
846.34	599.8
846.764	572
847.167	581.4
847.571	567.2
847.974	587.8
848.377	577
848.781	622.8
849.184	594
849.588	578.2
849.992	584.4
850.396	584.6
850.821	601.2
851.225	587.2
851.63	579.8
852.034	599.8
852.438	586.8
852.843	656.8
853.247	572
853.652	585.6
854.057	597.8
854.462	580.6
854.867	584.8
855.272	615.2
855.677	578
856.082	572.6
856.487	567.8
