#lambda/nm	C1
208.295	515.4
208.67	464.4
209.045	427.2
209.419	431
209.794	615.8
210.169	599
210.544	726.8
210.919	628.6
211.295	609.6
211.67	618.2
212.045	604.8
212.421	617.2
212.796	647.8
213.172	610.6
213.547	609.8
213.923	611
214.299	614.2
214.675	623
215.051	618.6
215.427	615
215.803	631.4
216.179	623.2
216.555	606
216.932	621
217.308	616.2
217.684	608.8
218.061	621.4
218.438	618.2
218.814	605.8
219.191	612.8
219.568	596.8
219.945	609.8
220.322	620.4
220.699	618.8
221.076	621
221.453	622.6
221.83	607.2
222.208	615
222.585	609.2
222.962	617.6
223.34	626.2
223.717	610.6
224.095	613.8
224.473	617.8
224.851	608.8
225.229	603.4
225.607	632.2
225.985	600.2
226.363	625.2
226.741	616.8
227.119	610.8
227.497	626.2
227.876	602.6
228.254	618.6
228.633	619
229.011	615.8
229.39	617
229.769	624
230.148	620
230.527	636.6
230.905	616.8
231.284	614.4
231.664	609.8
232.043	627.6
232.422	622.6
232.801	614.4
233.181	615.8
233.56	611.6
233.94	613.8
234.319	604.6
234.699	610.2
235.079	651.4
235.458	646.4
235.838	636
236.218	601.6
236.598	604.6
236.978	611.4
237.358	601.8
237.738	607.8
238.119	626.8
238.499	612.8
238.88	618.6
239.26	630.6
239.641	600.2
240.021	607.8
240.402	611.6
240.783	609.8
241.163	607.8
241.544	616.4
241.925	611.6
242.306	629.8
242.687	621.4
243.069	615.2
243.45	621.2
243.831	605.4
244.212	610.6
244.594	655.6
244.975	634.4
245.357	618
245.739	612.6
246.12	624.2
246.502	629
246.884	615.6
247.266	616.6
247.648	618.8
248.03	640
248.412	623.8
248.794	626
249.176	622
249.559	628
249.941	614.2
250.323	604.4
250.706	606.8
251.089	610.4
251.471	617.8
251.854	620.4
252.237	613.6
252.62	621
253.002	622.8
253.385	614.4
253.769	633.4
254.152	619.6
254.535	627.2
254.918	603.6
255.301	615.8
255.685	612
256.068	608.4
256.452	634.8
256.835	625
257.219	620.4
257.603	629.8
257.986	610.2
258.37	624.4
258.754	611.2
259.138	617.2
259.522	626.8
259.906	617.6
260.29	621.6
260.675	617
261.059	618.6
261.443	614
261.828	624
262.212	622
262.597	608
262.981	610.4
263.366	631.4
263.751	617.8
264.136	612
264.521	606.8
264.906	604.8
265.291	630.4
265.676	617.8
266.061	625
266.446	634.8
266.831	623.8
267.217	633
267.602	613.6
267.987	626.8
268.373	617.4
268.759	634.2
269.144	619.8
269.53	616
269.916	617.8
270.302	611.4
270.688	631.2
271.074	623.8
271.46	632
271.846	656
272.232	619
272.618	610.2
273.004	615.6
273.391	630.4
273.777	631.8
274.164	617.4
274.55	635.8
274.937	620.6
275.324	609.4
275.71	619.6
276.097	626
276.484	604.6
276.871	616
277.258	623
277.645	604.4
278.032	613.2
278.419	619.2
278.807	622.6
279.194	605.8
279.581	605.8
279.969	624.8
280.356	621.6
280.744	613.8
281.131	637
281.519	627.2
281.907	614
282.295	605.2
282.682	631.8
283.07	617.8
283.458	628.4
283.846	630.4
284.235	618.8
284.623	628.6
285.011	608
285.399	617.6
285.788	615.4
286.176	604
286.565	615.4
286.953	616.4
287.342	615
287.731	612.2
288.119	614.6
288.508	614.2
288.897	623.2
289.286	603.8
289.675	621.2
290.064	630.8
290.453	614
290.821	614.6
291.21	632.4
291.599	610.6
291.989	615.2
292.378	620.6
292.768	634.6
293.157	621.2
293.547	615
293.936	612
294.326	604.6
294.716	613.2
295.106	606.2
295.496	622.8
295.886	622
296.276	615
296.666	600.4
297.056	604
297.446	604
297.836	628
298.227	604.2
298.617	614
299.008	625.4
299.398	611.8
299.789	606.8
300.179	621
300.57	630.4
300.961	617.6
301.352	621.6
301.742	628.2
302.133	619.2
302.524	616.6
302.915	612.8
303.307	600.4
303.698	637.8
304.089	614.8
304.48	615.4
304.872	623.8
305.263	622.2
305.655	609.4
306.046	623.2
306.438	623
306.829	618.6
307.221	632
307.613	619.2
308.005	632
308.397	630.2
308.789	632.6
309.181	648.2
309.573	633.4
309.965	628
310.357	613.8
310.749	628.2
311.142	613.2
311.534	613
311.926	625.8
312.319	617.2
312.711	611.2
313.104	627.4
313.497	619.6
313.889	652.2
314.282	635
314.675	636.6
315.068	620
315.461	626.8
315.854	647.6
316.247	626
316.64	615.4
317.033	613.2
317.405	629.2
317.798	618.8
318.192	619.6
318.585	612.8
318.979	621.6
319.372	607.2
319.766	609.2
320.16	626.8
320.553	628.8
320.947	633.8
321.341	620.2
321.735	625
322.129	608.4
322.523	640
322.917	604.6
323.311	633
323.705	624
324.099	618.6
324.494	635.2
324.888	626.6
325.282	619
325.677	634.4
326.071	629.6
326.466	621.8
326.861	625
327.255	633.8
327.65	631.2
328.045	626.8
328.44	619.6
328.835	621.8
329.23	606
329.625	643.4
330.02	609.2
330.415	626.4
330.81	617.6
331.206	615.2
331.601	602.8
331.996	621
332.37	639.4
332.766	609.2
333.161	638.8
333.557	617.2
333.953	618.6
334.348	892.2
334.744	614.6
335.14	605
335.536	618
335.932	630.2
336.328	617
336.724	624.2
337.12	617.2
337.516	615
337.913	621.4
338.309	628.2
338.705	619.6
339.102	622.8
339.498	613
339.895	622.4
340.291	612
340.688	629.2
341.085	615.4
341.481	621.6
341.878	613.8
342.275	637.2
342.672	613.6
343.069	613
343.466	602.6
343.842	625.8
344.239	611.2
344.636	618.6
345.033	607.6
345.431	613.4
345.828	618.4
346.225	606
346.623	648.4
347.02	612
347.418	624.8
347.816	635.2
348.213	603
348.611	622.4
349.009	599.2
349.407	633.6
349.805	610.8
350.203	603
350.601	637.6
350.999	620.6
351.397	670
351.795	625.4
352.193	622
352.57	627.6
352.969	627
353.367	608.6
353.766	601.4
354.164	611.2
354.563	627.8
354.961	613.4
355.36	614
355.759	603.8
356.158	607.4
356.557	608
356.956	599.8
357.355	600.8
357.754	621.6
358.153	612.8
358.552	638.6
358.951	617.4
359.35	626.8
359.75	613
360.149	604.2
360.527	607.2
360.926	606.8
361.326	616.4
361.726	619.6
362.125	613.2
362.525	615.6
362.925	606.4
363.325	621.2
363.724	613.8
364.124	603.4
364.524	606.8
364.924	611.2
365.324	629.6
365.725	599.2
366.125	612.8
366.525	611.4
366.904	599.2
367.304	605.4
367.705	633.4
368.105	627.4
368.506	608.4
368.906	608.6
369.307	613
369.708	619.8
370.108	596
370.509	618.6
370.91	611.6
371.311	611.2
371.712	613
372.113	607.6
372.514	597.4
372.894	607.2
373.295	607.6
373.696	618
374.097	614.8
374.499	637.6
374.9	602.4
375.301	603.4
375.703	617.6
376.105	608.8
376.506	614.2
376.908	615.8
377.309	611.8
377.711	621.2
378.113	609.4
378.493	614.4
378.895	599
379.297	613.2
379.699	600.2
380.102	613
380.504	620.6
380.906	613
381.308	631
381.71	601.6
382.113	616.2
382.515	603.2
382.918	618.2
383.299	604.2
383.701	619.4
384.104	605.4
384.507	594.4
384.909	611.2
385.312	594.2
385.715	604.8
386.118	604.6
386.521	598.2
386.924	611.6
387.327	598.2
387.709	597.4
388.112	598.8
388.515	607.6
388.918	615
389.322	611.6
389.725	607.6
390.129	627.6
390.532	616
390.936	604
391.339	597.6
391.743	611
392.125	600.4
392.529	611.8
392.933	617.6
393.337	597.8
393.74	608.8
394.144	599.8
394.548	600.6
394.953	602.8
395.357	616.4
395.761	600.8
396.144	607.6
396.548	599.8
396.952	602.6
397.357	606.6
397.761	600.4
398.166	596.4
398.57	606.6
398.975	591.6
399.379	606.2
399.763	655.6
400.168	605.8
400.572	602.2
400.977	610
401.382	629
401.787	612.8
402.192	618.6
402.597	624.4
403.002	592.6
403.386	616
403.791	629
404.197	607.2
404.602	620.6
405.007	618.6
405.413	606.6
405.818	611.4
406.224	600.4
406.608	605
407.014	600.8
407.42	630
407.825	601.4
408.231	618.6
408.637	614.4
409.043	622.6
409.449	610.4
409.834	598
410.24	610.4
410.646	615
411.052	618.2
411.458	614.6
411.865	607.2
412.271	614.2
412.677	609.4
413.062	604.2
413.469	601.2
413.875	628.2
414.282	618.6
414.689	608.2
415.095	618
415.502	590.4
415.888	606
416.294	588.8
416.701	637.6
417.108	600
417.515	616.4
417.923	600
418.33	627.4
418.715	620
419.123	609.6
419.53	608.2
419.937	609.2
420.345	626.8
420.752	605.2
421.16	629.2
421.546	615
421.953	616.6
422.361	601.8
422.769	604.6
423.177	602.2
423.585	631.6
423.992	632.6
424.379	629
424.787	618.2
425.195	632
425.603	606.8
426.011	623.8
426.419	619.6
426.806	611.6
427.214	616
427.623	621.6
428.031	626.8
428.44	613.4
428.848	626
429.235	628.2
429.644	611.6
430.053	604.8
430.461	628.4
430.87	631.4
431.279	622.4
431.666	601.4
432.075	609.6
432.484	611.2
432.893	614.2
433.302	628
433.711	663
434.099	616.4
434.508	604.2
434.918	606.6
435.327	612.2
435.737	612.2
436.125	611.6
436.534	617.4
436.944	611
437.353	609.8
437.763	632.4
438.173	598.6
438.561	622.8
438.971	596.4
439.381	604.8
439.791	613
440.201	590.8
440.589	610
440.999	622.6
441.409	616.4
441.819	594.2
442.23	621.4
442.619	615.2
443.029	601.2
443.439	611.6
443.85	616.4
444.26	620.4
444.649	619.2
445.06	611.6
445.471	606.2
445.881	617.6
446.292	628.4
446.682	633
447.092	602.6
447.503	657.2
447.914	614.4
448.325	605.8
448.715	608.6
449.126	599.8
449.537	605.2
449.948	607.2
450.338	608
450.75	615
451.161	609.6
451.572	615.8
451.984	608.6
452.374	590.8
452.786	611.4
453.197	612
453.609	612.8
453.999	597
454.411	593
454.823	614
455.235	610
455.647	604.2
456.037	621
456.449	593.8
456.862	612.8
457.274	602.8
457.665	601
458.077	603
458.489	641.2
458.902	609.2
459.293	607
459.705	610.6
460.118	602.2
460.53	611.2
460.921	602
461.334	611.8
461.747	609
462.16	621.6
462.551	618.4
462.964	610.8
463.377	600.4
463.79	599.6
464.182	611.8
464.595	605.2
465.008	613.8
465.421	616.8
465.813	603.2
466.226	615.4
466.64	596.2
467.053	650.2
467.445	612
467.859	622.8
468.272	610.4
468.686	625
469.078	608.2
469.492	605.8
469.906	600.2
470.298	615.6
470.712	606.8
471.126	652.6
471.54	591
471.933	596.8
472.347	601.8
472.761	600.2
473.175	592.8
473.568	598
473.982	589.2
474.397	604.8
474.79	603
475.204	611.2
475.619	604.2
476.033	615.4
476.426	607.6
476.841	597.2
477.256	621.6
477.649	597
478.064	593.2
478.479	606.6
478.872	596.4
479.287	595.4
479.702	595.8
480.118	602.8
480.511	595
480.927	608.6
481.342	593.2
481.736	605.6
482.151	597.8
482.566	616.2
482.96	601.4
483.376	618.8
483.792	595.6
484.186	607.2
484.602	600.2
485.017	601.6
485.412	595.4
485.827	598.2
486.243	603.4
486.638	621.4
487.054	610.6
487.47	612.8
487.865	595.6
488.281	591
488.697	594.4
489.092	594.6
489.508	586.6
489.925	610
490.32	588.2
490.736	600.2
491.153	603.4
491.548	598
491.964	604
492.381	580.8
492.776	609.6
493.193	595.2
493.61	599.4
494.006	603.2
494.422	599.2
494.84	593.8
495.235	603.4
495.652	599.4
496.069	608
496.465	597.6
496.883	605.4
497.3	620.8
497.696	601
498.113	599
498.509	588.4
498.927	591
499.344	599
499.741	589.4
500.158	602.4
500.576	609.8
500.973	596.6
501.39	594.6
501.787	587.4
502.205	602.8
502.623	599
503.02	590.8
503.438	592
503.856	603.8
504.253	601
504.671	603.4
505.068	592.2
505.486	599.6
505.905	613.6
506.302	602.4
506.72	604.8
507.118	597.4
507.536	598.8
507.955	598.6
508.352	607.6
508.771	601.4
509.169	607.6
509.587	585.8
510.006	594.4
510.404	580
510.823	592
511.221	593.6
511.64	598
512.038	609.8
512.457	593.4
512.877	597.4
513.275	595
513.694	591.4
514.092	596.4
514.512	599.6
514.91	603.8
515.33	603.4
515.749	598.4
516.148	595.2
516.568	598.6
516.966	599.6
517.386	598.4
517.785	599.8
518.205	591
518.603	593.2
519.024	591.6
519.444	604.2
519.843	605.4
520.263	605.8
520.662	594.8
521.082	591.6
521.481	607.2
521.902	602.6
522.301	595.4
522.722	594
523.121	597
523.542	595.6
523.963	597.2
524.362	595.4
524.783	599
525.183	593.6
525.604	603.2
526.003	595
526.425	597.2
526.824	604.8
527.246	600
527.646	602.6
528.067	601
528.467	601.2
528.888	603.8
529.289	603.2
529.71	602
530.11	599
530.532	595.6
530.932	594.6
531.354	581.2
531.755	624
532.176	601.2
532.577	600.6
532.999	596.8
533.4	590
533.822	609.2
534.223	610
534.645	590.4
535.046	589.4
535.468	599
535.869	612.6
536.292	597.2
536.693	636
537.115	596.8
537.516	598.6
537.939	594
538.34	621.4
538.742	607.6
539.165	607.8
539.566	599.2
539.989	585.6
540.391	599.2
540.814	601.4
541.216	596.2
541.639	589.6
542.041	602.6
542.464	589.6
542.866	592.2
543.268	590.4
543.691	598.6
544.093	609.6
544.517	612.8
544.919	594
545.343	618.2
545.745	592.6
546.147	604.6
546.571	594.4
546.974	590
547.398	602
547.8	613
548.224	593.2
548.627	596
549.03	604.6
549.454	596.6
549.857	584.2
550.281	581.6
550.684	600.6
551.087	616.4
551.512	601.2
551.915	607.8
552.34	596
552.743	597
553.146	610.6
553.571	596
553.975	608.4
554.399	586.8
554.803	645.6
555.207	597.6
555.632	586.2
556.036	593.4
556.461	590.4
556.865	599
557.268	597.2
557.694	598
558.098	609.2
558.502	596.2
558.927	588.2
559.332	601.6
559.736	594.8
560.162	605.4
560.566	601.8
560.992	608.4
561.396	598
561.801	598.4
562.227	596.6
562.631	592.6
563.036	586.8
563.462	602
563.867	595.6
564.272	579.8
564.698	595.4
565.103	583.6
565.508	615.8
565.935	603.4
566.34	588.6
566.745	605
567.172	590.8
567.577	615.4
567.982	611
568.409	608
568.815	588.8
569.22	594.8
569.626	598.2
570.053	583.4
570.459	594.8
570.865	596.2
571.292	599.4
571.698	592.4
572.104	592
572.531	590
572.937	608.2
573.343	594.4
573.75	595.8
574.177	600.6
574.583	605.6
574.99	594.6
575.396	604.6
575.824	590.8
576.231	608.6
576.637	585.6
577.065	618.8
577.472	594.2
577.879	590.8
578.286	612
578.714	583.8
579.121	596
579.528	595.8
579.935	603
580.364	596.6
580.771	574
581.178	588
581.585	595.4
582.014	599.2
582.421	588.4
582.829	590.4
583.236	604.8
583.644	594.8
584.073	584
584.481	594.8
584.889	584
585.296	594.8
585.726	591.4
586.134	578
586.542	586.8
586.95	604.4
587.358	578
587.787	599
588.196	599.2
588.604	592.6
589.012	587.4
589.421	585.6
589.851	592.2
590.259	597.8
590.668	591.4
591.076	636
591.485	588
591.894	598.8
592.324	609.4
592.733	598.6
593.142	586.6
593.551	584.6
593.96	599.4
594.369	585
594.8	592.4
595.209	590.8
595.618	578.8
596.028	578.8
596.437	589
596.847	591
597.256	599
597.687	600.6
598.097	591.4
598.507	583
598.917	600.2
599.327	604.2
599.736	593.8
600.146	608.8
600.556	604.2
600.988	600.4
601.398	590.8
601.808	601
602.219	582.6
602.629	588.4
603.039	596
603.45	621.6
603.86	591.4
604.271	606.2
604.703	594
605.114	590
605.525	593
605.935	602.8
606.346	610.6
606.757	599.4
607.168	587
607.579	589.8
607.99	607
608.402	587.2
608.813	593.8
609.224	582.4
609.636	585
610.047	596.4
610.48	600.4
610.892	597.2
611.303	596
611.715	594.6
612.127	580.4
612.539	589.6
612.95	593
613.362	587.4
613.774	576.8
614.186	583.6
614.599	581.6
615.011	609
615.423	600.8
615.835	587.4
616.248	586.8
616.66	597.8
617.073	584.4
617.485	598.2
617.898	598.8
618.311	592.6
618.723	588.4
619.136	618.6
619.549	606
619.962	619.6
620.375	595.8
620.788	597.8
621.201	585.2
621.614	596.2
622.028	589.8
622.441	592
622.854	605.6
623.268	585.6
623.681	588
624.095	590.2
624.509	598.6
624.922	599.4
625.336	585.6
625.728	588.8
626.142	594.8
626.556	594.6
626.97	588.2
627.384	591
627.799	587
628.213	602.6
628.627	583.4
629.041	592
629.456	596.2
629.87	590.8
630.285	597
630.699	600.8
631.093	584
631.507	587
631.922	597.2
632.337	606.6
632.752	581
633.167	586.2
633.582	595.8
633.997	596.4
634.412	584.4
634.806	588.6
635.221	587.2
635.637	606
636.052	584
636.468	591.8
636.883	609
637.299	590.4
637.715	572.2
638.109	588.4
638.525	574.4
638.941	603.4
639.357	596
639.773	606.6
640.189	589.2
640.584	595.4
641	593.8
641.416	580.4
641.832	585.6
642.249	591.6
642.665	590.2
643.06	597
643.477	597
643.894	577.2
644.31	596.2
644.727	590
645.123	593.8
645.54	588.2
645.957	592.8
646.374	599.6
646.77	595.4
647.187	626.8
647.604	581.8
648.021	584
648.439	585.8
648.835	585.4
649.252	595.8
649.67	590
650.088	593
650.484	596
650.902	600
651.32	599.6
651.738	591.6
652.134	593.6
652.552	608.8
652.971	598.2
653.389	594.2
653.786	600.6
654.204	606.4
654.622	585.2
655.019	583
655.438	590.8
655.857	601.2
656.275	587.2
656.673	586
657.091	601.2
657.51	587.2
657.908	598.6
658.327	602.8
658.746	574.6
659.144	581.4
659.563	607.2
659.982	591.2
660.38	583.8
660.8	593.2
661.219	600.8
661.617	589.4
662.037	596.4
662.457	600
662.855	578.8
663.275	614.8
663.695	589.6
664.094	595.4
664.514	590.6
664.934	584.8
665.333	595.2
665.753	587.4
666.152	584.4
666.572	585.2
666.993	605.2
667.392	585
667.812	586
668.212	589.8
668.632	599.6
669.053	591.8
669.453	594.4
669.874	588.4
670.273	592
670.694	584.8
671.116	599.2
671.515	593.6
671.937	592.6
672.337	591.4
672.758	584.8
673.158	597.8
673.58	580
673.98	597.8
674.402	599.6
674.824	587.8
675.224	579
675.646	587
676.047	591.2
676.469	590
676.869	593.4
677.292	593.8
677.693	593.4
678.115	586.2
678.516	591.4
678.939	597.2
679.34	586.6
679.762	591
680.164	600.2
680.586	580.8
680.988	591.6
681.411	614.4
681.812	582
682.236	577.2
682.637	571.4
683.061	571.8
683.462	591
683.864	581.4
684.288	587.8
684.69	580.6
685.114	587.8
685.516	597.2
685.94	581.6
686.342	591.2
686.766	580.6
687.168	579.6
687.571	607.2
687.995	587
688.398	577
688.822	589
689.225	603.4
689.628	603.4
690.052	578.6
690.456	597.8
690.88	587.2
691.284	574.8
691.687	600.6
692.112	580.2
692.515	587.8
692.919	594.8
693.344	599.6
693.747	583.6
694.173	578.2
694.577	605.8
694.98	580.2
695.406	587.6
695.81	588
696.214	593.2
696.64	592.8
697.044	592
697.448	607.4
697.874	580.8
698.279	587.4
698.684	574.4
699.11	589.4
699.514	575.2
699.919	581.6
700.324	570.8
700.75	594.2
701.156	583.8
701.561	595.8
701.987	595.8
702.393	593.6
702.798	594
703.203	584.4
703.63	576
704.036	577
704.442	585
704.847	585.4
705.274	583.6
705.68	590.6
706.086	597.6
706.492	575
706.92	585.4
707.326	594.6
707.732	585.4
708.139	580.4
708.545	577.6
708.973	583.6
709.38	583.6
709.786	572.2
710.193	602.4
710.6	590.6
711.028	582
711.435	591.8
711.842	580.8
712.249	582.8
712.656	587.6
713.064	602
713.492	576.8
713.9	589
714.307	589.2
714.715	583.4
715.123	581.6
715.53	588.6
715.938	588
716.367	591
716.775	583
717.184	578.2
717.592	586
718	597
718.408	621.8
718.816	625.2
719.225	587.6
719.633	583.2
720.042	574.8
720.472	576.4
720.881	598.8
721.29	592
721.699	573.8
722.108	589.2
722.517	585.8
722.926	579
723.335	594
723.744	592
724.154	585.2
724.563	592
724.973	594.6
725.382	591
725.792	590.8
726.202	576.4
726.612	606
727.022	584
727.432	583.4
779.813	590.2
780.223	635.4
780.634	585.2
781.044	575.8
781.454	587.6
781.865	593.8
782.276	574.8
782.686	592.4
783.097	582.8
783.508	583.6
783.919	588.8
784.33	607.4
784.741	596.6
785.152	575
785.563	571.8
785.974	574.6
786.386	601.4
786.776	588.8
787.188	595.4
787.599	574
788.011	597.8
788.423	589.6
788.835	573.8
789.247	581.2
789.659	576.6
790.071	588.8
790.483	627.8
790.874	586.6
791.286	590.8
791.699	586.4
792.111	589
792.524	585.4
792.937	577.8
793.349	584.4
793.741	577.4
794.154	586.6
794.567	608.6
794.98	589.2
795.393	570
795.785	602.4
796.198	581.2
796.612	589.8
797.026	584
797.439	565.4
797.831	581.4
798.245	574.2
798.659	578.4
799.073	581.2
799.487	584
799.88	580
800.294	577.4
800.708	587.8
801.123	585.4
801.516	600.6
801.93	570
802.345	573
802.76	589.8
803.153	600.8
803.568	595
803.983	593.8
804.377	587.8
804.792	573.2
805.207	570.2
805.601	589
806.016	617.4
806.432	574.8
806.826	620.8
807.242	597.8
807.658	594
808.052	581.8
808.468	575.2
808.884	585
809.279	584.2
809.695	601.6
810.111	610.2
810.506	592.4
810.922	599.2
811.339	585.2
811.734	600.8
812.151	589.8
812.546	585.2
812.963	574.8
813.38	584.2
813.776	588.8
814.193	602.2
814.589	577.6
815.006	584.6
815.402	582.6
815.82	580
816.237	584.2
816.633	582.8
817.051	576
817.448	585.8
817.866	579.8
818.262	600.2
818.68	585
819.077	582.8
819.495	587.6
819.892	621
820.311	577
820.708	587.2
821.127	577.2
821.524	594.4
821.943	584.2
822.34	599.2
822.759	591.6
823.157	583.6
823.576	602.6
823.974	596.8
824.393	613.6
824.791	579.2
825.189	580.2
825.609	584
826.007	579.2
826.427	570.8
826.826	581.4
827.246	584.8
827.644	570.4
828.043	580.8
828.463	579
828.862	588.8
829.261	590
829.682	562.4
830.081	591.6
830.502	574.4
830.901	582.4
831.301	597.6
831.722	568.6
832.121	582.4
832.521	578.8
832.943	584.6
833.342	566.4
833.742	570.8
834.164	571.6
834.564	580.2
834.965	581.8
835.386	575.4
835.787	575.2
836.188	576.2
836.588	585
837.01	579.8
837.411	583.4
837.812	585.2
838.213	589.4
838.636	573.6
839.037	653
839.438	582.8
839.84	576.4
840.263	592
840.664	585.2
841.066	578.4
841.468	586.6
841.891	581.6
842.293	585.4
842.695	586.2
843.098	588.2
843.5	588
843.902	584.4
844.326	586
844.729	588.8
845.131	599.8
845.534	591
845.937	590
846.34	602.8
846.764	576.4
847.167	585.4
847.571	577.4
847.974	575.6
848.377	578.2
848.781	625.4
849.184	591
849.588	573.6
849.992	572.6
850.396	580.6
850.821	602.8
851.225	579.6
851.63	581.6
852.034	592.4
852.438	581
852.843	651
853.247	576.6
853.652	576.8
854.057	594
854.462	582.8
854.867	584
855.272	610.8
855.677	585.4
856.082	585.8
856.487	567.4
856.893	591.4
857.298	577.2
857.704	573.6
