#lambda/nm	C1
208.295	534.8
208.67	487.6
209.045	451.6
209.419	443.2
209.794	609.8
210.169	584
210.544	705.4
210.919	608.8
211.295	594
211.67	599.4
212.045	603.6
212.421	594
212.796	632
213.172	599
213.547	601
213.923	602
214.299	598.4
214.675	610.2
215.051	609.4
215.427	610
215.803	619.4
216.179	609.4
216.555	592.6
216.932	614.4
217.308	601.6
217.684	596.4
218.061	604.6
218.438	607.2
218.814	601.4
219.191	604.4
219.568	600.8
219.945	596
220.322	614.2
220.699	608.2
221.076	603.4
221.453	612.2
221.83	593.8
222.208	602.2
222.585	603.4
222.962	607.2
223.34	604.8
223.717	608.6
224.095	598.2
224.473	595
224.851	596
225.229	586.4
225.607	615.2
225.985	595.2
226.363	603.8
226.741	602.2
227.119	604.6
227.497	610
227.876	590
228.254	612
228.633	605
229.011	603
229.39	607.8
229.769	607.6
230.148	607.2
230.527	620.2
230.905	601.6
231.284	612.8
231.664	592.2
232.043	619.6
232.422	610
232.801	592.8
233.181	607.6
233.56	610
233.94	603
234.319	592.4
234.699	597
235.079	637.4
235.458	632
235.838	618.4
236.218	597.6
236.598	589.2
236.978	596.2
237.358	593.4
237.738	596.6
238.119	616
238.499	595.2
238.88	605.6
239.26	617.6
239.641	589.2
240.021	586.6
240.402	597.8
240.783	594.8
241.163	592.6
241.544	604.4
241.925	601.8
242.306	616.6
242.687	603.2
243.069	604
243.45	608
243.831	594
244.212	602
244.594	631
244.975	604.2
245.357	598.2
245.739	599.8
246.12	600.8
246.502	616
246.884	602.6
247.266	601.4
247.648	603
248.03	619.2
248.412	609.8
248.794	611.4
249.176	598.4
249.559	611.4
249.941	589.4
250.323	593.8
250.706	601.8
251.089	603.6
251.471	595.8
251.854	610
252.237	600.6
252.62	615.2
253.002	598.2
253.385	598.8
253.769	618.8
254.152	603.8
254.535	608.4
254.918	585.6
255.301	601
255.685	593
256.068	585.4
256.452	618
256.835	607
257.219	605.6
257.603	610.2
257.986	595.2
258.37	606.8
258.754	589
259.138	601.8
259.522	612.2
259.906	595.4
260.29	603.8
260.675	595.4
261.059	603.4
261.443	594.6
261.828	604
262.212	602.6
262.597	593
262.981	590.2
263.366	602.8
263.751	610
264.136	602.8
264.521	599.4
264.906	595.8
265.291	607.4
265.676	597.6
266.061	604.6
266.446	623.8
266.831	608
267.217	616
267.602	613.8
267.987	606
268.373	598.6
268.759	613.6
269.144	600.6
269.53	601.6
269.916	602.4
270.302	600.2
270.688	607.4
271.074	614.8
271.46	606.2
271.846	631.2
272.232	604
272.618	603.4
273.004	601.2
273.391	613.8
273.777	613.6
274.164	609.4
274.55	622
274.937	604.2
275.324	600.8
275.71	608
276.097	608
276.484	593.8
276.871	604.4
277.258	609.4
277.645	593
278.032	603.4
278.419	604.4
278.807	597.8
279.194	597.6
279.581	597.2
279.969	609.2
280.356	600.8
280.744	601.6
281.131	618.2
281.519	603.6
281.907	598.6
282.295	594.4
282.682	616.2
283.07	605
283.458	605.6
283.846	613
284.235	609.8
284.623	606.6
285.011	596.6
285.399	604.8
285.788	594.4
286.176	587.6
286.565	604.6
286.953	589.6
287.342	599.8
287.731	588.2
288.119	593.4
288.508	593.4
288.897	600.8
289.286	581.4
289.675	596.2
290.064	607.6
290.453	598.6
290.821	605.2
291.21	607.2
291.599	593.2
291.989	599.4
292.378	605.6
292.768	623.2
293.157	601.8
293.547	609.8
293.936	605.6
294.326	594.8
294.716	606.4
295.106	600.2
295.496	610.8
295.886	617.2
296.276	596.8
296.666	597.8
297.056	603
297.446	591.6
297.836	618.4
298.227	601.6
298.617	606.6
299.008	614.2
299.398	603.2
299.789	595
300.179	601.8
300.57	619.4
300.961	597.8
301.352	604.2
301.742	602.6
302.133	604.4
302.524	603
302.915	606.2
303.307	606.8
303.698	604.2
304.089	611.2
304.48	603.4
304.872	610.8
305.263	600.8
305.655	596
306.046	601.2
306.438	603.2
306.829	595
307.221	615.8
307.613	607
308.005	613.2
308.397	614.2
308.789	614
309.181	621.6
309.573	613.2
309.965	611.4
310.357	607.2
310.749	605.6
311.142	590.4
311.534	595.2
311.926	608.6
312.319	609.2
312.711	597.8
313.104	607.8
313.497	595.8
313.889	636.6
314.282	616.8
314.675	629.4
315.068	600.2
315.461	606
315.854	628.2
316.247	607.2
316.64	601.4
317.033	608.6
317.405	613.2
317.798	608.2
318.192	615.6
318.585	594.6
318.979	614.6
319.372	596.6
319.766	598.6
320.16	611
320.553	615.4
320.947	614
321.341	596
321.735	605.4
322.129	595
322.523	621.2
322.917	597
323.311	611.6
323.705	610.2
324.099	605.8
324.494	615
324.888	613
325.282	606
325.677	613.6
326.071	604.4
326.466	604.8
326.861	607.6
327.255	620.6
327.65	618
328.045	618
328.44	609.8
328.835	607.2
329.23	594.8
329.625	630.2
330.02	596.8
330.415	633.6
330.81	602
331.206	605.6
331.601	603.6
331.996	610
332.37	624.4
332.766	597.4
333.161	620
333.557	607.6
333.953	603.4
334.348	937.6
334.744	612.4
335.14	593.2
335.536	601.6
335.932	613.4
336.328	608.2
336.724	605
337.12	602
337.516	602
337.913	609.4
338.309	614.6
338.705	599.2
339.102	613.4
339.498	593.4
339.895	608.6
340.291	598.6
340.688	608.4
341.085	597.2
341.481	597
341.878	592.2
342.275	617
342.672	598.2
343.069	600.8
343.466	588
343.842	601.4
344.239	598.4
344.636	602.2
345.033	589.6
345.431	591
345.828	600.6
346.225	594.4
346.623	624
347.02	603.8
347.418	605.6
347.816	618.4
348.213	596.4
348.611	606.8
349.009	594
349.407	607.2
349.805	584.4
350.203	594.8
350.601	614.2
350.999	601.4
351.397	660.6
351.795	599.4
352.193	601.6
352.57	612
352.969	603
353.367	593
353.766	593.4
354.164	598
354.563	606.4
354.961	598.8
355.36	599.4
355.759	605.4
356.158	592.6
356.557	594.2
356.956	594.6
357.355	589.8
357.754	607
358.153	615.8
358.552	625
358.951	605
359.35	609.4
359.75	588
360.149	587.2
360.527	585.6
360.926	593.8
361.326	596.8
361.726	596.4
362.125	592.8
362.525	608
362.925	603.4
363.325	601.8
363.724	599.6
364.124	591.8
364.524	594.8
364.924	597.2
365.324	607.6
365.725	588.4
366.125	606.2
366.525	599.8
366.904	595.6
367.304	585.4
367.705	619.6
368.105	611.6
368.506	593.4
368.906	596
369.307	590.6
369.708	605.6
370.108	586.2
370.509	602.6
370.91	586.6
371.311	597
371.712	606.4
372.113	598.8
372.514	588
372.894	592.6
373.295	595.4
373.696	604.8
374.097	610.8
374.499	623.8
374.9	605.4
375.301	596.6
375.703	603.4
376.105	586
376.506	605.2
376.908	601.6
377.309	584.8
377.711	598.4
378.113	600
378.493	595.4
378.895	586.2
379.297	599.8
379.699	581.2
380.102	603.2
380.504	586.6
380.906	588.2
381.308	617
381.71	596.4
382.113	601
382.515	601.2
382.918	589
383.299	592.8
383.701	600.2
384.104	590
384.507	570.6
384.909	589.4
385.312	582.6
385.715	579.4
386.118	589.4
386.521	578
386.924	603.6
387.327	584.4
387.709	581.4
388.112	577.2
388.515	589
388.918	591.6
389.322	589.6
389.725	585.4
390.129	610.6
390.532	606.6
390.936	590.6
391.339	584.6
391.743	597.2
392.125	593.2
392.529	603
392.933	607.2
393.337	592
393.74	590.8
394.144	594.4
394.548	589
394.953	593.4
395.357	603.4
395.761	591
396.144	604
396.548	599.2
396.952	599.6
397.357	601
397.761	590.8
398.166	592.8
398.57	589.6
398.975	588.6
399.379	595.8
399.763	638.2
400.168	593.8
400.572	595.2
400.977	594.6
401.382	617
401.787	604.4
402.192	606.4
402.597	607.4
403.002	581.6
403.386	601.4
403.791	606.4
404.197	588.4
404.602	595.6
405.007	595.8
405.413	591.8
405.818	589.6
406.224	582.2
406.608	589.6
407.014	587.4
407.42	607
407.825	586.2
408.231	595.4
408.637	597.6
409.043	603.6
409.449	590.2
409.834	586.4
410.24	595
410.646	604.4
411.052	606.8
411.458	599.8
411.865	602.4
412.271	606
412.677	593.8
413.062	604.6
413.469	587.6
413.875	612.6
414.282	611.2
414.689	601.2
415.095	602
415.502	586.2
415.888	598.2
416.294	588.6
416.701	632.2
417.108	598.8
417.515	609.4
417.923	586.6
418.33	608.8
418.715	597.6
419.123	593
419.53	602
419.937	600.2
420.345	612.8
420.752	594.8
421.16	606.2
421.546	603
421.953	599.8
422.361	593.2
422.769	600.2
423.177	598.2
423.585	617.4
423.992	613.4
424.379	610.8
424.787	605
425.195	610.8
425.603	590.6
426.011	602
426.419	613
426.806	603.4
427.214	605.4
427.623	609.2
428.031	619.2
428.44	607.2
428.848	616.8
429.235	617.2
429.644	615.6
430.053	612.8
430.461	629.6
430.87	632.6
431.279	623.8
431.666	617.8
432.075	630.6
432.484	639.8
432.893	634.2
433.302	661.2
433.711	675.4
434.099	657.8
434.508	661.4
434.918	655.2
435.327	675.8
435.737	677.2
436.125	688.2
436.534	694.8
436.944	700.8
437.353	714
437.763	734
438.173	717
438.561	738.4
438.971	715
439.381	739.4
439.791	760.4
440.201	736.6
440.589	761
440.999	774.4
441.409	786
441.819	764.4
442.23	799
442.619	788.6
443.029	793.2
443.439	804.4
443.85	805.6
444.26	819.2
444.649	823
445.06	817.2
445.471	820.6
445.881	828.8
446.292	841.8
446.682	847.8
447.092	820
447.503	874.2
447.914	849.2
448.325	835.8
448.715	850.8
449.126	838.6
449.537	846.6
449.948	851.2
450.338	857.8
450.75	860.8
451.161	858.2
451.572	864.8
451.984	846.6
452.374	850.2
452.786	856.8
453.197	861.8
453.609	868.6
453.999	839
454.411	857.2
454.823	866
455.235	872.4
455.647	864
456.037	869.2
456.449	852
456.862	866.8
457.274	872.8
457.665	865.6
458.077	878.4
458.489	895.6
458.902	866.6
459.293	871.8
459.705	871.8
460.118	867.6
460.53	873.4
460.921	869.6
461.334	876.4
461.747	882.2
462.16	892
462.551	888
462.964	879.8
463.377	862.8
463.79	866.4
464.182	883.8
464.595	869.8
465.008	874.2
465.421	879
465.813	872.2
466.226	891
466.64	876.6
467.053	922.6
467.445	883.4
467.859	879.8
468.272	870.4
468.686	891.4
469.078	877.4
469.492	865.6
469.906	875.2
470.298	880.2
470.712	864.2
471.126	921
471.54	867.4
471.933	863.2
472.347	866
472.761	864
473.175	863.4
473.568	868.2
473.982	868.4
474.397	872.8
474.79	860.2
475.204	863.4
475.619	865.6
476.033	864.8
476.426	858.6
476.841	848
477.256	872.6
477.649	859.2
478.064	842.8
478.479	848.6
478.872	842.2
479.287	837.4
479.702	843
480.118	853.6
480.511	833.6
480.927	832.8
481.342	826.4
481.736	837.8
482.151	834.2
482.566	844.8
482.96	835.8
483.376	833.6
483.792	826.8
484.186	839.6
484.602	825.6
485.017	830.8
485.412	827.6
485.827	835.2
486.243	831.8
486.638	848.2
487.054	829.2
487.47	831.6
487.865	824.2
488.281	818.6
488.697	823.4
489.092	816.6
489.508	813.8
489.925	817.8
490.32	801.8
490.736	819.4
491.153	820.8
491.548	820.6
491.964	822.6
492.381	798
492.776	814.6
493.193	800.2
493.61	815.4
494.006	805.2
494.422	801
494.84	791.8
495.235	800.8
495.652	806.6
496.069	805.6
496.465	786.8
496.883	796
497.3	798.4
497.696	777.2
498.113	788.4
498.509	767.6
498.927	766.2
499.344	763.6
499.741	764
500.158	786.4
500.576	780
500.973	777.8
501.39	756.8
501.787	757.4
502.205	765.2
502.623	755.8
503.02	751.6
503.438	754.8
503.856	756.2
504.253	758.4
504.671	754.6
505.068	737.8
505.486	747.2
505.905	774.4
506.302	753
506.72	753.2
507.118	741.8
507.536	743.4
507.955	738
508.352	744.4
508.771	757.6
509.169	746.2
509.587	724
510.006	736.6
510.404	736
510.823	727.4
511.221	722.8
511.64	720.6
512.038	739.2
512.457	723.6
512.877	731.2
513.275	710.6
513.694	721.8
514.092	727.2
514.512	714
514.91	727.6
515.33	719.2
515.749	716.8
516.148	723.6
516.568	719.2
516.966	712.6
517.386	708.6
517.785	715.2
518.205	702.8
518.603	709
519.024	708.8
519.444	696.6
519.843	716
520.263	713.4
520.662	701
521.082	694.2
521.481	699.6
521.902	697.2
522.301	702.4
522.722	698.6
523.121	700.6
523.542	689.4
523.963	695.4
524.362	697
524.783	697.6
525.183	689.2
525.604	689.8
526.003	685.4
526.425	684.6
526.824	685.8
527.246	687.4
527.646	692.4
528.067	670.2
528.467	685.2
528.888	681.4
529.289	681.6
529.71	676.4
530.11	677
530.532	675.6
530.932	667.4
531.354	662.4
531.755	703.8
532.176	679.2
532.577	665.8
532.999	670.6
533.4	660.4
533.822	691.6
534.223	670.8
534.645	659.6
535.046	663.2
535.468	656.8
535.869	667.8
536.292	652.8
536.693	696.8
537.115	671.8
537.516	663.6
537.939	658.8
538.34	675.2
538.742	661
539.165	662.2
539.566	660.8
539.989	636.8
540.391	649.4
540.814	656.6
541.216	652.2
541.639	642.8
542.041	662.8
542.464	656.4
542.866	645.4
543.268	643
543.691	650.4
544.093	652.4
544.517	662.4
544.919	636.2
545.343	663.6
545.745	637.4
546.147	646.2
546.571	642.8
546.974	631.2
547.398	646
547.8	658.8
548.224	625.8
548.627	631.2
549.03	640.8
549.454	628
549.857	623.2
550.281	631.8
550.684	633.4
551.087	640.2
551.512	639.8
551.915	635.6
552.34	642
552.743	628.8
553.146	648.2
553.571	637.4
553.975	651
554.399	619.4
554.803	673.6
555.207	637.8
555.632	624.6
556.036	641.6
556.461	622.2
556.865	624.8
557.268	621.8
557.694	633.8
558.098	637.2
558.502	630.8
558.927	617.6
559.332	628.6
559.736	620.6
560.162	624.2
560.566	624.6
560.992	634.4
561.396	626.2
561.801	622.6
562.227	628
562.631	626
563.036	618.6
563.462	630.4
563.867	619.8
564.272	614.6
564.698	620.4
565.103	615.2
565.508	641
565.935	612.8
566.34	615.2
566.745	632.8
567.172	611.4
567.577	636.2
567.982	630.8
568.409	624.8
568.815	612.4
569.22	623.6
569.626	623.6
570.053	609.4
570.459	626.6
570.865	617.6
571.292	616.2
571.698	618
572.104	602.8
572.531	609.2
572.937	613.8
573.343	611.8
573.75	601.2
574.177	616.4
574.583	610.8
574.99	611.2
575.396	607.6
575.824	597.6
576.231	615.6
576.637	603.4
577.065	615.2
577.472	597.2
577.879	610
578.286	615.6
578.714	598
579.121	605.6
579.528	601.4
579.935	611.2
580.364	603.2
580.771	591.4
581.178	594.2
581.585	606.4
582.014	610.6
582.421	594.4
582.829	598.6
583.236	605.2
583.644	595
584.073	596.4
584.481	610.4
584.889	597.4
585.296	603.8
585.726	604.4
586.134	591.4
586.542	601.6
586.95	622.4
587.358	596.6
587.787	607.4
588.196	610
588.604	593.8
589.012	600.6
589.421	582.4
589.851	594.6
590.259	602.4
590.668	587.2
591.076	630.2
591.485	597.6
591.894	598.8
592.324	614.6
592.733	611.2
593.142	584.8
593.551	597.2
593.96	634.2
594.369	588.2
594.8	592.4
595.209	588
595.618	584.4
596.028	591.8
596.437	592
596.847	593
597.256	602.6
597.687	588.2
598.097	597.2
598.507	590.6
598.917	601.6
599.327	593.6
599.736	591.8
600.146	601.8
600.556	596.6
600.988	605
601.398	601.6
601.808	598.4
602.219	582
602.629	591.6
603.039	586.4
603.45	610.4
603.86	587.2
604.271	599.6
604.703	593.2
605.114	593.6
605.525	592.4
605.935	600.2
606.346	611.6
606.757	601.8
607.168	580.4
607.579	581.6
607.99	597
608.402	587.4
608.813	595.4
609.224	594
609.636	585.4
610.047	587.4
610.48	590
610.892	593.2
611.303	589.4
611.715	591.6
612.127	587
612.539	590
612.95	585.6
613.362	586
613.774	582.2
614.186	584
614.599	585.6
615.011	595.8
615.423	593.8
615.835	581.8
616.248	577.8
616.66	595.4
617.073	581.4
617.485	592.8
617.898	589.2
618.311	586.4
618.723	587.8
619.136	612.8
619.549	604.4
619.962	605
620.375	595.6
620.788	594.2
621.201	577.6
621.614	593
622.028	592.6
622.441	589.2
622.854	604
623.268	577.2
623.681	597.4
624.095	587.4
624.509	592.2
624.922	590.8
625.336	577.8
625.728	589.4
626.142	603.6
626.556	609
626.97	591.8
627.384	583.4
627.799	588.2
628.213	593.4
628.627	583
629.041	585.8
629.456	586.2
629.87	590.6
630.285	590
630.699	593
631.093	581.8
631.507	589.6
631.922	584.2
632.337	584.6
632.752	594.4
633.167	585.4
633.582	582
633.997	582.4
634.412	570
634.806	590.8
635.221	576.6
635.637	600.8
636.052	579.2
636.468	587.2
636.883	598.6
637.299	586.4
637.715	578.6
638.109	580.2
638.525	573.8
638.941	600.6
639.357	586.2
639.773	601.4
640.189	579.4
640.584	579.8
641	584.4
641.416	570.8
641.832	580.6
642.249	581.4
642.665	580.8
643.06	585.2
643.477	586.6
643.894	567.4
644.31	584.4
644.727	582.2
645.123	581.2
645.54	575
645.957	580.6
646.374	591
646.77	577.6
647.187	602.6
647.604	583.4
648.021	574.6
648.439	575.4
648.835	584.6
649.252	580.6
649.67	582.4
650.088	582.8
650.484	588.6
650.902	592
651.32	583.8
651.738	578.2
652.134	588
652.552	603.2
652.971	587.6
653.389	580
653.786	582
654.204	600.6
654.622	578.2
655.019	596
655.438	593.8
655.857	589.8
656.275	588
656.673	576.4
657.091	589.4
657.51	578.6
657.908	584.2
658.327	594.4
658.746	573
659.144	582.2
659.563	595.6
659.982	584
660.38	579
660.8	576.4
661.219	592.8
661.617	577.4
662.037	578.4
662.457	593.6
662.855	566.8
663.275	610.2
663.695	578.2
664.094	588.2
664.514	586.8
664.934	573
665.333	585.2
665.753	576.6
666.152	571.4
666.572	574.6
666.993	593.4
667.392	581.4
667.812	583.2
668.212	579
668.632	602
669.053	579.4
669.453	584.2
669.874	582.4
670.273	580.2
670.694	568.6
671.116	585.2
671.515	579.2
671.937	567.6
672.337	568.8
672.758	572.8
673.158	586.6
673.58	571.6
673.98	580.2
674.402	588
674.824	577.6
675.224	575.6
675.646	555.8
676.047	576.6
676.469	577.4
676.869	579
677.292	577.6
677.693	570.8
678.115	576
678.516	577
678.939	581.6
679.34	576.2
679.762	585
680.164	574.4
680.586	569.4
680.988	583.2
681.411	600
681.812	572.4
682.236	572.4
682.637	572.6
683.061	571
683.462	582
683.864	578.2
684.288	580.2
684.69	570.4
685.114	581.8
685.516	585.8
685.94	567.2
686.342	580.4
686.766	569.6
687.168	567
687.571	593.8
687.995	577
688.398	571.8
688.822	576
689.225	592.2
689.628	596.8
690.052	583.8
690.456	579.6
690.88	573
691.284	570.4
691.687	587.8
692.112	571.4
692.515	573.4
692.919	581.4
693.344	572.2
693.747	579
694.173	567.6
694.577	593.2
694.98	571.4
695.406	577
695.81	583.2
696.214	579.8
696.64	577
697.044	578.4
697.448	581.6
697.874	575.4
698.279	575.6
698.684	567.2
699.11	580
699.514	579.2
699.919	568.4
700.324	571.2
700.75	574.4
701.156	580.2
701.561	583.4
701.987	582.6
702.393	591.2
702.798	580.6
703.203	579.4
703.63	571.2
704.036	566.8
704.442	578.2
704.847	572.4
705.274	576
705.68	581.6
706.086	586.8
706.492	574
706.92	577.4
707.326	590
707.732	579.4
708.139	571.2
708.545	570
708.973	583.4
709.38	573.2
709.786	576.4
710.193	592.2
710.6	575.2
711.028	568.8
711.435	584.2
711.842	572.8
712.249	576
712.656	578
713.064	581
713.492	561.6
713.9	564.4
714.307	576.6
714.715	576
715.123	583.8
715.53	576.6
715.938	580.6
716.367	570.2
716.775	575.4
717.184	565.8
717.592	578
718	587.8
718.408	614
718.816	621.6
719.225	580
719.633	577.2
720.042	573.8
720.472	572.6
720.881	585.8
721.29	577
721.699	566.2
722.108	571
722.517	583.8
722.926	568.2
723.335	586.8
723.744	575.8
724.154	575.2
724.563	576
724.973	573.4
725.382	576.8
725.792	567.4
726.202	570
726.612	584.4
727.022	568.6
727.432	570.6
779.813	573.2
780.223	622.8
780.634	573.8
781.044	570
781.454	578.4
781.865	587.8
782.276	567.6
782.686	577.2
783.097	566.8
783.508	575.6
783.919	571.6
784.33	583.2
784.741	588.4
785.152	568.6
785.563	568.8
785.974	573.2
786.386	581.2
786.776	573.2
787.188	575.2
787.599	561.8
788.011	578.2
788.423	581.8
788.835	568.6
789.247	567.4
789.659	568.4
790.071	576.2
790.483	612
790.874	577.4
791.286	580.6
791.699	572.4
792.111	573
792.524	575.4
792.937	571.6
793.349	569.8
793.741	569
794.154	568.2
794.567	593.6
794.98	576.8
795.393	563.8
795.785	580.6
796.198	567.8
796.612	569.6
797.026	575.4
797.439	550.8
797.831	566
798.245	566
798.659	582.6
799.073	567.4
799.487	573
799.88	576
800.294	567.4
800.708	576.6
801.123	575
801.516	583.4
801.93	559.6
802.345	563.2
802.76	567.6
803.153	588
803.568	589
803.983	582.8
804.377	574.4
804.792	571.6
805.207	557
805.601	579.6
806.016	601.8
806.432	562.8
806.826	593.8
807.242	592.6
807.658	581
808.052	564.2
808.468	569
808.884	562.2
809.279	572.4
809.695	582.8
810.111	595.8
810.506	581
810.922	591.8
811.339	568
811.734	584.6
812.151	570.6
812.546	570.6
812.963	560.8
813.38	575.4
813.776	575.4
814.193	594
814.589	574
815.006	569.6
815.402	570.6
815.82	572.2
816.237	574.6
816.633	577
817.051	562.6
817.448	580.4
817.866	558.6
818.262	582.2
818.68	574.8
819.077	566.8
819.495	578.4
819.892	603.2
820.311	562
820.708	573.4
821.127	563.4
821.524	580.4
821.943	571
822.34	590.8
822.759	565.4
823.157	566
823.576	582
823.974	574.2
824.393	592.6
824.791	562.8
825.189	558.6
825.609	564.6
826.007	569.6
826.427	554
826.826	565.6
827.246	569
827.644	551.2
828.043	581.2
828.463	567
828.862	576.4
829.261	578.6
829.682	564
830.081	575.4
830.502	565
830.901	571.6
831.301	586.8
831.722	560.8
832.121	571.2
832.521	566.2
832.943	565.8
833.342	576
833.742	572.2
834.164	570.2
834.564	567.6
834.965	573.8
835.386	558.8
835.787	572
836.188	565
836.588	570.4
837.01	571
837.411	566.8
837.812	582.6
838.213	581.4
838.636	571.4
839.037	630.4
839.438	570.8
839.84	567.4
840.263	582.6
840.664	574.8
841.066	568
841.468	572.6
841.891	565
842.293	574.6
842.695	571.8
843.098	582.8
843.5	566.4
843.902	578
844.326	576
844.729	573
845.131	577.6
845.534	572.2
845.937	582.8
846.34	587.4
846.764	561.2
847.167	566.4
847.571	566
847.974	573.8
848.377	573.2
848.781	612.4
849.184	580.8
849.588	569.6
849.992	563.2
850.396	572.6
850.821	589.8
851.225	572.6
851.63	562.6
852.034	579
852.438	578
852.843	595.8
853.247	561
853.652	564.6
854.057	589.8
854.462	572.6
854.867	570.4
855.272	596.6
