#lambda/nm	C1
208.295	541.4
208.67	480
209.045	439.6
209.419	443
209.794	605
210.169	592.4
210.544	695.8
210.919	600.2
211.295	598.2
211.67	601.8
212.045	596
212.421	598.6
212.796	634.8
213.172	599
213.547	591
213.923	593.4
214.299	603.4
214.675	604.2
215.051	603.2
215.427	612
215.803	617.6
216.179	595.8
216.555	605
216.932	606.6
217.308	608.8
217.684	596.6
218.061	600
218.438	607.4
218.814	590
219.191	611.2
219.568	600
219.945	594.8
220.322	604.6
220.699	598.4
221.076	607.4
221.453	601.8
221.83	596.6
222.208	586
222.585	598.2
222.962	592.8
223.34	603.8
223.717	605
224.095	600.6
224.473	602
224.851	591.6
225.229	592.4
225.607	612.8
225.985	592.8
226.363	605
226.741	596.4
227.119	600.2
227.497	609.6
227.876	583.2
228.254	609.8
228.633	600
229.011	611.2
229.39	604.2
229.769	603
230.148	611
230.527	614.2
230.905	597.8
231.284	611.4
231.664	595.6
232.043	610.6
232.422	613.8
232.801	598.8
233.181	604.8
233.56	603.8
233.94	606.2
234.319	590
234.699	599.4
235.079	636.8
235.458	640.2
235.838	618
236.218	594.6
236.598	588.4
236.978	595.6
237.358	600
237.738	594.2
238.119	605
238.499	592.6
238.88	600.8
239.26	615.4
239.641	590.2
240.021	601.4
240.402	599.6
240.783	610.8
241.163	609.2
241.544	604.4
241.925	600.2
242.306	614.6
242.687	607.6
243.069	605.4
243.45	616.8
243.831	603
244.212	598.2
244.594	636.8
244.975	607.6
245.357	606.2
245.739	588.8
246.12	603.8
246.502	617
246.884	600.6
247.266	602.6
247.648	608
248.03	617.4
248.412	609.8
248.794	605
249.176	604.8
249.559	607.4
249.941	597.2
250.323	588.6
250.706	594
251.089	599.6
251.471	601.2
251.854	601.6
252.237	598
252.62	609.8
253.002	601.4
253.385	606
253.769	621
254.152	605.4
254.535	602
254.918	589.2
255.301	599.2
255.685	603.4
256.068	592.8
256.452	615.2
256.835	612.8
257.219	607.2
257.603	608
257.986	596
258.37	608.2
258.754	588
259.138	604.8
259.522	617.4
259.906	600.8
260.29	603.2
260.675	607
261.059	612
261.443	594.2
261.828	605.6
262.212	610.8
262.597	588
262.981	605.8
263.366	606.4
263.751	595.8
264.136	599.2
264.521	598
264.906	588
265.291	609.8
265.676	602
266.061	610.4
266.446	623.4
266.831	597.4
267.217	613
267.602	606
267.987	602.4
268.373	596
268.759	617.6
269.144	608
269.53	603.4
269.916	596
270.302	596.6
270.688	608
271.074	602.6
271.46	608
271.846	631
272.232	603.6
272.618	594.2
273.004	609.6
273.391	613
273.777	614
274.164	600.8
274.55	610
274.937	595.4
275.324	597.4
275.71	607.2
276.097	605.6
276.484	593.6
276.871	596.6
277.258	602.2
277.645	581
278.032	596.2
278.419	600.2
278.807	606.6
279.194	594.2
279.581	595.4
279.969	607
280.356	604.8
280.744	597.4
281.131	623.2
281.519	612
281.907	606.2
282.295	596.2
282.682	615
283.07	607.4
283.458	616.2
283.846	610
284.235	608.6
284.623	614.6
285.011	600.2
285.399	605
285.788	604.8
286.176	587.2
286.565	617.4
286.953	598.4
287.342	603.4
287.731	595.4
288.119	590
288.508	595.4
288.897	594
289.286	590.6
289.675	602.6
290.064	614.6
290.453	606.2
290.821	606.2
291.21	610.2
291.599	597
291.989	599.2
292.378	602.6
292.768	616
293.157	604.2
293.547	607.8
293.936	601.2
294.326	601.8
294.716	605
295.106	603.2
295.496	603.6
295.886	599.6
296.276	600.8
296.666	599.2
297.056	597.8
297.446	587.8
297.836	604.4
298.227	599.8
298.617	600.2
299.008	609.8
299.398	606.4
299.789	603.2
300.179	606.4
300.57	611
300.961	596.8
301.352	596
301.742	610
302.133	607.2
302.524	600.2
302.915	603
303.307	596.4
303.698	604.2
304.089	601.2
304.48	597.2
304.872	602.8
305.263	598.2
305.655	599.8
306.046	604.2
306.438	605.6
306.829	595.6
307.221	614
307.613	604.8
308.005	611.4
308.397	607.8
308.789	617.8
309.181	620.2
309.573	612.2
309.965	614
310.357	600.8
310.749	607
311.142	586
311.534	596.2
311.926	607
312.319	593.6
312.711	584.4
313.104	616.2
313.497	598.4
313.889	638.4
314.282	614.2
314.675	621.8
315.068	611
315.461	603.2
315.854	629.6
316.247	599.2
316.64	596.8
317.033	592.6
317.405	603.4
317.798	602.2
318.192	604.8
318.585	591.8
318.979	606.6
319.372	594.6
319.766	597.6
320.16	609.8
320.553	602.2
320.947	622.6
321.341	602.8
321.735	597
322.129	579.8
322.523	624
322.917	595.4
323.311	613.8
323.705	607.2
324.099	610.4
324.494	618.6
324.888	606.2
325.282	600
325.677	613.2
326.071	601
326.466	617.8
326.861	600
327.255	608.8
327.65	612.2
328.045	616
328.44	599.8
328.835	602.2
329.23	597.6
329.625	623
330.02	583
330.415	619.6
330.81	608.6
331.206	607.2
331.601	595
331.996	613.4
332.37	630.8
332.766	601
333.161	628.4
333.557	596
333.953	596
334.348	972.6
334.744	608.6
335.14	601.4
335.536	598.2
335.932	619
336.328	597.2
336.724	607.4
337.12	599.4
337.516	608.4
337.913	599.2
338.309	614.6
338.705	605.8
339.102	609.4
339.498	598.6
339.895	615.8
340.291	603
340.688	610.6
341.085	596
341.481	600.8
341.878	592.4
342.275	620.2
342.672	593.4
343.069	592.6
343.466	584.6
343.842	613.6
344.239	596.2
344.636	603.4
345.033	598.6
345.431	595.4
345.828	597.4
346.225	601.2
346.623	636
347.02	600.8
347.418	609.8
347.816	615.4
348.213	594.8
348.611	606
349.009	593.8
349.407	614.4
349.805	592.8
350.203	599.2
350.601	605.8
350.999	589.4
351.397	647
351.795	605.8
352.193	614
352.57	605.8
352.969	609.6
353.367	594.6
353.766	595.4
354.164	593.6
354.563	605
354.961	595.4
355.36	592.6
355.759	586
356.158	589.8
356.557	593.6
356.956	598.6
357.355	589.6
357.754	599.8
358.153	606.8
358.552	612.2
358.951	592.8
359.35	608.4
359.75	598.2
360.149	591.8
360.527	586.8
360.926	590.8
361.326	600.8
361.726	607.6
362.125	599.2
362.525	604.8
362.925	600.4
363.325	599.2
363.724	603.2
364.124	594.6
364.524	589.2
364.924	601
365.324	612.4
365.725	581.6
366.125	604.6
366.525	593.6
366.904	591
367.304	577.4
367.705	609.6
368.105	604.2
368.506	599.2
368.906	594.8
369.307	597
369.708	599.8
370.108	591.4
370.509	600.8
370.91	581.2
371.311	589.2
371.712	596.8
372.113	596
372.514	588.8
372.894	596.2
373.295	584.8
373.696	608
374.097	601.6
374.499	620
374.9	601.6
375.301	586.4
375.703	598.8
376.105	582.2
376.506	594.8
376.908	594
377.309	599.2
377.711	599.2
378.113	594.8
378.493	590
378.895	588.8
379.297	601.6
379.699	583.4
380.102	595
380.504	590.8
380.906	588.8
381.308	613.6
381.71	593.6
382.113	598.6
382.515	592
382.918	602
383.299	590.2
383.701	612.2
384.104	594
384.507	587.4
384.909	601.2
385.312	586.4
385.715	592
386.118	593.2
386.521	594.2
386.924	603.8
387.327	595.4
387.709	582.2
388.112	576.6
388.515	585
388.918	595.6
389.322	601.4
389.725	591.2
390.129	618
390.532	603.6
390.936	595.2
391.339	596.4
391.743	600
392.125	591
392.529	606.4
392.933	607.6
393.337	592
393.74	595.2
394.144	592.8
394.548	600.6
394.953	590.2
395.357	598
395.761	598.6
396.144	600
396.548	602
396.952	600
397.357	595.8
397.761	592.6
398.166	594.6
398.57	600.4
398.975	591
399.379	597
399.763	639.2
400.168	602.2
400.572	595.2
400.977	588.8
401.382	605.4
401.787	601.8
402.192	609.4
402.597	613.8
403.002	578
403.386	605
403.791	612.4
404.197	587.2
404.602	597.4
405.007	589.4
405.413	591
405.818	592.6
406.224	589
406.608	580.8
407.014	587
407.42	604.8
407.825	588.2
408.231	600.8
408.637	596.6
409.043	603.2
409.449	587
409.834	586.8
410.24	600.8
410.646	607
411.052	605.2
411.458	602.2
411.865	603.2
412.271	596
412.677	593.8
413.062	593.8
413.469	593.8
413.875	610
414.282	600.2
414.689	598.8
415.095	604.2
415.502	588.4
415.888	593.8
416.294	580.8
416.701	629.6
417.108	584.2
417.515	600.2
417.923	590.8
418.33	608.4
418.715	601.4
419.123	593.4
419.53	588.2
419.937	604.6
420.345	606.2
420.752	589.8
421.16	609.8
421.546	599.6
421.953	607
422.361	586.8
422.769	594.2
423.177	588.4
423.585	622.4
423.992	618.4
424.379	612.4
424.787	607
425.195	609.8
425.603	595.2
426.011	606.2
426.419	608.8
426.806	598.8
427.214	604.4
427.623	612.6
428.031	619.4
428.44	610.4
428.848	616.4
429.235	618.8
429.644	608.2
430.053	609
430.461	631.6
430.87	646.2
431.279	627.8
431.666	626.2
432.075	634
432.484	650.6
432.893	640.4
433.302	668.2
433.711	702.4
434.099	675.6
434.508	683.4
434.918	673.6
435.327	701.2
435.737	705.4
436.125	710
436.534	724.6
436.944	738.2
437.353	747.8
437.763	774.8
438.173	769.6
438.561	783.8
438.971	755.8
439.381	794.2
439.791	800.6
440.201	788
440.589	827.4
440.999	835.2
441.409	833.2
441.819	819.8
442.23	852.2
442.619	863.6
443.029	856.2
443.439	853.4
443.85	884.8
444.26	884
444.649	896.8
445.06	899.6
445.471	887.2
445.881	889
446.292	918.2
446.682	925.6
447.092	906.8
447.503	948
447.914	913.2
448.325	911.4
448.715	930
449.126	917.2
449.537	930.6
449.948	926.6
450.338	938.8
450.75	931.8
451.161	945.8
451.572	941.2
451.984	934.4
452.374	927.6
452.786	944.4
453.197	940.2
453.609	950.4
453.999	933.6
454.411	933
454.823	962.4
455.235	952
455.647	956.6
456.037	953.4
456.449	949.8
456.862	954.6
457.274	960.2
457.665	950.8
458.077	955
458.489	993
458.902	949.8
459.293	958.8
459.705	951.2
460.118	947.6
460.53	958
460.921	956.2
461.334	967.8
461.747	962
462.16	968.4
462.551	970
462.964	966
463.377	950
463.79	964.4
464.182	970.2
464.595	941
465.008	967.4
465.421	963.8
465.813	959.4
466.226	970.6
466.64	968
467.053	997.6
467.445	985
467.859	978.2
468.272	970.4
468.686	969.4
469.078	968.4
469.492	954.6
469.906	966.2
470.298	962.6
470.712	954.8
471.126	998.4
471.54	949
471.933	950.4
472.347	954.2
472.761	949.4
473.175	955.8
473.568	953.2
473.982	939.4
474.397	949.6
474.79	954.6
475.204	947.6
475.619	941.4
476.033	941
476.426	946.4
476.841	936.8
477.256	964.4
477.649	937.4
478.064	934.2
478.479	928.4
478.872	935.8
479.287	915.2
479.702	918.4
480.118	924.6
480.511	916.2
480.927	923.8
481.342	917.8
481.736	919.2
482.151	918
482.566	938.2
482.96	906.4
483.376	923.8
483.792	918.4
484.186	910.4
484.602	897.4
485.017	907.2
485.412	900.2
485.827	896.6
486.243	901.2
486.638	922.8
487.054	912.2
487.47	917
487.865	887.8
488.281	902.6
488.697	886.2
489.092	892.4
489.508	882.8
489.925	885.2
490.32	873.8
490.736	888.8
491.153	871.8
491.548	873.8
491.964	879.6
492.381	861
492.776	873.2
493.193	866.6
493.61	871.8
494.006	865.8
494.422	859.2
494.84	853.2
495.235	863.4
495.652	859.6
496.069	856.4
496.465	848
496.883	842.6
497.3	868.2
497.696	839.8
498.113	840.6
498.509	828.2
498.927	828.4
499.344	819.2
499.741	836.8
500.158	831
500.576	831
500.973	823.6
501.39	815.2
501.787	817.2
502.205	815.8
502.623	810.8
503.02	810.8
503.438	801.8
503.856	802.8
504.253	810.4
504.671	803.6
505.068	789
505.486	794.2
505.905	823.6
506.302	799
506.72	792.2
507.118	776.2
507.536	791.8
507.955	779.6
508.352	791.6
508.771	783.2
509.169	779.2
509.587	778.4
510.006	765.4
510.404	757.4
510.823	767.8
511.221	770.6
511.64	762.6
512.038	786.4
512.457	756.4
512.877	756.2
513.275	757
513.694	752.6
514.092	755
514.512	763.2
514.91	764
515.33	762
515.749	748.4
516.148	747.4
516.568	744.8
516.966	739
517.386	737.8
517.785	741.6
518.205	734.2
518.603	734.6
519.024	726
519.444	730.4
519.843	743.2
520.263	732.2
520.662	728.8
521.082	720.6
521.481	731
521.902	723.2
522.301	733.6
522.722	723.4
523.121	710.6
523.542	721
523.963	725.2
524.362	715.8
524.783	720.8
525.183	710.4
525.604	710.6
526.003	703.8
526.425	712.2
526.824	710
527.246	715.2
527.646	718.6
528.067	710.2
528.467	700
528.888	710
529.289	692.8
529.71	707.6
530.11	691.2
530.532	701.6
530.932	685.2
531.354	679.8
531.755	722.8
532.176	702.6
532.577	683.2
532.999	693
533.4	683.6
533.822	693
534.223	702.2
534.645	698.4
535.046	681.2
535.468	682.4
535.869	692.4
536.292	675.4
536.693	707.4
537.115	690.4
537.516	670.2
537.939	671.8
538.34	687.8
538.742	686.6
539.165	681.6
539.566	675
539.989	669.6
540.391	671.6
540.814	669
541.216	663.8
541.639	675.6
542.041	675
542.464	667.6
542.866	665.4
543.268	651.2
543.691	665
544.093	668.8
544.517	678.2
544.919	662.6
545.343	685.4
545.745	661.2
546.147	659.2
546.571	658.4
546.974	657.6
547.398	647
547.8	676
548.224	657.8
548.627	651.4
549.03	656
549.454	655.8
549.857	639
550.281	646.2
550.684	640.6
551.087	661
551.512	650.2
551.915	657.2
552.34	653
552.743	646.4
553.146	650.8
553.571	639.6
553.975	657.2
554.399	643.4
554.803	688
555.207	636
555.632	637
556.036	649.2
556.461	634.8
556.865	644.8
557.268	630.4
557.694	628.6
558.098	640
558.502	641.6
558.927	633.2
559.332	642.2
559.736	633.8
560.162	639.8
560.566	631.6
560.992	636.8
561.396	642.4
561.801	630.6
562.227	633.4
562.631	632
563.036	633
563.462	641.2
563.867	638.2
564.272	625.4
564.698	634.4
565.103	622.4
565.508	643
565.935	624.2
566.34	625.8
566.745	636.4
567.172	619.2
567.577	643.2
567.982	636
568.409	633.8
568.815	622.4
569.22	625.6
569.626	629.2
570.053	599.4
570.459	627.4
570.865	624.8
571.292	623.6
571.698	632.4
572.104	607.6
572.531	616.8
572.937	622.6
573.343	622
573.75	612.8
574.177	621.8
574.583	623.6
574.99	617.2
575.396	626.4
575.824	602.6
576.231	619.4
576.637	615.6
577.065	633
577.472	616.6
577.879	609.6
578.286	626.4
578.714	599.2
579.121	616.6
579.528	606.6
579.935	616
580.364	609.6
580.771	594.2
581.178	606.8
581.585	619
582.014	617.8
582.421	593.8
582.829	596.4
583.236	614.6
583.644	607.8
584.073	603
584.481	605.2
584.889	610.2
585.296	617.2
585.726	605.8
586.134	597.8
586.542	595.6
586.95	622.8
587.358	602.4
587.787	606.2
588.196	618.8
588.604	608
589.012	602.2
589.421	598.6
589.851	598.4
590.259	607
590.668	595.6
591.076	636.2
591.485	595
591.894	598.6
592.324	609.6
592.733	609.8
593.142	592.6
593.551	596.4
593.96	635.6
594.369	585.6
594.8	588.6
595.209	593.4
595.618	580.2
596.028	587.8
596.437	590
596.847	594.6
597.256	590.6
597.687	592.4
598.097	590.8
598.507	583.8
598.917	593.4
599.327	598
599.736	587.6
600.146	607.6
600.556	590.6
600.988	601.2
601.398	590.8
601.808	602.8
602.219	583.4
602.629	591.2
603.039	593.6
603.45	617
603.86	591
604.271	604.8
604.703	590
605.114	589
605.525	591.4
605.935	584.8
606.346	609.2
606.757	592.4
607.168	584.8
607.579	585
607.99	600.2
608.402	587.2
608.813	594.8
609.224	585.4
609.636	577.2
610.047	581
610.48	586.2
610.892	595.4
611.303	597.8
611.715	589
612.127	585.4
612.539	586.6
612.95	588
613.362	575.4
613.774	583.8
614.186	579.4
614.599	581.4
615.011	588.6
615.423	589.8
615.835	584.2
616.248	578.8
616.66	592.8
617.073	581.2
617.485	577
617.898	595
618.311	585.8
618.723	586.2
619.136	611.8
619.549	609.2
619.962	595.2
620.375	597.8
620.788	595.8
621.201	589.2
621.614	591.8
622.028	586.8
622.441	589.2
622.854	598.2
623.268	586
623.681	591.8
624.095	594.8
624.509	602.2
624.922	595
625.336	578.8
625.728	593
626.142	595.4
626.556	602.6
626.97	597.4
627.384	585.2
627.799	593.4
628.213	599.6
628.627	594.2
629.041	592.4
629.456	589.4
629.87	588.4
630.285	598.2
630.699	598.4
631.093	590
631.507	594.4
631.922	596.4
632.337	600.6
632.752	581.8
633.167	588.4
633.582	580
633.997	586.6
634.412	587.2
634.806	586.8
635.221	579.2
635.637	594.4
636.052	579.6
636.468	591.8
636.883	605.6
637.299	583.6
637.715	575.8
638.109	588.2
638.525	577.2
638.941	600.6
639.357	587.6
639.773	601.8
640.189	581.4
640.584	582.2
641	587.4
641.416	572
641.832	576
642.249	583.6
642.665	580
643.06	583.4
643.477	587.8
643.894	566.8
644.31	591.8
644.727	583.6
645.123	576.2
645.54	576.4
645.957	581
646.374	588.6
646.77	583
647.187	614.4
647.604	581.2
648.021	565.6
648.439	576
648.835	584.6
649.252	585.4
649.67	579.4
650.088	582.2
650.484	584.2
650.902	586
651.32	592.8
651.738	578.6
652.134	586.6
652.552	601.6
652.971	581.6
653.389	583
653.786	594.2
654.204	598.2
654.622	577.4
655.019	581.8
655.438	591.2
655.857	587
656.275	588.2
656.673	579.6
657.091	583.4
657.51	575.2
657.908	589.2
658.327	592.4
658.746	575.4
659.144	589.6
659.563	596.8
659.982	581.4
660.38	574.4
660.8	586
661.219	589.4
661.617	583.8
662.037	584.2
662.457	599.4
662.855	573.4
663.275	608.2
663.695	583.8
664.094	585
664.514	575.4
664.934	569
665.333	584.4
665.753	572.2
666.152	567.6
666.572	574.6
666.993	595
667.392	574.2
667.812	572.2
668.212	575.2
668.632	592
669.053	568.6
669.453	590.4
669.874	583.4
670.273	584
670.694	572.4
671.116	586.2
671.515	578.6
671.937	577.2
672.337	576.4
672.758	577
673.158	591.6
673.58	567.6
673.98	586.6
674.402	590.8
674.824	576.6
675.224	575.4
675.646	576.4
676.047	581
676.469	583.2
676.869	592.6
677.292	581.6
677.693	570.8
678.115	567.6
678.516	583.2
678.939	582.4
679.34	586.2
679.762	587.2
680.164	582
680.586	574
680.988	590.8
681.411	599.8
681.812	581
682.236	569.6
682.637	571.6
683.061	566.6
683.462	584.6
683.864	571.4
684.288	582.2
684.69	573.2
685.114	582.8
685.516	589.2
685.94	568.4
686.342	579.2
686.766	573.2
687.168	573.4
687.571	594.2
687.995	583.8
688.398	571.8
688.822	572.4
689.225	593
689.628	593
690.052	580.6
690.456	580.2
690.88	578.2
691.284	569.2
691.687	585
692.112	571.2
692.515	570.6
692.919	577.4
693.344	575.6
693.747	576.6
694.173	567.8
694.577	583.4
694.98	576.8
695.406	568
695.81	576.6
696.214	584.2
696.64	574
697.044	577.4
697.448	574.4
697.874	570.6
698.279	577.8
698.684	560.2
699.11	568.2
699.514	571
699.919	574.6
700.324	560
700.75	574.8
701.156	573.4
701.561	586
701.987	572
702.393	591.2
702.798	582.2
703.203	567.2
703.63	568.2
704.036	567.4
704.442	581.8
704.847	570.4
705.274	571.6
705.68	572.8
706.086	579.4
706.492	564.6
706.92	573.4
707.326	576.8
707.732	573.4
708.139	565.4
708.545	564
708.973	564.8
709.38	568.6
709.786	561.6
710.193	586.8
710.6	572
711.028	563.8
711.435	565
711.842	575
712.249	571
712.656	570.8
713.064	580.4
713.492	571
713.9	569.2
714.307	573.8
714.715	581.6
715.123	576.2
715.53	573
715.938	582
716.367	569.2
716.775	569.4
717.184	568.8
717.592	568.4
718	582
718.408	604.8
718.816	609.8
719.225	588
719.633	577.4
720.042	570.8
720.472	573.2
720.881	589.8
721.29	586.2
721.699	562.4
722.108	586.4
722.517	579.6
722.926	569
723.335	584.4
723.744	572.2
724.154	571.2
724.563	577.2
724.973	576.6
725.382	576.6
725.792	571.4
726.202	572.4
726.612	601.4
727.022	573.6
727.432	577
779.813	565
780.223	619.4
780.634	576.8
781.044	571.4
781.454	572.4
781.865	593
782.276	575
782.686	577.4
783.097	572.4
783.508	570.8
783.919	581.6
784.33	590.2
784.741	582.8
785.152	567.4
785.563	565.2
785.974	569.2
786.386	586.6
786.776	570.4
787.188	576.2
787.599	569.2
788.011	578.2
788.423	586
788.835	573.8
789.247	572
789.659	568.6
790.071	567
790.483	607.6
790.874	566.8
791.286	581.4
791.699	573.8
792.111	569.2
792.524	579
792.937	566.4
793.349	556.6
793.741	564.4
794.154	568.6
794.567	588.8
794.98	571.8
795.393	558.4
795.785	588.8
796.198	568.2
796.612	579.2
797.026	562.4
797.439	558.2
797.831	568.8
798.245	563
798.659	573.6
799.073	569.8
799.487	567.2
799.88	570.6
800.294	573.4
800.708	573.8
801.123	575.6
801.516	590.8
801.93	563
802.345	567.6
802.76	572.2
803.153	588.6
803.568	583.2
803.983	588.4
804.377	576.8
804.792	564.2
805.207	561.6
805.601	574.8
806.016	608.4
806.432	573.6
806.826	596.8
807.242	577.6
807.658	574.8
808.052	569.6
808.468	569.4
808.884	562.4
809.279	575.6
809.695	584
810.111	590
810.506	577.6
810.922	590.4
811.339	577
811.734	579.8
812.151	574.4
812.546	560.8
812.963	564.6
813.38	576.8
813.776	580.2
814.193	592.4
814.589	567
815.006	566
815.402	568.4
815.82	568.8
816.237	566
816.633	571.8
817.051	562.8
817.448	573.6
817.866	558.8
818.262	594.2
818.68	578.8
819.077	571.8
819.495	568.6
819.892	599
820.311	564.4
820.708	575.2
821.127	576
821.524	577.2
821.943	571.8
822.34	591.2
822.759	571.4
823.157	575.8
823.576	586.8
823.974	578
824.393	616
824.791	578.4
825.189	563.2
825.609	567.4
826.007	570.6
826.427	562.2
826.826	568.8
827.246	579.2
827.644	562
828.043	578.6
828.463	564.4
828.862	580.4
829.261	581.4
829.682	570.8
830.081	580.6
830.502	558.2
830.901	569.6
831.301	575.4
831.722	562
832.121	575.8
832.521	562
832.943	571.4
833.342	570.6
833.742	574.4
834.164	573.4
834.564	567.2
834.965	570.4
835.386	569
835.787	566.4
836.188	565.2
836.588	569
837.01	562
837.411	564.8
837.812	577.4
838.213	578.8
838.636	570.2
839.037	633.6
839.438	580
839.84	571.4
840.263	580.2
840.664	571
841.066	577.6
841.468	568.6
841.891	562
842.293	581
842.695	572.6
843.098	580.4
843.5	555
843.902	577.8
844.326	568.4
844.729	567.4
845.131	584
845.534	563
845.937	578.6
846.34	586.6
846.764	562.8
847.167	567
847.571	564.8
847.974	568
848.377	566.6
848.781	608.4
849.184	579.4
849.588	558
849.992	555
850.396	574.6
850.821	582.4
851.225	574
851.63	568.8
852.034	582.4
852.438	570
852.843	631.6
853.247	560
853.652	560.6
854.057	581
854.462	563.6
854.867	572.6
855.272	596.8
855.677	569.6
856.082	559.8
856.487	563.4
