#lambda/nm	C1
208.295	569.8
208.67	504.6
209.045	464
209.419	463.4
209.794	585.2
210.169	566.6
210.544	668.8
210.919	589.4
211.295	572
211.67	577.6
212.045	575.6
212.421	580
212.796	606
213.172	579.2
213.547	569
213.923	584
214.299	571
214.675	583.6
215.051	581.6
215.427	597.4
215.803	596.8
216.179	580
216.555	580
216.932	584.8
217.308	581.6
217.684	580.8
218.061	586
218.438	582
218.814	572.4
219.191	584.6
219.568	578.4
219.945	575
220.322	577.2
220.699	582.6
221.076	584.8
221.453	574
221.83	574
222.208	579.8
222.585	578.4
222.962	585.6
223.34	583.4
223.717	582
224.095	575.8
224.473	580.4
224.851	572
225.229	573.2
225.607	590.6
225.985	575
226.363	585.4
226.741	576.8
227.119	581.8
227.497	589.6
227.876	567.6
228.254	585
228.633	583.2
229.011	587.8
229.39	583.4
229.769	575
230.148	585.6
230.527	599.6
230.905	577.6
231.284	580.8
231.664	570.8
232.043	592.2
232.422	581
232.801	573.6
233.181	587.8
233.56	575.6
233.94	579.6
234.319	563.8
234.699	581
235.079	602
235.458	606.4
235.838	590
236.218	569.4
236.598	571.8
236.978	578.4
237.358	572.2
237.738	569.6
238.119	584
238.499	569.2
238.88	579.4
239.26	585.4
239.641	563.8
240.021	568.8
240.402	575.6
240.783	572.4
241.163	579.8
241.544	569.8
241.925	574.8
242.306	593
242.687	576.2
243.069	576.4
243.45	582
243.831	575.2
244.212	574
244.594	598
244.975	579
245.357	573.8
245.739	573
246.12	583.4
246.502	592.8
246.884	579.2
247.266	582.4
247.648	580.4
248.03	592.2
248.412	582.2
248.794	575.4
249.176	570
249.559	598.6
249.941	575.6
250.323	572
250.706	573
251.089	583.8
251.471	569.8
251.854	576.8
252.237	577
252.62	588.4
253.002	576.4
253.385	577.6
253.769	595.4
254.152	582
254.535	589.6
254.918	570.2
255.301	574.8
255.685	575.2
256.068	573.8
256.452	592.6
256.835	589
257.219	586.4
257.603	591.8
257.986	569.2
258.37	582.4
258.754	578.6
259.138	583.8
259.522	583
259.906	570.8
260.29	578.8
260.675	576.2
261.059	575
261.443	572.6
261.828	587
262.212	579.8
262.597	570.8
262.981	578.6
263.366	573.6
263.751	577.4
264.136	574
264.521	572.4
264.906	574.4
265.291	586
265.676	579
266.061	580.4
266.446	596.2
266.831	574
267.217	595.4
267.602	581.6
267.987	575
268.373	568
268.759	585.2
269.144	585.2
269.53	584.2
269.916	572
270.302	571.8
270.688	584.6
271.074	579.4
271.46	593.2
271.846	593.2
272.232	570.6
272.618	570.8
273.004	573.2
273.391	583
273.777	589.8
274.164	581.6
274.55	584.8
274.937	571
275.324	577.6
275.71	578
276.097	586.2
276.484	577.8
276.871	578.8
277.258	583.6
277.645	570
278.032	579
278.419	569.8
278.807	584.4
279.194	574
279.581	577
279.969	581.8
280.356	586
280.744	577
281.131	593.4
281.519	580.8
281.907	575.8
282.295	567.6
282.682	587.6
283.07	574.8
283.458	582.4
283.846	581.2
284.235	582.6
284.623	580.2
285.011	572
285.399	584.6
285.788	572.6
286.176	569
286.565	572.4
286.953	567.8
287.342	572.6
287.731	575.4
288.119	569.6
288.508	569.4
288.897	580
289.286	563.8
289.675	574.2
290.064	585
290.453	574.6
290.821	572.4
291.21	587.2
291.599	575.2
291.989	580.2
292.378	590.4
292.768	590
293.157	585.2
293.547	584
293.936	576.8
294.326	575.8
294.716	577.6
295.106	572
295.496	580.4
295.886	575.6
296.276	582.8
296.666	572.4
297.056	576
297.446	573.8
297.836	596.2
298.227	572.8
298.617	578.8
299.008	582.4
299.398	573.2
299.789	575.8
300.179	579.2
300.57	594.6
300.961	574.8
301.352	583.8
301.742	579.2
302.133	571.4
302.524	581.4
302.915	583
303.307	563.8
303.698	584.8
304.089	581.6
304.48	575.6
304.872	581.4
305.263	578.2
305.655	580.6
306.046	577.6
306.438	575.6
306.829	574.6
307.221	585.4
307.613	573.8
308.005	580
308.397	590.2
308.789	591.8
309.181	593
309.573	584.4
309.965	587.8
310.357	573.6
310.749	583.8
311.142	570
311.534	582
311.926	580.2
312.319	583.8
312.711	577.6
313.104	584.2
313.497	577.2
313.889	612.8
314.282	588.6
314.675	597
315.068	586
315.461	584
315.854	598.8
316.247	583.2
316.64	581
317.033	582.4
317.405	587.8
317.798	580.4
318.192	583.4
318.585	574.8
318.979	587.2
319.372	575.8
319.766	573
320.16	592.4
320.553	591.6
320.947	595.4
321.341	577.8
321.735	577.8
322.129	566.8
322.523	602.2
322.917	576.4
323.311	593.8
323.705	577.6
324.099	588.4
324.494	589.8
324.888	587.2
325.282	573.2
325.677	580.8
326.071	576.6
326.466	591.6
326.861	584.4
327.255	591.6
327.65	580
328.045	588.6
328.44	577.4
328.835	584.6
329.23	575.6
329.625	596.4
330.02	569.6
330.415	592.2
330.81	573.6
331.206	581.6
331.601	580.6
331.996	589.4
332.37	592.6
332.766	570.6
333.161	588.6
333.557	573.8
333.953	574.8
334.348	895.6
334.744	582.4
335.14	581
335.536	566.4
335.932	581.6
336.328	577.2
336.724	574.4
337.12	577
337.516	582.2
337.913	569.4
338.309	581.2
338.705	571.2
339.102	582
339.498	575
339.895	585
340.291	574.2
340.688	582.4
341.085	570
341.481	573.2
341.878	577.2
342.275	593.6
342.672	569
343.069	569.2
343.466	564.2
343.842	583
344.239	568.6
344.636	575
345.033	572.2
345.431	572.2
345.828	580.6
346.225	565.6
346.623	600.2
347.02	572.8
347.418	580.4
347.816	589.2
348.213	573.4
348.611	587.8
349.009	575.8
349.407	585.2
349.805	567.6
350.203	565
350.601	587.8
350.999	576.8
351.397	619
351.795	571.8
352.193	588.4
352.57	580.4
352.969	590.8
353.367	570.6
353.766	565.8
354.164	574.2
354.563	580.2
354.961	574.2
355.36	570.8
355.759	568
356.158	571.8
356.557	566.2
356.956	570.6
357.355	569.2
357.754	577.2
358.153	575.2
358.552	592.4
358.951	576.8
359.35	583.8
359.75	567.6
360.149	574.2
360.527	563.4
360.926	566.8
361.326	576.8
361.726	574.4
362.125	571.8
362.525	570
362.925	570.2
363.325	571.8
363.724	572.6
364.124	575.8
364.524	569
364.924	573
365.324	585.2
365.725	565.8
366.125	578.8
366.525	576.4
366.904	568
367.304	557
367.705	586.8
368.105	577.2
368.506	569.4
368.906	572.6
369.307	569.4
369.708	572.8
370.108	569.6
370.509	581.4
370.91	563.6
371.311	579.8
371.712	575.2
372.113	560.4
372.514	567.4
372.894	570.6
373.295	571.6
373.696	582
374.097	571.4
374.499	595.6
374.9	576.2
375.301	565.8
375.703	573.2
376.105	571.4
376.506	571
376.908	573.8
377.309	568.2
377.711	571.6
378.113	571.6
378.493	570.6
378.895	568.6
379.297	578.6
379.699	555.4
380.102	568.8
380.504	571.6
380.906	568.2
381.308	589.8
381.71	569
382.113	570.6
382.515	565
382.918	569.8
383.299	572.8
383.701	576.8
384.104	571.2
384.507	555
384.909	569.8
385.312	560.6
385.715	561
386.118	569
386.521	567
386.924	574.4
387.327	566.4
387.709	562.8
388.112	556.8
388.515	571.2
388.918	568.4
389.322	579.6
389.725	566.4
390.129	595.4
390.532	570.2
390.936	572
391.339	563.6
391.743	566.8
392.125	566.4
392.529	573
392.933	582.4
393.337	569.4
393.74	574.6
394.144	572.8
394.548	567.2
394.953	572
395.357	575.6
395.761	564.8
396.144	567
396.548	562.6
396.952	571
397.357	577.8
397.761	569.2
398.166	567.4
398.57	571.4
398.975	569.2
399.379	565.2
399.763	607
400.168	568.2
400.572	571.8
400.977	568
401.382	580.8
401.787	580.6
402.192	578.8
402.597	574.6
403.002	555.6
403.386	580.4
403.791	578.4
404.197	563
404.602	574.8
405.007	565.2
405.413	564.4
405.818	570.4
406.224	564
406.608	562.6
407.014	561.2
407.42	583
407.825	566.2
408.231	575
408.637	573
409.043	585
409.449	563
409.834	567.6
410.24	564.4
410.646	578.4
411.052	578.4
411.458	574.6
411.865	579.8
412.271	579.8
412.677	573.4
413.062	574.8
413.469	562.8
413.875	587.6
414.282	578.2
414.689	571.6
415.095	586
415.502	568.4
415.888	571.4
416.294	569.8
416.701	600.8
417.108	572.2
417.515	580.4
417.923	576.8
418.33	589.4
418.715	580.4
419.123	573.4
419.53	571.8
419.937	565.4
420.345	585.8
420.752	573.8
421.16	581.6
421.546	576.2
421.953	574.8
422.361	568.2
422.769	570.2
423.177	562.6
423.585	586.8
423.992	586.2
424.379	584.4
424.787	575.4
425.195	586
425.603	567.6
426.011	581.6
426.419	582.4
426.806	577.2
427.214	568.8
427.623	579.2
428.031	588.6
428.44	580
428.848	586.8
429.235	588.8
429.644	580.4
430.053	582.6
430.461	595
430.87	606.6
431.279	583.8
431.666	579.2
432.075	590.4
432.484	596
432.893	598
433.302	612.6
433.711	629.4
434.099	610.6
434.508	612.4
434.918	604.2
435.327	627.6
435.737	628
436.125	621.6
436.534	636.6
436.944	642.6
437.353	643
437.763	666.2
438.173	649.4
438.561	667.6
438.971	656.6
439.381	669.6
439.791	681.6
440.201	672.8
440.589	689.2
440.999	686.2
441.409	693
441.819	686.4
442.23	714.6
442.619	714.8
443.029	710.2
443.439	709.2
443.85	724.4
444.26	726.6
444.649	726
445.06	722.6
445.471	729.6
445.881	731
446.292	748.6
446.682	747.2
447.092	731
447.503	781
447.914	747.8
448.325	745.4
448.715	746.8
449.126	745.4
449.537	757.4
449.948	758.2
450.338	750.6
450.75	772.8
451.161	757
451.572	769.6
451.984	749
452.374	756.6
452.786	763.2
453.197	767
453.609	768.8
453.999	748
454.411	767.2
454.823	778.6
455.235	763.6
455.647	756.2
456.037	773.2
456.449	757.8
456.862	766
457.274	762
457.665	765.8
458.077	773.8
458.489	782.4
458.902	760.4
459.293	767.8
459.705	778.6
460.118	761
460.53	767.2
460.921	769.6
461.334	776.6
461.747	769.6
462.16	788.8
462.551	787.4
462.964	771.2
463.377	754.8
463.79	772.2
464.182	768.4
464.595	764.8
465.008	778.2
465.421	771.2
465.813	755.4
466.226	775
466.64	766
467.053	794.6
467.445	776
467.859	788.2
468.272	776
468.686	778.8
469.078	768.4
469.492	759.4
469.906	780.2
470.298	773.2
470.712	761.8
471.126	799.8
471.54	753.6
471.933	758.6
472.347	770.2
472.761	757.8
473.175	764.6
473.568	752.8
473.982	761.4
474.397	764
474.79	762.2
475.204	776.2
475.619	755.2
476.033	762.4
476.426	753.2
476.841	744.8
477.256	770.4
477.649	756.4
478.064	754
478.479	757.8
478.872	756.4
479.287	734
479.702	744
480.118	747.6
480.511	748.2
480.927	745.6
481.342	749
481.736	755
482.151	736.4
482.566	748
482.96	751.8
483.376	755.4
483.792	737.8
484.186	751
484.602	749.2
485.017	745.2
485.412	743.8
485.827	743.8
486.243	740.2
486.638	757.6
487.054	746
487.47	744.2
487.865	732.6
488.281	741.6
488.697	733.6
489.092	735
489.508	720.4
489.925	741.4
490.32	727.4
490.736	738
491.153	736
491.548	727.2
491.964	734.2
492.381	700.6
492.776	728.8
493.193	714
493.61	726.8
494.006	724.6
494.422	726.6
494.84	712.8
495.235	721.8
495.652	717.4
496.069	714.6
496.465	713.4
496.883	706
497.3	738
497.696	707.4
498.113	713
498.509	700.2
498.927	693.8
499.344	697.2
499.741	699.2
500.158	703.4
500.576	704.4
500.973	696.2
501.39	683.6
501.787	691.4
502.205	693.4
502.623	691.2
503.02	689
503.438	689.8
503.856	690.6
504.253	696.8
504.671	693.2
505.068	678.8
505.486	691
505.905	688.8
506.302	677
506.72	690.8
507.118	678.8
507.536	674.4
507.955	673.2
508.352	679.4
508.771	670.6
509.169	669.8
509.587	671.8
510.006	677
510.404	665.6
510.823	671.4
511.221	677
511.64	669.2
512.038	676
512.457	678
512.877	667.8
513.275	666
513.694	664.4
514.092	666.4
514.512	669.4
514.91	668.2
515.33	660
515.749	664.8
516.148	669.4
516.568	660.4
516.966	660.8
517.386	655.6
517.785	657.8
518.205	648.2
518.603	658.2
519.024	650.4
519.444	656
519.843	665.8
520.263	664
520.662	651.6
521.082	649.8
521.481	658.4
521.902	646
522.301	648.4
522.722	649.4
523.121	648.8
523.542	640
523.963	637.4
524.362	646.2
524.783	647.4
525.183	637
525.604	651.6
526.003	639.6
526.425	634.4
526.824	646
527.246	647.6
527.646	647.8
528.067	641.2
528.467	630.8
528.888	631
529.289	628.8
529.71	632.2
530.11	619.4
530.532	625.6
530.932	621.6
531.354	616
531.755	645
532.176	623.2
532.577	618.8
532.999	623.4
533.4	621.2
533.822	623
534.223	633.4
534.645	622.8
535.046	619.6
535.468	622.2
535.869	635.8
536.292	618.8
536.693	638.4
537.115	624.6
537.516	622
537.939	615
538.34	633
538.742	636.2
539.165	616.6
539.566	612.8
539.989	614.4
540.391	614
540.814	613.6
541.216	616.6
541.639	621.2
542.041	617.2
542.464	613.4
542.866	613.8
543.268	605.8
543.691	617
544.093	619.2
544.517	631.2
544.919	602.2
545.343	628.8
545.745	606
546.147	619.4
546.571	603
546.974	606.6
547.398	605
547.8	617.2
548.224	595.8
548.627	605.4
549.03	607.6
549.454	597.6
549.857	595.4
550.281	603.2
550.684	596.4
551.087	616.2
551.512	607
551.915	607.4
552.34	605.2
552.743	593.2
553.146	601.6
553.571	595.4
553.975	611.4
554.399	599.8
554.803	629.2
555.207	587.2
555.632	592.8
556.036	601.2
556.461	589.8
556.865	599.2
557.268	595.2
557.694	591.2
558.098	591.8
558.502	600.4
558.927	594.8
559.332	591.2
559.736	596.2
560.162	597.6
560.566	592.4
560.992	602.2
561.396	593
561.801	589
562.227	593.2
562.631	592.2
563.036	589.4
563.462	593.8
563.867	585.8
564.272	585.4
564.698	583.8
565.103	587.8
565.508	598.8
565.935	588.4
566.34	592
566.745	592
567.172	590.6
567.577	606.4
567.982	591
568.409	589.8
568.815	579.6
569.22	589.4
569.626	577.6
570.053	572.6
570.459	581.4
570.865	579.4
571.292	587.4
571.698	583.6
572.104	570.4
572.531	578
572.937	584
573.343	577
573.75	578.4
574.177	581.6
574.583	580.4
574.99	578.8
575.396	576
575.824	579
576.231	581.6
576.637	570.8
577.065	607
577.472	576.2
577.879	565.4
578.286	594.2
578.714	575.6
579.121	576
579.528	576
579.935	579.2
580.364	574.2
580.771	565.6
581.178	571
581.585	572.8
582.014	583.6
582.421	570.8
582.829	577.6
583.236	579
583.644	576
584.073	580.8
584.481	576.4
584.889	574
585.296	580.2
585.726	577.4
586.134	574
586.542	573.6
586.95	586.2
587.358	568.4
587.787	576.8
588.196	584.2
588.604	578.6
589.012	576.8
589.421	569.8
589.851	575.2
590.259	574.8
590.668	576.2
591.076	602.6
591.485	570.2
591.894	584.4
592.324	585.4
592.733	582.8
593.142	568.4
593.551	567.2
593.96	597.2
594.369	562.8
594.8	567.6
595.209	574.4
595.618	563.8
596.028	570.2
596.437	579.4
596.847	580
597.256	570.2
597.687	581.4
598.097	574.6
598.507	567.4
598.917	575.4
599.327	586.6
599.736	579.8
600.146	580.6
600.556	582.8
600.988	589
601.398	570.6
601.808	578.4
602.219	560.8
602.629	573.6
603.039	579.2
603.45	594
603.86	576.2
604.271	591.4
604.703	571.8
605.114	573
605.525	577.4
605.935	587
606.346	593
606.757	582.8
607.168	573
607.579	573
607.99	579.6
608.402	574.6
608.813	580
609.224	573.2
609.636	571.6
610.047	576.2
610.48	580.2
610.892	575.4
611.303	577.6
611.715	573
612.127	567.6
612.539	574.6
612.95	572.8
613.362	569.2
613.774	569
614.186	571.6
614.599	568.8
615.011	579.4
615.423	581.4
615.835	570
616.248	573
616.66	573.6
617.073	574.4
617.485	569
617.898	578.2
618.311	581.6
618.723	578.6
619.136	594.8
619.549	585
619.962	595.2
620.375	578.6
620.788	573.2
621.201	577.2
621.614	588.4
622.028	573
622.441	584.6
622.854	584.2
623.268	563.8
623.681	582.2
624.095	578.2
624.509	583.2
624.922	583.6
625.336	569.2
625.728	565
626.142	578.2
626.556	581
626.97	572.6
627.384	562.8
627.799	569.4
628.213	576.4
628.627	574.8
629.041	571
629.456	563.2
629.87	578.2
630.285	579
630.699	581
631.093	565.2
631.507	581.4
631.922	572.6
632.337	584.2
632.752	575.4
633.167	579.6
633.582	566.2
633.997	578.4
634.412	567.4
634.806	572.2
635.221	572
635.637	582.2
636.052	560.6
636.468	576.8
636.883	586.4
637.299	564.2
637.715	566.4
638.109	571.2
638.525	562.8
638.941	573.6
639.357	575.6
639.773	586.2
640.189	576.6
640.584	571.2
641	566.6
641.416	564.8
641.832	570.4
642.249	569
642.665	574.4
643.06	576
643.477	573.4
643.894	560.8
644.31	569
644.727	566.2
645.123	574.8
645.54	569.8
645.957	574.8
646.374	581.4
646.77	572.8
647.187	599.6
647.604	565.4
648.021	559.8
648.439	564.2
648.835	565.4
649.252	568.4
649.67	562.6
650.088	569.2
650.484	565.4
650.902	576.2
651.32	566.8
651.738	568.8
652.134	572
652.552	579.8
652.971	578.2
653.389	565.8
653.786	571
654.204	587.6
654.622	563
655.019	563.2
655.438	570.2
655.857	566.2
656.275	567.8
656.673	560
657.091	573
657.51	560.6
657.908	569.6
658.327	574.2
658.746	559
659.144	566.8
659.563	577.2
659.982	569.2
660.38	553
660.8	565.6
661.219	576.6
661.617	565.6
662.037	563.2
662.457	574.6
662.855	550.8
663.275	589.8
663.695	564.4
664.094	568.8
664.514	567.4
664.934	560
665.333	561.8
665.753	572.2
666.152	556.6
666.572	554.6
666.993	569
667.392	562.4
667.812	560.2
668.212	561
668.632	560.2
669.053	553.8
669.453	559.8
669.874	565.2
670.273	553.8
670.694	551.6
671.116	564.2
671.515	565.4
671.937	558.6
672.337	556.2
672.758	562.8
673.158	559.4
673.58	550.6
673.98	556.8
674.402	569.2
674.824	564.8
675.224	560.2
675.646	554.4
676.047	562.2
676.469	561.4
676.869	561
677.292	557.2
677.693	551
678.115	553.8
678.516	558.8
678.939	559.4
679.34	560.8
679.762	570.6
680.164	563.2
680.586	560.2
680.988	560.8
681.411	572.2
681.812	552.4
682.236	554.2
682.637	555.8
683.061	551
683.462	560.6
683.864	557.4
684.288	566.2
684.69	550.8
685.114	564
685.516	564.6
685.94	551.8
686.342	558.8
686.766	558.4
687.168	552
687.571	570.4
687.995	559.4
688.398	554
688.822	559.2
689.225	569.8
689.628	573.8
690.052	557.4
690.456	559.2
690.88	551.2
691.284	555.2
691.687	561.6
692.112	556.2
692.515	551.4
692.919	554.2
693.344	557
693.747	556
694.173	556.6
694.577	563.4
694.98	554.6
695.406	555.8
695.81	561.4
696.214	556.6
696.64	562.4
697.044	554.6
697.448	556.4
697.874	546.6
698.279	550.6
698.684	548.8
699.11	553
699.514	552.2
699.919	547.6
700.324	552
700.75	550
701.156	557.4
701.561	562.8
701.987	565.2
702.393	560.4
702.798	564.2
703.203	555
703.63	553.2
704.036	549
704.442	556.2
704.847	547.6
705.274	558.6
705.68	557.4
706.086	560.8
706.492	550.4
706.92	553.4
707.326	560.8
707.732	550.8
708.139	554
708.545	548.2
708.973	550.8
709.38	561
709.786	544.8
710.193	570.6
710.6	555.4
711.028	547.2
711.435	547.8
711.842	551.2
712.249	556.2
712.656	554.2
713.064	558.6
713.492	544.2
713.9	554
714.307	555.6
714.715	548.6
715.123	562
715.53	560.2
715.938	554.6
716.367	557.2
716.775	554.4
717.184	547.4
717.592	554.2
718	563.4
718.408	583
718.816	588.4
719.225	563
719.633	555.2
720.042	548.6
720.472	546.6
720.881	570.2
721.29	559.8
721.699	541.4
722.108	561.4
722.517	557
722.926	545.8
723.335	562.4
723.744	550.2
724.154	547
724.563	548.8
724.973	544.4
725.382	546.8
725.792	555.4
726.202	544.2
726.612	569.4
727.022	553.2
727.432	542.4
779.813	546.8
780.223	579.4
780.634	554.6
781.044	539.2
781.454	548.8
781.865	557.2
782.276	552.8
782.686	556.6
783.097	553.6
783.508	552.6
783.919	547.6
784.33	558.4
784.741	553
785.152	547
785.563	544.6
785.974	552.4
786.386	555.8
786.776	553.2
787.188	551.2
787.599	543.8
788.011	556.6
788.423	553.8
788.835	544
789.247	548.4
789.659	546.2
790.071	546
790.483	583.8
790.874	548.6
791.286	563.2
791.699	542
792.111	552.4
792.524	552.2
792.937	548.6
793.349	552.4
793.741	541.6
794.154	546
794.567	564.8
794.98	547.8
795.393	536
795.785	562.8
796.198	550
796.612	557
797.026	547.2
797.439	539.8
797.831	547.4
798.245	547.2
798.659	549.4
799.073	547.2
799.487	545.6
799.88	554.2
800.294	557.6
800.708	556.4
801.123	556.6
801.516	567
801.93	548.2
802.345	541
802.76	555.4
803.153	557.6
803.568	558.8
803.983	556.6
804.377	554.6
804.792	542.6
805.207	534.4
805.601	551.6
806.016	573.2
806.432	546.4
806.826	581
807.242	556.2
807.658	549.2
808.052	553.8
808.468	544.4
808.884	539.2
809.279	545.2
809.695	559.4
810.111	568.8
810.506	548.8
810.922	560.4
811.339	548.2
811.734	559.4
812.151	546.2
812.546	542
812.963	552.8
813.38	546.2
813.776	543.2
814.193	570
814.589	550.6
815.006	545.6
815.402	544.4
815.82	542.6
816.237	542.6
816.633	549
817.051	543.4
817.448	548.8
817.866	541.8
818.262	560.4
818.68	547.6
819.077	544
819.495	542.2
819.892	576.6
820.311	537.8
820.708	549.4
821.127	544
821.524	552
821.943	541.8
822.34	555
822.759	556
823.157	547.2
823.576	558.2
823.974	553.4
824.393	562.8
824.791	543
825.189	540.8
825.609	553.2
826.007	546.2
826.427	537.6
826.826	546.6
827.246	557.2
827.644	541
828.043	563.8
828.463	554.6
828.862	554
829.261	549
829.682	535.2
830.081	555
830.502	545.6
830.901	556.2
831.301	556.2
831.722	540.6
832.121	547
832.521	546.6
832.943	550.2
833.342	546.4
833.742	542.2
834.164	544
834.564	543.4
834.965	546.2
835.386	546.8
835.787	551.4
836.188	556
836.588	550.6
837.01	546.2
837.411	543.6
837.812	555.2
838.213	549.4
838.636	546.2
839.037	597.4
839.438	550.2
839.84	550.8
840.263	551.4
840.664	548
841.066	548.8
841.468	549.8
841.891	540.6
842.293	554
842.695	546
843.098	552.4
843.5	542.4
843.902	550
844.326	550.8
844.729	557.2
845.131	561.4
845.534	549.6
845.937	545.6
846.34	559.6
846.764	541
847.167	553.2
847.571	542.6
847.974	548.8
848.377	548.8
848.781	578.2
849.184	558.8
849.588	554.2
849.992	543.2
850.396	545.4
850.821	559.6
851.225	553.8
851.63	543.6
852.034	561
852.438	546.4
852.843	603
853.247	545
853.652	546.2
854.057	565.8
854.462	558
854.867	546
855.272	565.4
855.677	554.8
856.082	541.6
856.487	544.4
