#lambda/nm	C1
208.295	543.6
208.67	483
209.045	446.8
209.419	452
209.794	608.8
210.169	592.4
210.544	706.8
210.919	609
211.295	603.4
211.67	609.8
212.045	610
212.421	599.4
212.796	641.4
213.172	601.2
213.547	601.6
213.923	594.8
214.299	593.4
214.675	604.8
215.051	605.8
215.427	619.2
215.803	621
216.179	608.8
216.555	603.4
216.932	607.8
217.308	603.4
217.684	603.4
218.061	608.2
218.438	617
218.814	597.4
219.191	610.8
219.568	598.2
219.945	594
220.322	606.6
220.699	603
221.076	606.8
221.453	615.8
221.83	599.6
222.208	598
222.585	603.2
222.962	600.4
223.34	607.4
223.717	598.2
224.095	593.8
224.473	598.6
224.851	601.6
225.229	596.8
225.607	614.4
225.985	592.6
226.363	601
226.741	603
227.119	603.2
227.497	613.6
227.876	591.2
228.254	617.8
228.633	610.4
229.011	608.6
229.39	605.6
229.769	611.6
230.148	622.8
230.527	624.8
230.905	611.2
231.284	608.6
231.664	596.4
232.043	622.4
232.422	611.2
232.801	607
233.181	611.8
233.56	602.6
233.94	608.4
234.319	593.4
234.699	599.8
235.079	639
235.458	644.6
235.838	623
236.218	603
236.598	592.2
236.978	601.6
237.358	600.8
237.738	600
238.119	615.8
238.499	597
238.88	607.6
239.26	622.4
239.641	601.6
240.021	592.6
240.402	605
240.783	609.6
241.163	600
241.544	605.8
241.925	606.6
242.306	616
242.687	605.8
243.069	600.6
243.45	611
243.831	604.4
244.212	606.4
244.594	629.6
244.975	610.4
245.357	606.2
245.739	597
246.12	602.8
246.502	620.2
246.884	601.6
247.266	602
247.648	609.4
248.03	623.4
248.412	607.6
248.794	605.2
249.176	607.2
249.559	616.4
249.941	600.2
250.323	594.4
250.706	604.2
251.089	603.4
251.471	613.2
251.854	604.4
252.237	605.8
252.62	611.2
253.002	594
253.385	604.8
253.769	615.2
254.152	606.4
254.535	605
254.918	599.2
255.301	606.4
255.685	604.6
256.068	593.2
256.452	622
256.835	608.8
257.219	613.4
257.603	614.4
257.986	602.2
258.37	606.2
258.754	595.2
259.138	603.6
259.522	615.4
259.906	599
260.29	602.8
260.675	597
261.059	600.2
261.443	588.6
261.828	602.2
262.212	608.2
262.597	592
262.981	602
263.366	614
263.751	613.2
264.136	596.2
264.521	602.2
264.906	596
265.291	607.6
265.676	601.6
266.061	611.6
266.446	626
266.831	604.8
267.217	634.6
267.602	615.4
267.987	606.2
268.373	605.2
268.759	602
269.144	611.6
269.53	599.4
269.916	604
270.302	611.8
270.688	606.4
271.074	604.6
271.46	614
271.846	625
272.232	606.8
272.618	596.4
273.004	598.8
273.391	615.2
273.777	613
274.164	607.6
274.55	619.8
274.937	599.6
275.324	608.6
275.71	605.8
276.097	610.2
276.484	596.4
276.871	608
277.258	603.4
277.645	594.6
278.032	599.4
278.419	605.8
278.807	614.8
279.194	601.2
279.581	604
279.969	606
280.356	612.6
280.744	611.8
281.131	624
281.519	612.8
281.907	595.2
282.295	600.2
282.682	620.2
283.07	609.2
283.458	614.4
283.846	616.4
284.235	609.4
284.623	612.8
285.011	593.2
285.399	615.8
285.788	606.6
286.176	594.8
286.565	615.6
286.953	599
287.342	604
287.731	597.6
288.119	600.2
288.508	603.8
288.897	599.8
289.286	595.6
289.675	604.2
290.064	610.2
290.453	601.4
290.821	603.6
291.21	614
291.599	601.4
291.989	608.4
292.378	612.6
292.768	622.4
293.157	604.6
293.547	613.8
293.936	597.2
294.326	597
294.716	605.2
295.106	600.2
295.496	607.8
295.886	610.8
296.276	601.8
296.666	599.2
297.056	600
297.446	601.2
297.836	619.2
298.227	600.2
298.617	609.8
299.008	610.6
299.398	603
299.789	606.2
300.179	603.4
300.57	619.6
300.961	597.6
301.352	604.6
301.742	612
302.133	611.6
302.524	607.2
302.915	618.8
303.307	600.6
303.698	617.6
304.089	612
304.48	605.2
304.872	617.2
305.263	612.6
305.655	593
306.046	616.8
306.438	613.2
306.829	596.8
307.221	620.2
307.613	608.6
308.005	615.2
308.397	617.6
308.789	627.6
309.181	624.6
309.573	627
309.965	627.4
310.357	609
310.749	617.2
311.142	607.8
311.534	604.6
311.926	611.8
312.319	602.2
312.711	599.2
313.104	614.4
313.497	604.4
313.889	632.2
314.282	615.8
314.675	624.4
315.068	605.2
315.461	603.8
315.854	631.6
316.247	607.8
316.64	599.4
317.033	608.2
317.405	608.4
317.798	598.2
318.192	607.6
318.585	597.2
318.979	613.4
319.372	603.8
319.766	602
320.16	610.2
320.553	613.8
320.947	629
321.341	603
321.735	606
322.129	590.8
322.523	625
322.917	598.8
323.311	618.2
323.705	606.6
324.099	610.4
324.494	621
324.888	618.4
325.282	597.4
325.677	618.2
326.071	614.6
326.466	615.4
326.861	612.6
327.255	621.2
327.65	622.4
328.045	619.4
328.44	611.6
328.835	617
329.23	602.4
329.625	623.6
330.02	604.6
330.415	627
330.81	606.8
331.206	608.8
331.601	597.4
331.996	614
332.37	628.4
332.766	602.8
333.161	626.4
333.557	605
333.953	605.4
334.348	897.4
334.744	606.8
335.14	611.8
335.536	597.2
335.932	622.6
336.328	603
336.724	610.4
337.12	605.4
337.516	614
337.913	602.4
338.309	625
338.705	610.6
339.102	619.6
339.498	600.4
339.895	617.2
340.291	598.4
340.688	617.8
341.085	603.4
341.481	602.6
341.878	604.4
342.275	631.8
342.672	603.2
343.069	598
343.466	595.6
343.842	610.4
344.239	594.2
344.636	609.8
345.033	593.6
345.431	604.6
345.828	610.4
346.225	597.4
346.623	635.4
347.02	606
347.418	607.6
347.816	616.4
348.213	601.2
348.611	612.8
349.009	598.8
349.407	608.2
349.805	595.6
350.203	595
350.601	616.2
350.999	606.8
351.397	653.4
351.795	602
352.193	611.8
352.57	607.4
352.969	611
353.367	590.4
353.766	595.2
354.164	604.2
354.563	614.8
354.961	601.2
355.36	598.8
355.759	604.4
356.158	592
356.557	596.2
356.956	588.8
357.355	592.4
357.754	599.4
358.153	607.8
358.552	624.2
358.951	591.4
359.35	605.2
359.75	600.2
360.149	591.6
360.527	585
360.926	599.2
361.326	600.4
361.726	594
362.125	595.2
362.525	602.8
362.925	596.2
363.325	600.8
363.724	597.4
364.124	599.2
364.524	589
364.924	600.4
365.324	619.4
365.725	582.4
366.125	604.8
366.525	596
366.904	602.6
367.304	586
367.705	611.4
368.105	616
368.506	592.8
368.906	594.2
369.307	604.2
369.708	603.8
370.108	582
370.509	607.4
370.91	589.2
371.311	604.2
371.712	599.6
372.113	595.4
372.514	593
372.894	591.4
373.295	591
373.696	600.6
374.097	605.2
374.499	622.2
374.9	600.6
375.301	593.4
375.703	601.8
376.105	587.4
376.506	601.8
376.908	601.4
377.309	600.2
377.711	585.6
378.113	589.6
378.493	597.2
378.895	585.2
379.297	599.4
379.699	586
380.102	593.4
380.504	599.6
380.906	591
381.308	621.2
381.71	587.6
382.113	597.4
382.515	594.8
382.918	605.6
383.299	596
383.701	600.2
384.104	594
384.507	585.4
384.909	593
385.312	585.6
385.715	589.2
386.118	595.8
386.521	581.4
386.924	604.4
387.327	594.6
387.709	579.2
388.112	582.2
388.515	595.8
388.918	598.6
389.322	606.4
389.725	596.6
390.129	623.2
390.532	607.2
390.936	600
391.339	595.2
391.743	597
392.125	598.4
392.529	604.6
392.933	612.2
393.337	597.8
393.74	590.2
394.144	599.8
394.548	599.2
394.953	598.4
395.357	596.8
395.761	599.4
396.144	600.2
396.548	602
396.952	593.2
397.357	597
397.761	595.8
398.166	590.4
398.57	596.2
398.975	592.2
399.379	595.8
399.763	641.6
400.168	597.8
400.572	593.4
400.977	597.6
401.382	616.6
401.787	604.6
402.192	622.2
402.597	611.6
403.002	582.6
403.386	611.8
403.791	605.6
404.197	596.2
404.602	599.6
405.007	598.8
405.413	598.8
405.818	601.8
406.224	587.6
406.608	592.4
407.014	588.8
407.42	618.2
407.825	591.8
408.231	607.2
408.637	597.2
409.043	604.2
409.449	597.4
409.834	592
410.24	593.2
410.646	601.2
411.052	607.4
411.458	598.8
411.865	605
412.271	611.2
412.677	601.8
413.062	602.2
413.469	592.2
413.875	616
414.282	610.2
414.689	600
415.095	600.4
415.502	585.2
415.888	593
416.294	583.8
416.701	632.8
417.108	588.4
417.515	604.4
417.923	596.2
418.33	611.2
418.715	603
419.123	592.8
419.53	599.4
419.937	602.4
420.345	615
420.752	597.6
421.16	616.6
421.546	601.8
421.953	605.2
422.361	589.2
422.769	602.4
423.177	588.4
423.585	619
423.992	625
424.379	616.4
424.787	603.4
425.195	623.4
425.603	601.4
426.011	619.2
426.419	614.8
426.806	610
427.214	604.6
427.623	613.2
428.031	622.4
428.44	608.4
428.848	621.2
429.235	621.6
429.644	618.2
430.053	612
430.461	630.4
430.87	645.2
431.279	628.4
431.666	625.4
432.075	633
432.484	648
432.893	638.6
433.302	673.2
433.711	692.2
434.099	676.4
434.508	669.2
434.918	672
435.327	687.2
435.737	696.4
436.125	710.2
436.534	721
436.944	732
437.353	738.2
437.763	765.6
438.173	739.4
438.561	766.6
438.971	753
439.381	782.2
439.791	788.4
440.201	769.2
440.589	795.8
440.999	815
441.409	819
441.819	809.2
442.23	845.6
442.619	849.6
443.029	843.4
443.439	851.8
443.85	862
444.26	872.2
444.649	878.4
445.06	868.4
445.471	861.4
445.881	872.8
446.292	891
446.682	906.4
447.092	887
447.503	939.2
447.914	894.2
448.325	906.6
448.715	905.2
449.126	900.6
449.537	911.8
449.948	912.4
450.338	904
450.75	921.6
451.161	927.4
451.572	908
451.984	903.6
452.374	909.4
452.786	915.2
453.197	919.6
453.609	925
453.999	912.2
454.411	917.2
454.823	937
455.235	924.8
455.647	917.8
456.037	938
456.449	916
456.862	943
457.274	926.2
457.665	928
458.077	944
458.489	970
458.902	933.2
459.293	935.8
459.705	941.8
460.118	928
460.53	931.2
460.921	936
461.334	935.6
461.747	949.4
462.16	943.4
462.551	954.2
462.964	949.2
463.377	927.8
463.79	939.6
464.182	952
464.595	931.8
465.008	948.6
465.421	941.4
465.813	934.4
466.226	947.2
466.64	943.2
467.053	980.4
467.445	955.6
467.859	963.6
468.272	945.2
468.686	951
469.078	943.8
469.492	924.2
469.906	940
470.298	943.6
470.712	935
471.126	980.6
471.54	935.2
471.933	936.8
472.347	929.4
472.761	941
473.175	930.8
473.568	938
473.982	918.6
474.397	933.6
474.79	930.6
475.204	929.8
475.619	919.8
476.033	921.4
476.426	926.6
476.841	905.4
477.256	932.2
477.649	914.6
478.064	927.4
478.479	907.8
478.872	913.2
479.287	896.4
479.702	911.4
480.118	913.8
480.511	911
480.927	898.8
481.342	902.6
481.736	902.2
482.151	886.6
482.566	912
482.96	902.2
483.376	896.2
483.792	894
484.186	901.8
484.602	903.4
485.017	892.2
485.412	877
485.827	898
486.243	880.4
486.638	905.2
487.054	888.6
487.47	899.6
487.865	882.8
488.281	878.2
488.697	873.2
489.092	866.6
489.508	858.8
489.925	870.6
490.32	867.8
490.736	878.2
491.153	873
491.548	865
491.964	875.2
492.381	841.8
492.776	865.4
493.193	857.4
493.61	859.6
494.006	854.8
494.422	851
494.84	833.4
495.235	856
495.652	851.8
496.069	846
496.465	830.2
496.883	837.4
497.3	853
497.696	834.6
498.113	838.4
498.509	821.6
498.927	816.6
499.344	816.4
499.741	819.8
500.158	826.2
500.576	815.8
500.973	814.4
501.39	808
501.787	802.4
502.205	813.2
502.623	805.4
503.02	803.2
503.438	782.4
503.856	805.4
504.253	798.6
504.671	797.4
505.068	783.4
505.486	788.8
505.905	798.4
506.302	788.8
506.72	786.8
507.118	775.2
507.536	789
507.955	776.2
508.352	786
508.771	773.2
509.169	779.6
509.587	755.4
510.006	765
510.404	756.6
510.823	759.4
511.221	752.6
511.64	762.2
512.038	769.2
512.457	753.2
512.877	754
513.275	748.2
513.694	752.4
514.092	750.8
514.512	754.2
514.91	762.2
515.33	749.2
515.749	742.2
516.148	745.4
516.568	742.8
516.966	738
517.386	734.4
517.785	730
518.205	732.4
518.603	726.4
519.024	732.6
519.444	725.8
519.843	733.4
520.263	734.4
520.662	733.4
521.082	718.8
521.481	722.2
521.902	717.8
522.301	725.6
522.722	721.8
523.121	706.2
523.542	716.2
523.963	709.4
524.362	715.2
524.783	712
525.183	703.6
525.604	710.4
526.003	698.8
526.425	704.8
526.824	713.2
527.246	707.8
527.646	717
528.067	706.2
528.467	703.6
528.888	707
529.289	699.2
529.71	698.8
530.11	692.6
530.532	689
530.932	693.2
531.354	689.6
531.755	703.8
532.176	698.6
532.577	680.6
532.999	693.2
533.4	685
533.822	696.8
534.223	682.8
534.645	677.4
535.046	678
535.468	677.6
535.869	686.4
536.292	673.4
536.693	704.4
537.115	680.8
537.516	676
537.939	673.8
538.34	700.6
538.742	675.6
539.165	673
539.566	671
539.989	666
540.391	661.8
540.814	673
541.216	665
541.639	676
542.041	677.2
542.464	668.8
542.866	667.6
543.268	651.2
543.691	671
544.093	677.6
544.517	684.6
544.919	647.2
545.343	688.8
545.745	652.2
546.147	663.8
546.571	655.2
546.974	646
547.398	650.8
547.8	664.2
548.224	654.8
548.627	649.2
549.03	656
549.454	642.2
549.857	638.8
550.281	646
550.684	647.2
551.087	653.8
551.512	652.8
551.915	657
552.34	641
552.743	643
553.146	644.4
553.571	641.4
553.975	659.4
554.399	639
554.803	688.8
555.207	643.4
555.632	634.4
556.036	654
556.461	634.4
556.865	644.8
557.268	626.4
557.694	636.6
558.098	646.8
558.502	634.4
558.927	635.6
559.332	637.6
559.736	640.8
560.162	642.8
560.566	634.6
560.992	635.8
561.396	637.2
561.801	630.6
562.227	632.8
562.631	630.2
563.036	628.4
563.462	635.4
563.867	640.8
564.272	612.8
564.698	636.2
565.103	620.4
565.508	651.6
565.935	626
566.34	629.4
566.745	638.2
567.172	622.4
567.577	629.4
567.982	630.6
568.409	619.4
568.815	615.8
569.22	618.4
569.626	628.2
570.053	614.8
570.459	630.8
570.865	619.2
571.292	617.8
571.698	628.6
572.104	605.6
572.531	613
572.937	629.4
573.343	618
573.75	619
574.177	617.6
574.583	622
574.99	611.4
575.396	622
575.824	611.8
576.231	621.2
576.637	614.2
577.065	639.2
577.472	613.8
577.879	618.6
578.286	628.8
578.714	602.2
579.121	603.2
579.528	613
579.935	608.8
580.364	612.2
580.771	602
581.178	606.8
581.585	610.2
582.014	619
582.421	610.4
582.829	610
583.236	611.6
583.644	609
584.073	615.6
584.481	611
584.889	605
585.296	613
585.726	609.6
586.134	602.8
586.542	604.6
586.95	624.2
587.358	596.6
587.787	609
588.196	615.8
588.604	604
589.012	601.2
589.421	599.6
589.851	597.2
590.259	609.4
590.668	604.6
591.076	638.6
591.485	600.6
591.894	601.2
592.324	616
592.733	616.8
593.142	588.8
593.551	604.6
593.96	636
594.369	600
594.8	591.8
595.209	599.6
595.618	585.2
596.028	604.4
596.437	588.4
596.847	602.6
597.256	597.6
597.687	601.6
598.097	600.6
598.507	590.4
598.917	602.6
599.327	595.6
599.736	600.6
600.146	609.6
600.556	600.2
600.988	605.6
601.398	592.8
601.808	599.4
602.219	585.2
602.629	588
603.039	599.4
603.45	621.4
603.86	594.8
604.271	609.2
604.703	599.2
605.114	583.4
605.525	591.2
605.935	591
606.346	610
606.757	596
607.168	585.8
607.579	588.2
607.99	593.6
608.402	591.4
608.813	598.6
609.224	590.6
609.636	586.8
610.047	605.8
610.48	590
610.892	596.6
611.303	597.8
611.715	593.8
612.127	586
612.539	590
612.95	596.2
613.362	591.8
613.774	582.6
614.186	585.6
614.599	589.8
615.011	601.6
615.423	595.6
615.835	582.8
616.248	584.4
616.66	599.6
617.073	584.4
617.485	588
617.898	598.6
618.311	590
618.723	596.8
619.136	616.2
619.549	603.4
619.962	616.6
620.375	585.8
620.788	601.6
621.201	585.2
621.614	590
622.028	588.6
622.441	590
622.854	603.2
623.268	582.8
623.681	590.6
624.095	592.4
624.509	600
624.922	591.6
625.336	579.2
625.728	595.4
626.142	598.6
626.556	596.6
626.97	594.4
627.384	582.6
627.799	592.4
628.213	604.6
628.627	589.2
629.041	584.8
629.456	584.4
629.87	596.4
630.285	595.4
630.699	601.8
631.093	587.4
631.507	594.2
631.922	593
632.337	601.8
632.752	591.4
633.167	585
633.582	581.2
633.997	592
634.412	588.4
634.806	580
635.221	576.2
635.637	596
636.052	583.8
636.468	588.8
636.883	599.2
637.299	590.4
637.715	573.8
638.109	585.8
638.525	574.8
638.941	594.4
639.357	592.2
639.773	594.4
640.189	584
640.584	581.8
641	588.4
641.416	578.6
641.832	587.2
642.249	583
642.665	593
643.06	589
643.477	594
643.894	571
644.31	579.4
644.727	588
645.123	588.2
645.54	573.2
645.957	584.8
646.374	588.2
646.77	584.8
647.187	608.2
647.604	584.2
648.021	570.6
648.439	574.8
648.835	586.4
649.252	588.2
649.67	578.8
650.088	574.2
650.484	591.2
650.902	591
651.32	586
651.738	586
652.134	585
652.552	600.2
652.971	591.8
653.389	590
653.786	601.6
654.204	603.2
654.622	584.2
655.019	580
655.438	594.4
655.857	580.2
656.275	589.6
656.673	582.2
657.091	594.6
657.51	580
657.908	594.6
658.327	599.8
658.746	571.8
659.144	585.8
659.563	589.6
659.982	585.8
660.38	572.2
660.8	585.2
661.219	591
661.617	586.2
662.037	582.6
662.457	585.4
662.855	569.6
663.275	609.4
663.695	589.2
664.094	580
664.514	585
664.934	576
665.333	592.4
665.753	577
666.152	566.8
666.572	573.6
666.993	595.6
667.392	571.4
667.812	580.8
668.212	587.2
668.632	593.8
669.053	587.4
669.453	590
669.874	584
670.273	585
670.694	571.6
671.116	590.2
671.515	592.4
671.937	579
672.337	574.8
672.758	576.2
673.158	582.4
673.58	574.4
673.98	577
674.402	595.2
674.824	588.6
675.224	577.2
675.646	579.2
676.047	574.4
676.469	583.6
676.869	592.4
677.292	579
677.693	576
678.115	582.4
678.516	590.4
678.939	585.8
679.34	580.2
679.762	586.2
680.164	593.2
680.586	574
680.988	585.2
681.411	595.8
681.812	584.8
682.236	575.8
682.637	580.2
683.061	573.4
683.462	584.6
683.864	583.6
684.288	591.2
684.69	572
685.114	583.4
685.516	588.8
685.94	580.2
686.342	598.2
686.766	574.8
687.168	581.2
687.571	598.8
687.995	583.8
688.398	577.4
688.822	583.6
689.225	592
689.628	598
690.052	581.2
690.456	587.2
690.88	582
691.284	573
691.687	583.4
692.112	570.8
692.515	573.2
692.919	573.6
693.344	589
693.747	573
694.173	578.2
694.577	597
694.98	584.6
695.406	574
695.81	585.4
696.214	589
696.64	588.6
697.044	574.4
697.448	590.8
697.874	576.6
698.279	571
698.684	571.6
699.11	571.6
699.514	575.6
699.919	568.2
700.324	567.6
700.75	575.2
701.156	575.2
701.561	591.2
701.987	580.6
702.393	582.6
702.798	589.4
703.203	575.2
703.63	578.4
704.036	564.8
704.442	574.6
704.847	565
705.274	574.2
705.68	591.6
706.086	586.2
706.492	577.8
706.92	586.6
707.326	585.4
707.732	583
708.139	562.8
708.545	574.4
708.973	570.6
709.38	584.6
709.786	569
710.193	592.4
710.6	573.4
711.028	571.6
711.435	572.4
711.842	581
712.249	578.6
712.656	581
713.064	574.2
713.492	568.4
713.9	573.4
714.307	586
714.715	582.8
715.123	581.6
715.53	581.2
715.938	583.8
716.367	580.6
716.775	578.6
717.184	577.6
717.592	573.2
718	587.4
718.408	603
718.816	618.8
719.225	578.8
719.633	581.4
720.042	575.6
720.472	573.8
720.881	602.4
721.29	585.2
721.699	577.2
722.108	574.4
722.517	588.2
722.926	577.6
723.335	588.8
723.744	572.2
724.154	584.2
724.563	577.4
724.973	584.6
725.382	571.8
725.792	579
726.202	575
726.612	601.2
727.022	581.4
727.432	567.4
779.813	570
780.223	613.4
780.634	580.4
781.044	569.2
781.454	584
781.865	590.4
782.276	569.2
782.686	584.4
783.097	579.6
783.508	578.4
783.919	572.8
784.33	592.8
784.741	591.2
785.152	576.4
785.563	573.8
785.974	575.8
786.386	587.6
786.776	576.6
787.188	577.2
787.599	569.2
788.011	583
788.423	580.6
788.835	571.6
789.247	571.2
789.659	577.4
790.071	578.2
790.483	612.2
790.874	569.2
791.286	583.4
791.699	577.2
792.111	574.6
792.524	582
792.937	578.4
793.349	574.8
793.741	565.8
794.154	567
794.567	588.4
794.98	566.2
795.393	564.4
795.785	585.4
796.198	570
796.612	577
797.026	560.4
797.439	562.2
797.831	577.2
798.245	568.8
798.659	577
799.073	572
799.487	572.8
799.88	571.6
800.294	573.2
800.708	576.4
801.123	567.4
801.516	595.4
801.93	572
802.345	564
802.76	575
803.153	584.4
803.568	587.8
803.983	588
804.377	581
804.792	570.4
805.207	572.4
805.601	576.8
806.016	604
806.432	568.6
806.826	609.4
807.242	588.8
807.658	577.8
808.052	571.4
808.468	569
808.884	568.4
809.279	570.2
809.695	583.4
810.111	592
810.506	582.6
810.922	591.8
811.339	567.8
811.734	580.6
812.151	562
812.546	563.4
812.963	572
813.38	577
813.776	575.6
814.193	595.2
814.589	570.6
815.006	569.8
815.402	570.8
815.82	558.6
816.237	578.8
816.633	571
817.051	567.4
817.448	573.4
817.866	567.6
818.262	589.4
818.68	570.4
819.077	573
819.495	569
819.892	614.2
820.311	571.8
820.708	576.8
821.127	576.6
821.524	584.4
821.943	569.6
822.34	590.4
822.759	573
823.157	569.8
823.576	591.2
823.974	582.4
824.393	593.2
824.791	572
825.189	575.8
825.609	573.8
826.007	569.4
826.427	565
826.826	572.2
827.246	582.2
827.644	571.2
828.043	586.4
828.463	575.2
828.862	589.2
829.261	586.2
829.682	570
830.081	586.6
830.502	567.2
830.901	581.4
831.301	590.8
831.722	566.4
832.121	576.8
832.521	569.4
832.943	574.6
833.342	575.4
833.742	565.2
834.164	564.2
834.564	567.8
834.965	579
835.386	578.2
835.787	566.6
836.188	575.2
836.588	584
837.01	567
837.411	570.2
837.812	580.4
838.213	579.8
838.636	572.6
839.037	644
839.438	576.6
839.84	576.6
840.263	580.8
840.664	583.8
841.066	574
841.468	572.4
841.891	572.8
842.293	584
842.695	575.2
843.098	585.2
843.5	571
843.902	580.2
844.326	583
844.729	578.2
845.131	592
845.534	573.2
845.937	588.4
846.34	591
846.764	567.4
847.167	579.2
847.571	568.4
847.974	570
848.377	573.2
848.781	615
849.184	576.2
849.588	566
849.992	569.6
850.396	566.4
850.821	591.6
851.225	573.8
851.63	574.8
852.034	572.8
852.438	574.4
852.843	591.4
853.247	567.2
853.652	570.2
854.057	586.6
854.462	573
854.867	572
855.272	595.2
855.677	574.6
856.082	559.2
856.487	561
