#lambda/nm	C1
208.295	563
208.67	503
209.045	461.8
209.419	456.2
209.794	592.2
210.169	579.2
210.544	674
210.919	599
211.295	587.6
211.67	591.2
212.045	581.4
212.421	588.8
212.796	614.4
213.172	584.8
213.547	583.2
213.923	592.6
214.299	583.6
214.675	595
215.051	595.2
215.427	591.8
215.803	605
216.179	589.6
216.555	587.4
216.932	595.6
217.308	588.8
217.684	584.6
218.061	587.4
218.438	590.2
218.814	574.6
219.191	588.6
219.568	578.4
219.945	579
220.322	591.2
220.699	593.6
221.076	598.4
221.453	600
221.83	582.6
222.208	578.6
222.585	582
222.962	582.2
223.34	585
223.717	582
224.095	580.4
224.473	582.6
224.851	578.4
225.229	577.4
225.607	588.8
225.985	571
226.363	580.8
226.741	580.8
227.119	579.6
227.497	589
227.876	576.8
228.254	593.8
228.633	590.4
229.011	586.6
229.39	591.4
229.769	584.2
230.148	595.4
230.527	602.8
230.905	593.4
231.284	592.8
231.664	583.6
232.043	596.8
232.422	586.8
232.801	581
233.181	590
233.56	585.8
233.94	586.6
234.319	583.2
234.699	584.4
235.079	623.8
235.458	615.6
235.838	604.4
236.218	579.6
236.598	572.8
236.978	578.8
237.358	579.8
237.738	581.4
238.119	589.8
238.499	579.6
238.88	584.2
239.26	604.4
239.641	579.2
240.021	579.6
240.402	581.4
240.783	584.4
241.163	577.2
241.544	587.8
241.925	582.8
242.306	591.8
242.687	587
243.069	591.4
243.45	586
243.831	581.4
244.212	577.6
244.594	611.8
244.975	591
245.357	585.8
245.739	583.2
246.12	588.2
246.502	603.4
246.884	585.2
247.266	585
247.648	588
248.03	604.8
248.412	594
248.794	592.4
249.176	582
249.559	594.4
249.941	590.4
250.323	577.2
250.706	587.6
251.089	588.6
251.471	595.2
251.854	583.2
252.237	581
252.62	597
253.002	586.4
253.385	583.4
253.769	605.8
254.152	583.8
254.535	593.2
254.918	580.4
255.301	577.6
255.685	581.6
256.068	581
256.452	606.4
256.835	587.6
257.219	586.4
257.603	601.2
257.986	588
258.37	593.6
258.754	575.6
259.138	588.8
259.522	592.2
259.906	583
260.29	586.6
260.675	586
261.059	593.8
261.443	577.8
261.828	591.2
262.212	588.4
262.597	577.8
262.981	580
263.366	603.2
263.751	587
264.136	578.8
264.521	582
264.906	574
265.291	592.4
265.676	580.8
266.061	593.8
266.446	597
266.831	584.4
267.217	604.2
267.602	588.2
267.987	586.8
268.373	585.2
268.759	596.2
269.144	584.4
269.53	592.2
269.916	579.2
270.302	583.8
270.688	586.8
271.074	589.4
271.46	595.6
271.846	608.8
272.232	591
272.618	581.8
273.004	588
273.391	591.2
273.777	598.4
274.164	585
274.55	598
274.937	584
275.324	589
275.71	596
276.097	593.8
276.484	590.6
276.871	590.2
277.258	596.2
277.645	583.2
278.032	587
278.419	581.2
278.807	587.8
279.194	582.2
279.581	581.2
279.969	590.6
280.356	592.6
280.744	586.6
281.131	605.8
281.519	591.8
281.907	593
282.295	580.8
282.682	600.6
283.07	589.2
283.458	598.2
283.846	600
284.235	594.6
284.623	599.6
285.011	581.6
285.399	595.4
285.788	585
286.176	578.2
286.565	598.8
286.953	590.8
287.342	586.8
287.731	577.6
288.119	581.8
288.508	586.8
288.897	580.2
289.286	574
289.675	588.4
290.064	595.4
290.453	585
290.821	591.6
291.21	601.2
291.599	579
291.989	583.8
292.378	607.6
292.768	597.6
293.157	592
293.547	589
293.936	584.8
294.326	573.8
294.716	588
295.106	589.8
295.496	582.8
295.886	590.4
296.276	589.8
296.666	573.6
297.056	574.8
297.446	576.6
297.836	595.4
298.227	587.6
298.617	594.6
299.008	589.6
299.398	585.6
299.789	588.6
300.179	590.2
300.57	597.6
300.961	587
301.352	584
301.742	591.8
302.133	584.4
302.524	586.8
302.915	591
303.307	580.6
303.698	598
304.089	586.2
304.48	594.8
304.872	587.6
305.263	586.6
305.655	580.6
306.046	596.6
306.438	592.2
306.829	581.4
307.221	598.8
307.613	583.6
308.005	594.8
308.397	605
308.789	608.2
309.181	606.2
309.573	611
309.965	599
310.357	591.4
310.749	593
311.142	582.2
311.534	586.8
311.926	601.8
312.319	584.4
312.711	580.6
313.104	600.4
313.497	590.8
313.889	615.8
314.282	601.8
314.675	606.8
315.068	590.4
315.461	585.6
315.854	603.2
316.247	596.4
316.64	584.8
317.033	584.2
317.405	589.4
317.798	590.8
318.192	580.4
318.585	575
318.979	588.2
319.372	583
319.766	585.6
320.16	595.6
320.553	602.4
320.947	598
321.341	581.2
321.735	588.2
322.129	570.6
322.523	601.4
322.917	575
323.311	600.8
323.705	583.6
324.099	595.2
324.494	601.8
324.888	595.4
325.282	589.4
325.677	588.8
326.071	590.6
326.466	594.6
326.861	594.6
327.255	592
327.65	596.6
328.045	596.8
328.44	593
328.835	587
329.23	581.6
329.625	604.2
330.02	585.2
330.415	607.2
330.81	585.8
331.206	590.2
331.601	579.8
331.996	596.2
332.37	603.4
332.766	579.8
333.161	597.4
333.557	580.2
333.953	582.2
334.348	882
334.744	585.2
335.14	585.8
335.536	584.2
335.932	596.2
336.328	587
336.724	602
337.12	580.2
337.516	588.4
337.913	583.2
338.309	595
338.705	589.6
339.102	599
339.498	578.4
339.895	597.8
340.291	585.6
340.688	597.4
341.085	577.6
341.481	588.2
341.878	584
342.275	604.2
342.672	582.2
343.069	576.8
343.466	583
343.842	596.2
344.239	581.4
344.636	580
345.033	579.6
345.431	583.2
345.828	583.2
346.225	579.2
346.623	608.6
347.02	583.4
347.418	588.8
347.816	598
348.213	576.2
348.611	591
349.009	577.6
349.407	591.4
349.805	570.4
350.203	574.2
350.601	596.6
350.999	582
351.397	621.8
351.795	591.8
352.193	599.6
352.57	593.6
352.969	599.6
353.367	574.6
353.766	579.2
354.164	585.2
354.563	594.2
354.961	583.4
355.36	588.4
355.759	589.6
356.158	579.8
356.557	582.2
356.956	582
357.355	580.4
357.754	585.6
358.153	583.8
358.552	609
358.951	584
359.35	595.6
359.75	576.2
360.149	574
360.527	567.8
360.926	578.8
361.326	580.2
361.726	582.4
362.125	581.6
362.525	595
362.925	578.2
363.325	586.6
363.724	578
364.124	576.4
364.524	574.6
364.924	582
365.324	595.8
365.725	574.6
366.125	585.6
366.525	588
366.904	582
367.304	564.6
367.705	596.4
368.105	589.8
368.506	583
368.906	577.8
369.307	582.6
369.708	586.4
370.108	571.8
370.509	582.8
370.91	578.8
371.311	582.2
371.712	580
372.113	578
372.514	572.8
372.894	579.4
373.295	571.8
373.696	589.2
374.097	587.8
374.499	608.4
374.9	585.8
375.301	575.4
375.703	588.2
376.105	580.8
376.506	589.6
376.908	592.2
377.309	584
377.711	585
378.113	574
378.493	585.6
378.895	582.2
379.297	593.4
379.699	571.4
380.102	585
380.504	577
380.906	581.8
381.308	601
381.71	580.2
382.113	586.6
382.515	582.6
382.918	583.4
383.299	578.2
383.701	585.4
384.104	578.4
384.507	569.6
384.909	577.8
385.312	569.6
385.715	567.8
386.118	580.6
386.521	563.2
386.924	591.2
387.327	585.4
387.709	573.4
388.112	568.8
388.515	576.4
388.918	575.4
389.322	575.6
389.725	576
390.129	593.8
390.532	586.8
390.936	574.4
391.339	577.2
391.743	586.8
392.125	572.4
392.529	585.8
392.933	588.6
393.337	571.6
393.74	582.6
394.144	582.4
394.548	567.4
394.953	571
395.357	582.2
395.761	577.6
396.144	592.2
396.548	576.4
396.952	580.6
397.357	583.2
397.761	578.2
398.166	576.4
398.57	577.4
398.975	574.4
399.379	585
399.763	624.2
400.168	581.4
400.572	576.8
400.977	570
401.382	597.2
401.787	578.8
402.192	595.6
402.597	596
403.002	569
403.386	581.4
403.791	594.8
404.197	579.4
404.602	575
405.007	582.8
405.413	566
405.818	586.6
406.224	578
406.608	576.6
407.014	574
407.42	594.4
407.825	573.4
408.231	586.8
408.637	587.8
409.043	601.4
409.449	575.6
409.834	574
410.24	575.8
410.646	585.6
411.052	589.4
411.458	585.8
411.865	586.2
412.271	586.6
412.677	581
413.062	589.8
413.469	574.8
413.875	604.6
414.282	596.8
414.689	580.8
415.095	580
415.502	575.8
415.888	570.4
416.294	570.6
416.701	608.4
417.108	579.8
417.515	584.2
417.923	582.6
418.33	591.2
418.715	589.6
419.123	575.8
419.53	575.4
419.937	577.6
420.345	585.6
420.752	575.8
421.16	587.4
421.546	576.6
421.953	574
422.361	571.2
422.769	578.2
423.177	575
423.585	601.8
423.992	598
424.379	593.4
424.787	585
425.195	593.4
425.603	584.6
426.011	589.6
426.419	599.8
426.806	587.8
427.214	589.8
427.623	591
428.031	603.6
428.44	587.2
428.848	593.8
429.235	604
429.644	592.4
430.053	587.6
430.461	612.6
430.87	614.6
431.279	611.2
431.666	606.6
432.075	611.8
432.484	615.8
432.893	617.2
433.302	642.6
433.711	665
434.099	638.4
434.508	646.4
434.918	643.6
435.327	659.4
435.737	658
436.125	671
436.534	684.6
436.944	686.2
437.353	699.6
437.763	715.2
438.173	704.4
438.561	722.8
438.971	718
439.381	724.2
439.791	733.2
440.201	725.2
440.589	750
440.999	760.8
441.409	755.8
441.819	761.4
442.23	782
442.619	782.4
443.029	779.4
443.439	780.2
443.85	797.6
444.26	800.8
444.649	800.2
445.06	796
445.471	792.2
445.881	809.2
446.292	819
446.682	829.2
447.092	803.2
447.503	855
447.914	829.8
448.325	821.2
448.715	823
449.126	829
449.537	825.4
449.948	832.2
450.338	829.2
450.75	849.8
451.161	846.4
451.572	849.4
451.984	836
452.374	836.6
452.786	841.4
453.197	832.2
453.609	843
453.999	842
454.411	838.6
454.823	870.8
455.235	861.8
455.647	851.8
456.037	856
456.449	838
456.862	840.8
457.274	849.6
457.665	845.6
458.077	852.2
458.489	874.8
458.902	847.6
459.293	858
459.705	859.2
460.118	851.2
460.53	853.6
460.921	860.6
461.334	861.4
461.747	859
462.16	859.4
462.551	866.6
462.964	861.4
463.377	839.2
463.79	855.8
464.182	862
464.595	852.2
465.008	866.4
465.421	865.2
465.813	859.4
466.226	868.4
466.64	860.8
467.053	889.4
467.445	874.6
467.859	872.2
468.272	857.8
468.686	863
469.078	865.6
469.492	856.8
469.906	854.2
470.298	858.4
470.712	861.8
471.126	906.2
471.54	850.6
471.933	860.8
472.347	854
472.761	857.6
473.175	852.8
473.568	853.6
473.982	839.2
474.397	858.4
474.79	846.6
475.204	846.4
475.619	844
476.033	857.8
476.426	840.8
476.841	838.6
477.256	858.2
477.649	832
478.064	836.4
478.479	833.4
478.872	841.6
479.287	824.2
479.702	824.4
480.118	830.6
480.511	836.4
480.927	836
481.342	819.6
481.736	828.4
482.151	811.8
482.566	834.8
482.96	821.4
483.376	830.8
483.792	812.4
484.186	834.6
484.602	819.4
485.017	814.2
485.412	811.6
485.827	810.8
486.243	813.4
486.638	831.4
487.054	820
487.47	817
487.865	813.4
488.281	807.4
488.697	799.8
489.092	800
489.508	793
489.925	809.2
490.32	798.4
490.736	811.8
491.153	787.6
491.548	794.6
491.964	807.2
492.381	776.2
492.776	782.8
493.193	789.8
493.61	798.4
494.006	778.6
494.422	789.2
494.84	773.6
495.235	793.2
495.652	778.6
496.069	781.8
496.465	767.2
496.883	767.2
497.3	788.8
497.696	776
498.113	774.8
498.509	764
498.927	760.6
499.344	754
499.741	759.8
500.158	771.6
500.576	769.8
500.973	758.6
501.39	749.4
501.787	753.2
502.205	757.2
502.623	742.6
503.02	734
503.438	742.4
503.856	746
504.253	758.6
504.671	744.4
505.068	740.2
505.486	733.6
505.905	752
506.302	738
506.72	735.8
507.118	732
507.536	726.8
507.955	721.4
508.352	730
508.771	722.6
509.169	736.4
509.587	712.8
510.006	727.4
510.404	711.4
510.823	710
511.221	715
511.64	711
512.038	723.4
512.457	714.8
512.877	713.2
513.275	705
513.694	705.4
514.092	703.6
514.512	710.6
514.91	718
515.33	697
515.749	688.4
516.148	699.4
516.568	697.8
516.966	692.4
517.386	699.4
517.785	689.4
518.205	684.8
518.603	683
519.024	684.6
519.444	696.4
519.843	690.6
520.263	698.6
520.662	687.2
521.082	684.8
521.481	680.4
521.902	680.6
522.301	676.8
522.722	672.8
523.121	680.4
523.542	679.8
523.963	678.6
524.362	674.4
524.783	674.8
525.183	673.4
525.604	678.2
526.003	671
526.425	657.6
526.824	672.8
527.246	679
527.646	657.4
528.067	663.4
528.467	663
528.888	675.2
529.289	668.8
529.71	660.4
530.11	658.6
530.532	644.8
530.932	646
531.354	651.2
531.755	674.2
532.176	663.8
532.577	650.6
532.999	651.6
533.4	646.4
533.822	654.2
534.223	657.8
534.645	645
535.046	654.2
535.468	646
535.869	660
536.292	642.8
536.693	674.6
537.115	649.4
537.516	646.6
537.939	645.4
538.34	657
538.742	652.8
539.165	657.8
539.566	637.6
539.989	632.6
540.391	640.4
540.814	633
541.216	638.8
541.639	630.6
542.041	635.2
542.464	628.4
542.866	629.8
543.268	628.6
543.691	629.6
544.093	639.6
544.517	645.2
544.919	618.8
545.343	650
545.745	623
546.147	633
546.571	629.4
546.974	626.8
547.398	642.2
547.8	640.8
548.224	632
548.627	622.8
549.03	633.2
549.454	610.8
549.857	617.6
550.281	621.6
550.684	614
551.087	630.8
551.512	620.2
551.915	624.6
552.34	621.2
552.743	614
553.146	614.6
553.571	624.4
553.975	628.6
554.399	617.8
554.803	654.8
555.207	608
555.632	608
556.036	618
556.461	602.6
556.865	607.8
557.268	621
557.694	613.4
558.098	612.2
558.502	615.8
558.927	609
559.332	612.8
559.736	605.2
560.162	623.2
560.566	606.6
560.992	612.2
561.396	607
561.801	606.2
562.227	607.6
562.631	605.8
563.036	609.2
563.462	609
563.867	610
564.272	600
564.698	611
565.103	588.8
565.508	618.6
565.935	603.2
566.34	601
566.745	613.6
567.172	599.8
567.577	615.6
567.982	614.2
568.409	599.4
568.815	593
569.22	602.8
569.626	609
570.053	586.4
570.459	602.8
570.865	602.4
571.292	608.8
571.698	605.4
572.104	589.6
572.531	592.2
572.937	605
573.343	592.2
573.75	594.2
574.177	602.4
574.583	606.2
574.99	596.2
575.396	593.2
575.824	583
576.231	599.4
576.637	595.8
577.065	615.2
577.472	591.6
577.879	590.4
578.286	603.8
578.714	586.4
579.121	591
579.528	599.6
579.935	601
580.364	588
580.771	575.4
581.178	579.4
581.585	595
582.014	591.8
582.421	591.4
582.829	585.2
583.236	599.4
583.644	581.8
584.073	590.6
584.481	589.2
584.889	589.2
585.296	595
585.726	588
586.134	580.4
586.542	585.8
586.95	600.8
587.358	581
587.787	587.6
588.196	601.8
588.604	586.4
589.012	584.8
589.421	579
589.851	584.8
590.259	592.4
590.668	578.8
591.076	612
591.485	575.8
591.894	589.8
592.324	599
592.733	595
593.142	579.6
593.551	586
593.96	585.6
594.369	567.4
594.8	566.6
595.209	581.4
595.618	576.8
596.028	579
596.437	570
596.847	579.8
597.256	586
597.687	583.8
598.097	581
598.507	572.8
598.917	592.6
599.327	578.2
599.736	582.4
600.146	584.4
600.556	581.8
600.988	583.6
601.398	570.4
601.808	589.2
602.219	571
602.629	579.6
603.039	587.8
603.45	591.4
603.86	578.8
604.271	586.6
604.703	580
605.114	573.8
605.525	571.6
605.935	576.6
606.346	594.8
606.757	579.2
607.168	577.8
607.579	571
607.99	579.8
608.402	571.6
608.813	573.8
609.224	574.6
609.636	566.6
610.047	566.8
610.48	577
610.892	572.2
611.303	583
611.715	573.2
612.127	573
612.539	577.6
612.95	570.6
613.362	563.8
613.774	569.2
614.186	566.2
614.599	568.6
615.011	584.2
615.423	575.6
615.835	561.4
616.248	572
616.66	584.2
617.073	566
617.485	570
617.898	578.2
618.311	577.6
618.723	578
619.136	589.6
619.549	585.6
619.962	592.6
620.375	575.8
620.788	578.6
621.201	568
621.614	575.2
622.028	571.8
622.441	582.8
622.854	593.4
623.268	569
623.681	576.4
624.095	567.8
624.509	581
624.922	581.8
625.336	563.6
625.728	571.8
626.142	577.6
626.556	589.4
626.97	577.8
627.384	566.6
627.799	574.4
628.213	585.4
628.627	565.2
629.041	566.2
629.456	566.4
629.87	568.8
630.285	576.4
630.699	576.8
631.093	577
631.507	564.6
631.922	569
632.337	581.6
632.752	557.4
633.167	566.2
633.582	566.8
633.997	568
634.412	561.6
634.806	574.4
635.221	566.6
635.637	577.8
636.052	564.8
636.468	572
636.883	585.8
637.299	569
637.715	557.2
638.109	570.4
638.525	561.2
638.941	576.6
639.357	570.2
639.773	573.6
640.189	563.2
640.584	572
641	571.4
641.416	554.4
641.832	564.2
642.249	562.8
642.665	569.4
643.06	566.6
643.477	574.6
643.894	554.2
644.31	565.8
644.727	565
645.123	571.2
645.54	563.8
645.957	576.6
646.374	578.2
646.77	574.4
647.187	590.6
647.604	571
648.021	554.6
648.439	562.4
648.835	574.2
649.252	569.4
649.67	567
650.088	576
650.484	566.6
650.902	569
651.32	566.2
651.738	565.2
652.134	568.6
652.552	582.8
652.971	576.2
653.389	563.4
653.786	571.4
654.204	584.6
654.622	561.8
655.019	567.2
655.438	572
655.857	563.6
656.275	568.4
656.673	564.2
657.091	569.6
657.51	565.8
657.908	576.8
658.327	578.6
658.746	558
659.144	567.4
659.563	576
659.982	563.8
660.38	558.6
660.8	561.6
661.219	572
661.617	573.6
662.037	571.4
662.457	580.8
662.855	558.8
663.275	582.2
663.695	567
664.094	566.4
664.514	571
664.934	559.4
665.333	565.4
665.753	558.8
666.152	557.2
666.572	560
666.993	576.4
667.392	561
667.812	567.4
668.212	557.4
668.632	578
669.053	567.4
669.453	569.8
669.874	570
670.273	566.4
670.694	555.4
671.116	579.8
671.515	575
671.937	572.2
672.337	564.6
672.758	564
673.158	566
673.58	559.6
673.98	570
674.402	575.4
674.824	569.4
675.224	559.6
675.646	554
676.047	567.6
676.469	569.8
676.869	561.8
677.292	575.4
677.693	564
678.115	562.8
678.516	569.4
678.939	573.4
679.34	557.6
679.762	574.4
680.164	563
680.586	565.8
680.988	573.6
681.411	591.8
681.812	565.4
682.236	556.8
682.637	556.8
683.061	564.4
683.462	565.4
683.864	567.8
684.288	572.6
684.69	561.4
685.114	567.4
685.516	572.4
685.94	557.8
686.342	576.8
686.766	560.8
687.168	567
687.571	581.2
687.995	562.6
688.398	557.4
688.822	566.6
689.225	577
689.628	580.6
690.052	562
690.456	563.8
690.88	570.6
691.284	552.4
691.687	569.8
692.112	560.6
692.515	566
692.919	566.8
693.344	574.4
693.747	563.8
694.173	553.2
694.577	573.4
694.98	561.8
695.406	566.4
695.81	563.2
696.214	567.8
696.64	565.4
697.044	573
697.448	576.8
697.874	560.2
698.279	562.4
698.684	555.8
699.11	556.4
699.514	560
699.919	561.8
700.324	557.4
700.75	562.4
701.156	559
701.561	571.6
701.987	572.4
702.393	567.2
702.798	566.6
703.203	558.6
703.63	558.4
704.036	560.6
704.442	564.4
704.847	550.8
705.274	562
705.68	566.8
706.086	563.2
706.492	550.6
706.92	558.8
707.326	562.8
707.732	558.4
708.139	552.6
708.545	554.4
708.973	554.6
709.38	551.6
709.786	542.2
710.193	576.8
710.6	569.8
711.028	545.2
711.435	550.6
711.842	560.2
712.249	554.2
712.656	559.4
713.064	570.6
713.492	560
713.9	555.8
714.307	566.8
714.715	564.6
715.123	564.8
715.53	563.6
715.938	577.8
716.367	561.4
716.775	552.6
717.184	554.6
717.592	558.6
718	568.4
718.408	591.4
718.816	595
719.225	569.2
719.633	560.2
720.042	556.8
720.472	555
720.881	574.2
721.29	559.2
721.699	562.8
722.108	573
722.517	554.8
722.926	560.4
723.335	566.4
723.744	557
724.154	558.6
724.563	552.4
724.973	552.4
725.382	554.8
725.792	555.6
726.202	545.8
726.612	574.6
727.022	559.4
727.432	554.2
779.813	557.6
780.223	592.6
780.634	564.6
781.044	556.8
781.454	563.2
781.865	567.2
782.276	555
782.686	570
783.097	562.6
783.508	555.6
783.919	560.4
784.33	568.6
784.741	578
785.152	562.2
785.563	547.4
785.974	553.6
786.386	577.6
786.776	553.8
787.188	558
787.599	556.2
788.011	565.6
788.423	559.6
788.835	556.8
789.247	553.8
789.659	553
790.071	555.4
790.483	588
790.874	550.8
791.286	565.4
791.699	558.6
792.111	560.6
792.524	554.4
792.937	556.8
793.349	558.8
793.741	551
794.154	556.6
794.567	579.4
794.98	558.4
795.393	550
795.785	572.8
796.198	555.8
796.612	555
797.026	556.8
797.439	539
797.831	559.6
798.245	555
798.659	555.4
799.073	558.4
799.487	548.6
799.88	562.2
800.294	561.2
800.708	567
801.123	555.2
801.516	575.8
801.93	548
802.345	549.4
802.76	563.2
803.153	568.2
803.568	562.8
803.983	561.2
804.377	560
804.792	551.6
805.207	548.2
805.601	556.6
806.016	591.4
806.432	554.8
806.826	590
807.242	574
807.658	557
808.052	551.6
808.468	552.8
808.884	554.4
809.279	550.2
809.695	573.4
810.111	581.6
810.506	564
810.922	572.6
811.339	554.4
811.734	558.8
812.151	561.4
812.546	554.2
812.963	559
813.38	563.6
813.776	566.2
814.193	572
814.589	549.8
815.006	557.4
815.402	554.8
815.82	552.4
816.237	563.8
816.633	567.6
817.051	557
817.448	558.6
817.866	553
818.262	573
818.68	551.2
819.077	554.6
819.495	566.4
819.892	590.4
820.311	550.4
820.708	560
821.127	556.2
821.524	570
821.943	564.8
822.34	578.2
822.759	563.8
823.157	556.6
823.576	572.4
823.974	564.8
824.393	594.8
824.791	560
825.189	549.6
825.609	552.2
826.007	557
826.427	554.6
826.826	555.4
827.246	554.6
827.644	546.6
828.043	567.8
828.463	555.2
828.862	569.6
829.261	553.8
829.682	548.2
830.081	568
830.502	556
830.901	563.4
831.301	570.8
831.722	551.4
832.121	556.6
832.521	561.8
832.943	553.2
833.342	554.8
833.742	554
834.164	552.4
834.564	554
834.965	558.6
835.386	551.4
835.787	562.4
836.188	554.4
836.588	561.6
837.01	558.6
837.411	556.2
837.812	561.4
838.213	566.2
838.636	554.4
839.037	612.6
839.438	563
839.84	561.2
840.263	555.6
840.664	560.2
841.066	553.6
841.468	563.2
841.891	552
842.293	567
842.695	561
843.098	566.4
843.5	555.4
843.902	556.4
844.326	567.4
844.729	554
845.131	570.8
845.534	559.6
845.937	572.4
846.34	573.8
846.764	551.4
847.167	565.6
847.571	553.4
847.974	560.6
848.377	555.6
848.781	597.4
849.184	567.2
849.588	555.6
849.992	547.8
850.396	558.8
850.821	575
851.225	555.2
851.63	555.2
852.034	561.6
852.438	554.6
852.843	615.6
853.247	541.8
853.652	554
854.057	563.8
854.462	556
854.867	564.2
855.272	577
855.677	565.4
856.082	540.8
856.487	547.6
856.893	557.8
