#lambda/nm	C1
208.295	537
208.67	478.6
209.045	444.4
209.419	444.8
209.794	607.4
210.169	598.4
210.544	709.6
210.919	612.4
211.295	605.2
211.67	615.6
212.045	601.2
212.421	603.8
212.796	635.4
213.172	603.6
213.547	607.4
213.923	606.4
214.299	600.8
214.675	607
215.051	605.2
215.427	620.6
215.803	631.2
216.179	611.4
216.555	597.6
216.932	616.2
217.308	610.2
217.684	601.6
218.061	616.2
218.438	605.6
218.814	604.8
219.191	610.4
219.568	598.2
219.945	601.2
220.322	613.4
220.699	607.2
221.076	606.8
221.453	603.4
221.83	601.2
222.208	595
222.585	608.6
222.962	605.4
223.34	617
223.717	608.8
224.095	601.8
224.473	613.2
224.851	602
225.229	599.2
225.607	625
225.985	600.4
226.363	607.6
226.741	601.6
227.119	605.2
227.497	620.6
227.876	590.8
228.254	606.6
228.633	601.2
229.011	609.8
229.39	608.6
229.769	607
230.148	614.2
230.527	626.2
230.905	614
231.284	616.8
231.664	599.6
232.043	617.4
232.422	617.6
232.801	604.8
233.181	610.4
233.56	609.8
233.94	614
234.319	603.4
234.699	603.2
235.079	645.8
235.458	645.2
235.838	620
236.218	605.6
236.598	596.4
236.978	605.4
237.358	605.2
237.738	602.2
238.119	613.8
238.499	603.6
238.88	603
239.26	623.8
239.641	604.2
240.021	608.2
240.402	600.6
240.783	608.6
241.163	607.8
241.544	615.6
241.925	608.6
242.306	622.4
242.687	609.6
243.069	613.8
243.45	620.4
243.831	601.2
244.212	608.8
244.594	640.4
244.975	612.6
245.357	600.2
245.739	601.4
246.12	613.4
246.502	620.2
246.884	606
247.266	607
247.648	614.8
248.03	629.2
248.412	614.6
248.794	610.2
249.176	602.4
249.559	615.2
249.941	601.8
250.323	600.2
250.706	600.6
251.089	609.8
251.471	610
251.854	612.8
252.237	603.2
252.62	615.2
253.002	598
253.385	610
253.769	627.2
254.152	608.4
254.535	618.4
254.918	601.2
255.301	598.4
255.685	608.6
256.068	599.4
256.452	628
256.835	620.6
257.219	604.6
257.603	620.2
257.986	596.4
258.37	616.6
258.754	612
259.138	606.4
259.522	614.6
259.906	611.4
260.29	604.4
260.675	607.6
261.059	617
261.443	603.2
261.828	610.4
262.212	617
262.597	599
262.981	597.8
263.366	620.6
263.751	611.4
264.136	601.8
264.521	607.4
264.906	599.8
265.291	620.6
265.676	609.6
266.061	612
266.446	622.4
266.831	606.4
267.217	619.2
267.602	612.6
267.987	610.8
268.373	615.8
268.759	614.8
269.144	614
269.53	613.2
269.916	601.4
270.302	599.4
270.688	611.2
271.074	616.2
271.46	619.6
271.846	633
272.232	607
272.618	609.4
273.004	608.2
273.391	609.2
273.777	613.2
274.164	609
274.55	616.4
274.937	611.2
275.324	598.6
275.71	616.8
276.097	615.8
276.484	597
276.871	617.4
277.258	609
277.645	593.8
278.032	605.2
278.419	603.4
278.807	611.6
279.194	598.4
279.581	594.4
279.969	616.8
280.356	614.2
280.744	610
281.131	627
281.519	613.4
281.907	600.6
282.295	608.2
282.682	617.6
283.07	607.4
283.458	608.6
283.846	610.6
284.235	610
284.623	612.6
285.011	593.2
285.399	614
285.788	607.6
286.176	599.6
286.565	621.2
286.953	599
287.342	605.4
287.731	595.4
288.119	602.8
288.508	606.8
288.897	605.2
289.286	596.8
289.675	611.6
290.064	618.4
290.453	616.8
290.821	610.6
291.21	620.4
291.599	600.4
291.989	607.4
292.378	616.8
292.768	627.4
293.157	616
293.547	625.6
293.936	613.6
294.326	608.8
294.716	614.2
295.106	599
295.496	611
295.886	614.6
296.276	610
296.666	604.6
297.056	597
297.446	595.8
297.836	621.2
298.227	606
298.617	612
299.008	619
299.398	612.2
299.789	601.2
300.179	618.8
300.57	623.2
300.961	609
301.352	604.6
301.742	615.6
302.133	603.6
302.524	602
302.915	610.8
303.307	604
303.698	618.4
304.089	615.8
304.48	611.4
304.872	613.4
305.263	606.2
305.655	604.6
306.046	613.8
306.438	607.4
306.829	603.2
307.221	619.2
307.613	615
308.005	617.6
308.397	627
308.789	632.2
309.181	630.6
309.573	630.4
309.965	621
310.357	610.2
310.749	618.8
311.142	603.2
311.534	603.6
311.926	623.8
312.319	611.4
312.711	607.8
313.104	618
313.497	602
313.889	651
314.282	621.8
314.675	639.6
315.068	613.8
315.461	608.4
315.854	641.2
316.247	623.8
316.64	613
317.033	606.2
317.405	618
317.798	612.2
318.192	610.6
318.585	601.4
318.979	620.4
319.372	602.2
319.766	598.8
320.16	616.4
320.553	616.2
320.947	628
321.341	603.4
321.735	609.6
322.129	595
322.523	629.8
322.917	609
323.311	626.6
323.705	609.6
324.099	611.6
324.494	622.8
324.888	618.2
325.282	605
325.677	615.8
326.071	621.4
326.466	628
326.861	615.8
327.255	625.4
327.65	627.8
328.045	624.2
328.44	611.4
328.835	611.4
329.23	598.4
329.625	626.8
330.02	609.2
330.415	631
330.81	610.2
331.206	613
331.601	607.8
331.996	613.6
332.37	625.2
332.766	602
333.161	638.8
333.557	607.4
333.953	609.6
334.348	876.6
334.744	615.8
335.14	601.2
335.536	601.2
335.932	620.8
336.328	615.6
336.724	619.2
337.12	615.2
337.516	613.6
337.913	619
338.309	618.4
338.705	607.2
339.102	626
339.498	612.8
339.895	618.2
340.291	611
340.688	614.2
341.085	598.2
341.481	618.4
341.878	607.2
342.275	629.6
342.672	604.4
343.069	610
343.466	590.2
343.842	618.6
344.239	593.8
344.636	611.4
345.033	596.4
345.431	605.8
345.828	608.6
346.225	599.2
346.623	640.8
347.02	604.4
347.418	609.8
347.816	623.2
348.213	597
348.611	614.2
349.009	603.6
349.407	616.4
349.805	594
350.203	597.2
350.601	624.8
350.999	600.2
351.397	640.8
351.795	600.4
352.193	610
352.57	612
352.969	610
353.367	600.4
353.766	600.2
354.164	603.2
354.563	617.8
354.961	609.4
355.36	595.4
355.759	605.2
356.158	601.6
356.557	595.4
356.956	592.8
357.355	598
357.754	603.4
358.153	612.2
358.552	623.8
358.951	602.8
359.35	621
359.75	597.8
360.149	593.4
360.527	592.8
360.926	594
361.326	595.8
361.726	608.6
362.125	594.8
362.525	608.6
362.925	610
363.325	605
363.724	602.6
364.124	602.2
364.524	601.4
364.924	596.4
365.324	611.6
365.725	584.8
366.125	607.8
366.525	605
366.904	604.4
367.304	588
367.705	624.6
368.105	610.2
368.506	595
368.906	603.6
369.307	605
369.708	603.8
370.108	588.4
370.509	613.2
370.91	598.8
371.311	599.4
371.712	611.4
372.113	608.2
372.514	592.6
372.894	598.2
373.295	599
373.696	613.8
374.097	610
374.499	622
374.9	597.4
375.301	597.8
375.703	597.4
376.105	591.8
376.506	600
376.908	606
377.309	598.4
377.711	601.8
378.113	599.4
378.493	597.4
378.895	594.8
379.297	605.6
379.699	592
380.102	604.8
380.504	596.2
380.906	592.4
381.308	623.8
381.71	601
382.113	609.8
382.515	602
382.918	605.2
383.299	604.2
383.701	607
384.104	602.4
384.507	588.8
384.909	592.8
385.312	594.6
385.715	598.4
386.118	602.8
386.521	596.4
386.924	612.6
387.327	600.8
387.709	580.4
388.112	592
388.515	600.8
388.918	598.2
389.322	608.6
389.725	594.4
390.129	620.8
390.532	605.4
390.936	597.8
391.339	594
391.743	602.6
392.125	594.8
392.529	609.4
392.933	611.6
393.337	598.6
393.74	593.4
394.144	604.6
394.548	588
394.953	593.6
395.357	608.4
395.761	595
396.144	591.8
396.548	595.8
396.952	594.8
397.357	606.8
397.761	600.8
398.166	596.4
398.57	600.2
398.975	593.2
399.379	604.4
399.763	647.4
400.168	603.2
400.572	603.6
400.977	594.2
401.382	619.4
401.787	601.6
402.192	613
402.597	615.2
403.002	596.2
403.386	614.6
403.791	619
404.197	603
404.602	607.6
405.007	600.8
405.413	598
405.818	598.4
406.224	592.2
406.608	603.8
407.014	596.6
407.42	617
407.825	596.2
408.231	611.2
408.637	601.6
409.043	612.2
409.449	601
409.834	596.2
410.24	602.6
410.646	616.6
411.052	610.4
411.458	600.6
411.865	612
412.271	612
412.677	597
413.062	610.8
413.469	593
413.875	620.4
414.282	613.4
414.689	604
415.095	603.4
415.502	592
415.888	603.2
416.294	578.8
416.701	641.6
417.108	595
417.515	608.8
417.923	603.4
418.33	617.4
418.715	603.8
419.123	596.6
419.53	608
419.937	597.2
420.345	619.6
420.752	606.6
421.16	612.6
421.546	602.8
421.953	608.4
422.361	596.6
422.769	599.2
423.177	594.4
423.585	620
423.992	614.4
424.379	611.6
424.787	613
425.195	623.2
425.603	600.2
426.011	619.4
426.419	614.4
426.806	608.6
427.214	608.6
427.623	616.2
428.031	624.6
428.44	606
428.848	617.6
429.235	619
429.644	614
430.053	613.4
430.461	628.4
430.87	643.4
431.279	625.2
431.666	624.4
432.075	632
432.484	642
432.893	640
433.302	667
433.711	690.6
434.099	657
434.508	655.6
434.918	654.4
435.327	686.6
435.737	677
436.125	696.2
436.534	707.6
436.944	714.8
437.353	709.8
437.763	743.4
438.173	729.8
438.561	748.4
438.971	724.2
439.381	740.2
439.791	756.8
440.201	750.6
440.589	764
440.999	778.2
441.409	782.4
441.819	773.8
442.23	796.6
442.619	807
443.029	794.6
443.439	797.2
443.85	821
444.26	815.4
444.649	821.4
445.06	816.4
445.471	818.2
445.881	811.8
446.292	844
446.682	852.4
447.092	816.4
447.503	876.6
447.914	842.6
448.325	838
448.715	845
449.126	843
449.537	842.6
449.948	845.6
450.338	855.4
450.75	858
451.161	847.4
451.572	866.2
451.984	845.4
452.374	848.2
452.786	857.8
453.197	864.8
453.609	871.8
453.999	852
454.411	851
454.823	868
455.235	872.4
455.647	864.6
456.037	860.8
456.449	856
456.862	874.4
457.274	864.4
457.665	864
458.077	885.6
458.489	891.4
458.902	878
459.293	883.8
459.705	867.6
460.118	870.2
460.53	884.2
460.921	868
461.334	881.8
461.747	879
462.16	881.6
462.551	890.4
462.964	875
463.377	869.2
463.79	874
464.182	889.8
464.595	867.2
465.008	879.8
465.421	881.2
465.813	862.2
466.226	865.6
466.64	880.6
467.053	925
467.445	905
467.859	896
468.272	878.4
468.686	891.6
469.078	873.2
469.492	871.2
469.906	877.2
470.298	879.2
470.712	872.4
471.126	917.8
471.54	870.6
471.933	864
472.347	873.6
472.761	878.4
473.175	865.4
473.568	858.4
473.982	863
474.397	864.4
474.79	860.2
475.204	865.6
475.619	870.6
476.033	862.2
476.426	869.4
476.841	867
477.256	888.8
477.649	850.6
478.064	854.8
478.479	853.4
478.872	846.2
479.287	852.2
479.702	833.2
480.118	848.6
480.511	851.2
480.927	858.2
481.342	848.4
481.736	853.8
482.151	842
482.566	856.2
482.96	840.4
483.376	850
483.792	833.8
484.186	847.8
484.602	838.8
485.017	841.6
485.412	832.4
485.827	847.4
486.243	827.4
486.638	857.6
487.054	838.6
487.47	842
487.865	826.8
488.281	828.6
488.697	818
489.092	833
489.508	808.2
489.925	822.2
490.32	817
490.736	822.6
491.153	813.2
491.548	825
491.964	826
492.381	797.6
492.776	816.2
493.193	803.4
493.61	816.2
494.006	810.4
494.422	813.6
494.84	802.8
495.235	817.2
495.652	802.4
496.069	806.8
496.465	789.8
496.883	795
497.3	819.2
497.696	789
498.113	800.8
498.509	779.6
498.927	779.8
499.344	782.6
499.741	786
500.158	793
500.576	786.8
500.973	786.6
501.39	772.8
501.787	763.6
502.205	785.4
502.623	772.2
503.02	761.2
503.438	768.6
503.856	769.8
504.253	769
504.671	767.2
505.068	769.8
505.486	754
505.905	775.2
506.302	761.8
506.72	761
507.118	743.6
507.536	749.2
507.955	748
508.352	742.6
508.771	756.8
509.169	749.4
509.587	739.2
510.006	744.6
510.404	733.6
510.823	736.6
511.221	742.2
511.64	732.4
512.038	749
512.457	733.6
512.877	728.4
513.275	723.8
513.694	721.2
514.092	712
514.512	731.4
514.91	729.8
515.33	724.2
515.749	718.6
516.148	731.4
516.568	725
516.966	715.8
517.386	715.6
517.785	721.2
518.205	712.6
518.603	707.2
519.024	713
519.444	717
519.843	725.4
520.263	713.2
520.662	708.4
521.082	703
521.481	712.8
521.902	701.4
522.301	702.8
522.722	698.6
523.121	689
523.542	696.8
523.963	704.6
524.362	695.6
524.783	703
525.183	696.6
525.604	700.4
526.003	694.2
526.425	681.2
526.824	680
527.246	695
527.646	694.4
528.067	693
528.467	691.2
528.888	684.8
529.289	679
529.71	691.6
530.11	678.4
530.532	675.4
530.932	665.8
531.354	662.6
531.755	704.4
532.176	676.8
532.577	671.8
532.999	679.8
533.4	675.8
533.822	689.4
534.223	685.6
534.645	664.4
535.046	671.4
535.468	674.4
535.869	685
536.292	672.8
536.693	696
537.115	675.8
537.516	665
537.939	662.8
538.34	689
538.742	684.6
539.165	669.2
539.566	667.4
539.989	666.2
540.391	658
540.814	660
541.216	663.4
541.639	657.8
542.041	661.2
542.464	653.4
542.866	658.2
543.268	648.8
543.691	658.8
544.093	661.2
544.517	671.8
544.919	646.4
545.343	672.4
545.745	642.4
546.147	646.2
546.571	644.6
546.974	642.2
547.398	650.4
547.8	667.6
548.224	637.6
548.627	634.8
549.03	666.8
549.454	633.4
549.857	625.4
550.281	635.2
550.684	639
551.087	646.4
551.512	648
551.915	640.2
552.34	634.6
552.743	638.4
553.146	637.2
553.571	638.6
553.975	653.4
554.399	642.4
554.803	679.2
555.207	638.8
555.632	637
556.036	637.2
556.461	629
556.865	637.4
557.268	632
557.694	630.8
558.098	638.6
558.502	627.6
558.927	628.4
559.332	633.2
559.736	634.4
560.162	633.2
560.566	623.8
560.992	629.8
561.396	631.4
561.801	627.8
562.227	630
562.631	623.6
563.036	630.2
563.462	640.6
563.867	625.4
564.272	616.8
564.698	635.2
565.103	618.4
565.508	631.8
565.935	626.8
566.34	620.6
566.745	633.2
567.172	620
567.577	637.6
567.982	627.8
568.409	625.6
568.815	611.6
569.22	625
569.626	625
570.053	603.2
570.459	622.8
570.865	616.8
571.292	623.2
571.698	618
572.104	613.2
572.531	620.2
572.937	622.6
573.343	620
573.75	612.8
574.177	622.4
574.583	613.6
574.99	611.4
575.396	622.6
575.824	606.8
576.231	627.4
576.637	610.6
577.065	640
577.472	611.6
577.879	611.6
578.286	622.8
578.714	604.8
579.121	607.8
579.528	616.2
579.935	616.6
580.364	610.8
580.771	599.8
581.178	601
581.585	605.4
582.014	618.8
582.421	603.8
582.829	605.4
583.236	619.4
583.644	611.6
584.073	606.8
584.481	604.2
584.889	604.6
585.296	612.2
585.726	606
586.134	603.2
586.542	607.4
586.95	626.2
587.358	592.2
587.787	603.6
588.196	615.2
588.604	598.6
589.012	604.6
589.421	595.8
589.851	597.2
590.259	607.4
590.668	596
591.076	636.6
591.485	595.4
591.894	594.6
592.324	610.6
592.733	612.6
593.142	593.2
593.551	598.8
593.96	647.8
594.369	594.6
594.8	586
595.209	606
595.618	593.8
596.028	595.4
596.437	591.6
596.847	607.6
597.256	605.6
597.687	599.4
598.097	596.8
598.507	584
598.917	596
599.327	604.8
599.736	605.8
600.146	603.4
600.556	610.2
600.988	602.2
601.398	599.8
601.808	607.6
602.219	588.2
602.629	602.2
603.039	598.8
603.45	622.6
603.86	599.6
604.271	604.2
604.703	600.4
605.114	600.8
605.525	604.2
605.935	595
606.346	613
606.757	596.6
607.168	595.2
607.579	592
607.99	613.4
608.402	599.2
608.813	599.4
609.224	586.4
609.636	585
610.047	597.4
610.48	587.8
610.892	603
611.303	598.8
611.715	595.8
612.127	588.4
612.539	582.6
612.95	594.8
613.362	588.6
613.774	584.2
614.186	591.4
614.599	596
615.011	605.2
615.423	599.6
615.835	582.4
616.248	584.2
616.66	592.8
617.073	587.2
617.485	587.2
617.898	599
618.311	590.6
618.723	590.2
619.136	617.8
619.549	602.2
619.962	612.4
620.375	597.2
620.788	591.8
621.201	579.8
621.614	599.2
622.028	591.6
622.441	594.6
622.854	603.4
623.268	585.4
623.681	595
624.095	583.6
624.509	606.2
624.922	601.6
625.336	584.4
625.728	586.2
626.142	602.4
626.556	601.8
626.97	599.2
627.384	590.6
627.799	590.8
628.213	597
628.627	589.2
629.041	592.4
629.456	589.4
629.87	594
630.285	599.2
630.699	594.8
631.093	587.8
631.507	601.4
631.922	592.8
632.337	601.8
632.752	580.4
633.167	595.2
633.582	590
633.997	588.4
634.412	587
634.806	590.2
635.221	575.2
635.637	609.2
636.052	580
636.468	595.2
636.883	607.8
637.299	591.2
637.715	582.2
638.109	589.4
638.525	585.2
638.941	600.4
639.357	593.4
639.773	601
640.189	587.6
640.584	583
641	582.4
641.416	571
641.832	588.4
642.249	591.4
642.665	585.2
643.06	592.4
643.477	596.6
643.894	573.6
644.31	585.8
644.727	586.2
645.123	583.6
645.54	579.6
645.957	588.8
646.374	594.2
646.77	585
647.187	617.6
647.604	596
648.021	573.6
648.439	578.2
648.835	590.2
649.252	594.6
649.67	584.2
650.088	593.4
650.484	592.4
650.902	590.2
651.32	593.4
651.738	582
652.134	584.4
652.552	608.8
652.971	593
653.389	588.8
653.786	602.6
654.204	606.2
654.622	580.8
655.019	582
655.438	587.8
655.857	589.8
656.275	598.4
656.673	577
657.091	588.4
657.51	583
657.908	597
658.327	602
658.746	571
659.144	586.4
659.563	603
659.982	598.8
660.38	582.4
660.8	589.8
661.219	598.6
661.617	594
662.037	589.4
662.457	587
662.855	579
663.275	606.6
663.695	581
664.094	581.4
664.514	590.8
664.934	572.4
665.333	595.2
665.753	580
666.152	573.8
666.572	576
666.993	591
667.392	579.4
667.812	581.2
668.212	586.4
668.632	593.4
669.053	580.2
669.453	589.2
669.874	579.6
670.273	578.8
670.694	585.4
671.116	590.4
671.515	597.4
671.937	583.8
672.337	584.6
672.758	581.6
673.158	586.6
673.58	577
673.98	588.4
674.402	597
674.824	579.8
675.224	581.4
675.646	581.8
676.047	582.2
676.469	580.8
676.869	587.2
677.292	590
677.693	579.2
678.115	583
678.516	586.4
678.939	579.8
679.34	578.6
679.762	597
680.164	591.8
680.586	576
680.988	587
681.411	604
681.812	587
682.236	570.4
682.637	570.8
683.061	569.4
683.462	598.4
683.864	582.2
684.288	586.8
684.69	577.4
685.114	590
685.516	584.6
685.94	580.4
686.342	589.2
686.766	583.2
687.168	583
687.571	592.2
687.995	585.4
688.398	578.8
688.822	573.8
689.225	606.2
689.628	600.2
690.052	585.2
690.456	588.6
690.88	576.4
691.284	578.8
691.687	591.8
692.112	577.6
692.515	576.6
692.919	579.8
693.344	583.4
693.747	581.2
694.173	573.8
694.577	595.2
694.98	585.6
695.406	576.4
695.81	590.4
696.214	590.8
696.64	585.2
697.044	586.8
697.448	585
697.874	579.8
698.279	581.2
698.684	578
699.11	574
699.514	585.4
699.919	585.4
700.324	577.6
700.75	583.4
701.156	579.4
701.561	601
701.987	582.8
702.393	597.4
702.798	590.4
703.203	580.6
703.63	577
704.036	583.6
704.442	585.6
704.847	578.6
705.274	566.6
705.68	580.4
706.086	589.8
706.492	564.8
706.92	591.4
707.326	582
707.732	579
708.139	575.6
708.545	576
708.973	576.6
709.38	582.2
709.786	574.8
710.193	589.4
710.6	585
711.028	575.8
711.435	580
711.842	586
712.249	572.6
712.656	581.6
713.064	592
713.492	573.8
713.9	585
714.307	577.8
714.715	581.8
715.123	583.4
715.53	583.4
715.938	590.2
716.367	577.6
716.775	570.2
717.184	572.6
717.592	579
718	590
718.408	616.6
718.816	623.2
719.225	580.8
719.633	584.6
720.042	575.6
720.472	568.8
720.881	607.2
721.29	578
721.699	570.6
722.108	576.6
722.517	580
722.926	573.2
723.335	594.6
723.744	580
724.154	585.8
724.563	587.2
724.973	580.6
725.382	579.6
725.792	581.2
726.202	566.2
726.612	601.2
727.022	580.4
727.432	567.8
779.813	572.8
780.223	617.6
780.634	579.6
781.044	574
781.454	580.8
781.865	589
782.276	577.6
782.686	587.4
783.097	577.2
783.508	576.4
783.919	585
784.33	588.4
784.741	593
785.152	581
785.563	564.8
785.974	573.8
786.386	589.8
786.776	578.6
787.188	581.8
787.599	570.6
788.011	585.8
788.423	580.4
788.835	569.2
789.247	570.4
789.659	571.8
790.071	576.6
790.483	623.6
790.874	575.6
791.286	588.8
791.699	578.2
792.111	581.8
792.524	588.8
792.937	579.6
793.349	573.6
793.741	573.2
794.154	569.2
794.567	595
794.98	574.8
795.393	568.8
795.785	597.8
796.198	574
796.612	572.2
797.026	572.8
797.439	563.4
797.831	580.2
798.245	571.4
798.659	573.4
799.073	567.8
799.487	561.8
799.88	581.6
800.294	575.2
800.708	575.6
801.123	581
801.516	597.2
801.93	569.4
802.345	566.4
802.76	576.2
803.153	597.6
803.568	586
803.983	579.6
804.377	570.4
804.792	573
805.207	565
805.601	581
806.016	606.6
806.432	570.8
806.826	602.6
807.242	592.2
807.658	593.6
808.052	579
808.468	580.2
808.884	575.4
809.279	573.6
809.695	591.4
810.111	596.2
810.506	570.8
810.922	595.2
811.339	570.4
811.734	576.4
812.151	571
812.546	574.2
812.963	571.6
813.38	576.8
813.776	576.2
814.193	597.8
814.589	579
815.006	571.4
815.402	570.2
815.82	569.2
816.237	576.6
816.633	583.4
817.051	567.4
817.448	581.6
817.866	570.8
818.262	593.2
818.68	572.6
819.077	569.6
819.495	580
819.892	612
820.311	570.4
820.708	574.2
821.127	566.6
821.524	584
821.943	582.4
822.34	598.6
822.759	581.4
823.157	572
823.576	581.2
823.974	585.2
824.393	602.2
824.791	573
825.189	569.4
825.609	576.8
826.007	573.8
826.427	564
826.826	571.6
827.246	579
827.644	566
828.043	576.8
828.463	571.6
828.862	597
829.261	583.6
829.682	564.4
830.081	583.8
830.502	576.4
830.901	582.4
831.301	595
831.722	579.6
832.121	576.6
832.521	567.8
832.943	568.4
833.342	580
833.742	565.2
834.164	573
834.564	571.2
834.965	571.2
835.386	563.4
835.787	582.6
836.188	567.6
836.588	578.4
837.01	576.6
837.411	569.2
837.812	579.4
838.213	583.8
838.636	576
839.037	639.6
839.438	574.4
839.84	577.2
840.263	575.6
840.664	580.6
841.066	575.4
841.468	580.6
841.891	575.4
842.293	581.2
842.695	584.2
843.098	587.2
843.5	567.2
843.902	578.4
844.326	582.4
844.729	577.2
845.131	590.8
845.534	578.6
845.937	586.6
846.34	590
846.764	572.2
847.167	584.6
847.571	577.4
847.974	578.6
848.377	571.2
848.781	623.2
849.184	591.2
849.588	568.6
849.992	579.8
850.396	582.8
850.821	589.6
851.225	576.6
851.63	571.2
852.034	585.4
852.438	574.6
852.843	600.8
853.247	570.2
853.652	566.8
854.057	589.2
854.462	580.2
854.867	584.8
855.272	603.6
855.677	585.2
856.082	569.2
