#lambda/nm	C1
208.295	532.4
208.67	483.2
209.045	447
209.419	441.6
209.794	612.2
210.169	588.8
210.544	701.6
210.919	615.8
211.295	601
211.67	609.6
212.045	603.6
212.421	599
212.796	634.2
213.172	598.6
213.547	603
213.923	607.2
214.299	603.6
214.675	613.4
215.051	620
215.427	619.2
215.803	630.4
216.179	616.8
216.555	602.2
216.932	618.2
217.308	605.6
217.684	607.2
218.061	607.6
218.438	617.8
218.814	604.8
219.191	611.8
219.568	605.8
219.945	603.2
220.322	609.6
220.699	607.6
221.076	608.8
221.453	606.2
221.83	601.6
222.208	609
222.585	608.4
222.962	615
223.34	607.4
223.717	607.2
224.095	598.2
224.473	608.4
224.851	602
225.229	600.2
225.607	617.2
225.985	597.6
226.363	603.2
226.741	605.4
227.119	604.2
227.497	612.2
227.876	594.4
228.254	607.4
228.633	604.2
229.011	608
229.39	599.4
229.769	611.6
230.148	621
230.527	626.6
230.905	613.6
231.284	607.8
231.664	597.8
232.043	618.8
232.422	613.6
232.801	605
233.181	618.4
233.56	600
233.94	611
234.319	601
234.699	609
235.079	643.2
235.458	647
235.838	618.2
236.218	602.8
236.598	602
236.978	602
237.358	606.8
237.738	599.2
238.119	612.6
238.499	594.2
238.88	607.4
239.26	615.4
239.641	604.6
240.021	597
240.402	600.4
240.783	604.6
241.163	600
241.544	613.6
241.925	601.2
242.306	612.4
242.687	615.2
243.069	601.8
243.45	613.2
243.831	608.2
244.212	595.8
244.594	642.6
244.975	611
245.357	610.2
245.739	602.2
246.12	599.4
246.502	614
246.884	606.8
247.266	606.8
247.648	599.2
248.03	624.2
248.412	611.6
248.794	606.4
249.176	606.6
249.559	624.6
249.941	594.8
250.323	602.8
250.706	598.8
251.089	609.2
251.471	605.2
251.854	609.4
252.237	603.4
252.62	607.8
253.002	604.8
253.385	602.8
253.769	628.6
254.152	604
254.535	614.4
254.918	598.8
255.301	601.2
255.685	614.2
256.068	600.4
256.452	627.8
256.835	622
257.219	610
257.603	613.6
257.986	593.4
258.37	618
258.754	597
259.138	614.2
259.522	620.4
259.906	603.4
260.29	607
260.675	606.4
261.059	613.8
261.443	596
261.828	610.8
262.212	622.2
262.597	592.2
262.981	594.4
263.366	613.4
263.751	610.6
264.136	607
264.521	610.8
264.906	598.8
265.291	616.2
265.676	599
266.061	611.6
266.446	621.4
266.831	610
267.217	627.8
267.602	609.4
267.987	605.6
268.373	600.6
268.759	611.6
269.144	614.8
269.53	605.8
269.916	598
270.302	610.2
270.688	613.6
271.074	615
271.46	612.8
271.846	625.4
272.232	611.8
272.618	599.8
273.004	601.8
273.391	605.2
273.777	611.6
274.164	604.4
274.55	613.6
274.937	610.6
275.324	594.2
275.71	615.2
276.097	611.4
276.484	593.8
276.871	608.2
277.258	615.4
277.645	606.6
278.032	603.4
278.419	605
278.807	619
279.194	596.6
279.581	597.4
279.969	616.6
280.356	607
280.744	606
281.131	624.8
281.519	611.6
281.907	602.8
282.295	603.4
282.682	616.6
283.07	612.8
283.458	619.8
283.846	613.8
284.235	619.6
284.623	610.2
285.011	596.8
285.399	615.8
285.788	605.6
286.176	597.4
286.565	626.2
286.953	605
287.342	603
287.731	597
288.119	605.6
288.508	598.8
288.897	595.8
289.286	596.4
289.675	610.4
290.064	614.8
290.453	604.6
290.821	610.2
291.21	622.2
291.599	608.8
291.989	604.2
292.378	608.4
292.768	625.8
293.157	613.6
293.547	616.6
293.936	608.8
294.326	605.6
294.716	617.2
295.106	603.8
295.496	620.8
295.886	615
296.276	604.2
296.666	601.2
297.056	595.6
297.446	594
297.836	612.2
298.227	609.8
298.617	607.2
299.008	614.8
299.398	604
299.789	596.4
300.179	607.8
300.57	618.2
300.961	601.6
301.352	613.2
301.742	612.6
302.133	609.6
302.524	603.2
302.915	617.2
303.307	603.2
303.698	624.4
304.089	610.2
304.48	602.6
304.872	608.8
305.263	606
305.655	603.8
306.046	614.6
306.438	609.8
306.829	605.4
307.221	614.4
307.613	616.8
308.005	618
308.397	613
308.789	629.2
309.181	630.2
309.573	620
309.965	614.8
310.357	609.4
310.749	619.2
311.142	595.6
311.534	610.8
311.926	609.6
312.319	607
312.711	598.2
313.104	614.8
313.497	606.8
313.889	649.4
314.282	632.2
314.675	633.4
315.068	612.6
315.461	620.4
315.854	641
316.247	610
316.64	601.6
317.033	606
317.405	606.4
317.798	608
318.192	606.8
318.585	601.6
318.979	610.2
319.372	601.8
319.766	609.6
320.16	622.6
320.553	615.6
320.947	630.4
321.341	606.6
321.735	605.6
322.129	599.4
322.523	631.2
322.917	594.2
323.311	629.2
323.705	616.8
324.099	613.4
324.494	624.8
324.888	612.6
325.282	603.4
325.677	616
326.071	606.6
326.466	609.8
326.861	618.6
327.255	619.2
327.65	629.2
328.045	628.4
328.44	613.8
328.835	608.4
329.23	603.8
329.625	629.2
330.02	609.4
330.415	628.8
330.81	618
331.206	611.8
331.601	600.4
331.996	616.4
332.37	624
332.766	596.6
333.161	626.4
333.557	600.4
333.953	604.8
334.348	929.8
334.744	613.2
335.14	601.6
335.536	595.6
335.932	618.8
336.328	610.6
336.724	622.6
337.12	603.8
337.516	611.4
337.913	613
338.309	623.6
338.705	607
339.102	616.4
339.498	600.6
339.895	618.4
340.291	602.6
340.688	616.8
341.085	600.8
341.481	612.4
341.878	611.2
342.275	624.8
342.672	594.2
343.069	604.4
343.466	593.6
343.842	612.4
344.239	599.8
344.636	610
345.033	598.8
345.431	601.4
345.828	608.6
346.225	602.4
346.623	647
347.02	599.4
347.418	611.8
347.816	622
348.213	597.8
348.611	612.2
349.009	600.6
349.407	616.4
349.805	600.4
350.203	587.2
350.601	616.2
350.999	609
351.397	667.4
351.795	605.6
352.193	610.8
352.57	609.4
352.969	614
353.367	602.8
353.766	598
354.164	605.6
354.563	615.8
354.961	609.6
355.36	600.2
355.759	604.8
356.158	601.8
356.557	599.8
356.956	600.2
357.355	594.8
357.754	609
358.153	607.6
358.552	626.4
358.951	602.6
359.35	620.2
359.75	604.6
360.149	604.2
360.527	591.2
360.926	596.6
361.326	595
361.726	605.6
362.125	597.6
362.525	603.4
362.925	599.6
363.325	596
363.724	606.8
364.124	591.2
364.524	597.8
364.924	606
365.324	610.4
365.725	590.6
366.125	599.4
366.525	598.6
366.904	598.2
367.304	587
367.705	614.4
368.105	619.4
368.506	596.8
368.906	598.4
369.307	605.8
369.708	602.2
370.108	577.2
370.509	607.2
370.91	588
371.311	595
371.712	600.8
372.113	604.2
372.514	586.6
372.894	592.8
373.295	587.2
373.696	609.8
374.097	603.2
374.499	625.2
374.9	598.6
375.301	601.6
375.703	611.8
376.105	592.4
376.506	604.2
376.908	604.6
377.309	598.6
377.711	604.6
378.113	594.6
378.493	602
378.895	594
379.297	601.6
379.699	580
380.102	603.4
380.504	602.6
380.906	585.6
381.308	616
381.71	602.2
382.113	611
382.515	594.6
382.918	601.4
383.299	603.2
383.701	598.2
384.104	591.4
384.507	580
384.909	600
385.312	589.8
385.715	593.8
386.118	599
386.521	579.4
386.924	609.4
387.327	594.8
387.709	574.2
388.112	587.4
388.515	596.2
388.918	599.6
389.322	610.8
389.725	598.4
390.129	627.2
390.532	606
390.936	597.2
391.339	591.8
391.743	595
392.125	597.6
392.529	611.6
392.933	612.6
393.337	598.6
393.74	595.4
394.144	592.4
394.548	584.6
394.953	597.8
395.357	607.8
395.761	590.4
396.144	596.8
396.548	591.4
396.952	600
397.357	593.4
397.761	594.4
398.166	593.2
398.57	599
398.975	583.8
399.379	600.6
399.763	642.8
400.168	597
400.572	602.2
400.977	599.8
401.382	611.4
401.787	609
402.192	612.4
402.597	613.4
403.002	589.6
403.386	608.8
403.791	617.2
404.197	595
404.602	592.8
405.007	597.8
405.413	593.4
405.818	603.6
406.224	586.4
406.608	590.6
407.014	587.4
407.42	607.8
407.825	585.2
408.231	610.2
408.637	599.6
409.043	603
409.449	590.6
409.834	591.8
410.24	604
410.646	615.4
411.052	614.6
411.458	605.4
411.865	611.4
412.271	606.8
412.677	603.4
413.062	606.6
413.469	595
413.875	628
414.282	607.6
414.689	597.8
415.095	603.8
415.502	593.4
415.888	603
416.294	587.2
416.701	640.8
417.108	586.4
417.515	609
417.923	602.4
418.33	617.8
418.715	611.4
419.123	595.6
419.53	595.2
419.937	604.2
420.345	617.2
420.752	595.2
421.16	613.2
421.546	597.8
421.953	604
422.361	594.6
422.769	606
423.177	581.4
423.585	625
423.992	622.6
424.379	612.4
424.787	614.6
425.195	624.2
425.603	603.6
426.011	613.2
426.419	609.6
426.806	603.4
427.214	613.8
427.623	612.4
428.031	615.8
428.44	604.8
428.848	616.2
429.235	617.6
429.644	615.2
430.053	609.8
430.461	635.6
430.87	644.4
431.279	636.6
431.666	624.2
432.075	637
432.484	643.6
432.893	645.6
433.302	663
433.711	697.2
434.099	672.6
434.508	673.8
434.918	670.6
435.327	695.6
435.737	704
436.125	702.4
436.534	720
436.944	721.6
437.353	734
437.763	761
438.173	744
438.561	767
438.971	750.4
439.381	766.4
439.791	777
440.201	767.6
440.589	784
440.999	797
441.409	805.2
441.819	797.6
442.23	817.4
442.619	818.4
443.029	828.6
443.439	835.6
443.85	845
444.26	851.2
444.649	851.2
445.06	843.4
445.471	844.4
445.881	857
446.292	872.4
446.682	889.2
447.092	859.6
447.503	924.4
447.914	873
448.325	884.4
448.715	892.8
449.126	877.2
449.537	889.2
449.948	895.8
450.338	895.2
450.75	891.4
451.161	896.4
451.572	921.2
451.984	892
452.374	890.2
452.786	907.8
453.197	907.6
453.609	899.4
453.999	895.4
454.411	896
454.823	927.8
455.235	898.2
455.647	907
456.037	907.8
456.449	890.2
456.862	903.2
457.274	913.6
457.665	903.8
458.077	914.2
458.489	944.2
458.902	912.4
459.293	912.6
459.705	915
460.118	919.4
460.53	919
460.921	926.2
461.334	917.6
461.747	914.6
462.16	930.6
462.551	928.4
462.964	918
463.377	909.4
463.79	919
464.182	931.8
464.595	910.8
465.008	927
465.421	932.6
465.813	924.4
466.226	920.6
466.64	912.8
467.053	958
467.445	937.8
467.859	931.6
468.272	920.4
468.686	923.2
469.078	916.4
469.492	911.4
469.906	916
470.298	926
470.712	907.6
471.126	958
471.54	899.2
471.933	917
472.347	906.4
472.761	902.4
473.175	893.8
473.568	901.6
473.982	907.4
474.397	906.6
474.79	908.4
475.204	898.6
475.619	905
476.033	906.6
476.426	905.8
476.841	899
477.256	920.2
477.649	885
478.064	884.2
478.479	882.6
478.872	888.2
479.287	865.4
479.702	887
480.118	888.8
480.511	881.2
480.927	885.2
481.342	881
481.736	871.8
482.151	872.8
482.566	896.4
482.96	878.2
483.376	887
483.792	872
484.186	878
484.602	863.6
485.017	867.2
485.412	861.8
485.827	873
486.243	868.4
486.638	889.8
487.054	864.2
487.47	860.6
487.865	849.2
488.281	848.4
488.697	854.8
489.092	848.4
489.508	848
489.925	868.2
490.32	828.8
490.736	853.8
491.153	846.6
491.548	844.2
491.964	853.6
492.381	823.2
492.776	834.6
493.193	842
493.61	837.8
494.006	829.4
494.422	837.2
494.84	812.4
495.235	836
495.652	826.8
496.069	818
496.465	808.6
496.883	814.6
497.3	847
497.696	814.6
498.113	822
498.509	812
498.927	791.2
499.344	797.8
499.741	804.2
500.158	798.4
500.576	809.4
500.973	789.6
501.39	795.8
501.787	787.6
502.205	798.6
502.623	785.2
503.02	769.6
503.438	783.6
503.856	772.4
504.253	785
504.671	781.2
505.068	775
505.486	772.6
505.905	793.2
506.302	772.8
506.72	791.6
507.118	762.4
507.536	774
507.955	770
508.352	765.6
508.771	777.2
509.169	767.6
509.587	762.2
510.006	761.6
510.404	745.4
510.823	746.6
511.221	739
511.64	737.8
512.038	755.8
512.457	745
512.877	740.6
513.275	739.6
513.694	735.6
514.092	739.6
514.512	752.8
514.91	740
515.33	734.2
515.749	738.2
516.148	738
516.568	731
516.966	737.8
517.386	726.2
517.785	725.8
518.205	721.2
518.603	720.8
519.024	714.2
519.444	723
519.843	740.6
520.263	724.4
520.662	724.6
521.082	717.8
521.481	723.6
521.902	717.4
522.301	723.2
522.722	715.2
523.121	715.8
523.542	714.6
523.963	716.8
524.362	701.4
524.783	716
525.183	700.4
525.604	711.4
526.003	697.6
526.425	703.6
526.824	702.6
527.246	707
527.646	712.8
528.067	701
528.467	695.2
528.888	698.4
529.289	686.2
529.71	685.2
530.11	684.4
530.532	683
530.932	675.2
531.354	677.2
531.755	711.8
532.176	689.4
532.577	685.2
532.999	678.2
533.4	684.8
533.822	686.8
534.223	692.4
534.645	672.6
535.046	679.2
535.468	673.4
535.869	678.2
536.292	664.4
536.693	704.4
537.115	671.6
537.516	673.8
537.939	663
538.34	685.4
538.742	674.2
539.165	673.8
539.566	660
539.989	657.2
540.391	659.8
540.814	662
541.216	668.8
541.639	665.4
542.041	666.6
542.464	666.2
542.866	656.6
543.268	654.2
543.691	670.2
544.093	663.8
544.517	678.2
544.919	653.6
545.343	684.4
545.745	654.8
546.147	668.6
546.571	657.6
546.974	645
547.398	657.8
547.8	664
548.224	651.2
548.627	648.8
549.03	651.6
549.454	650.6
549.857	641.2
550.281	644
550.684	652
551.087	655.8
551.512	640.2
551.915	653
552.34	644.8
552.743	647.6
553.146	653
553.571	635
553.975	661
554.399	627.6
554.803	688.4
555.207	635.4
555.632	644.6
556.036	647.4
556.461	641.8
556.865	639.2
557.268	633
557.694	634.2
558.098	643.6
558.502	641.2
558.927	626.4
559.332	630.2
559.736	632.8
560.162	638
560.566	629.2
560.992	637.6
561.396	633.4
561.801	625.6
562.227	636.4
562.631	626.8
563.036	626.6
563.462	633.8
563.867	632.4
564.272	627
564.698	631.8
565.103	619
565.508	640.2
565.935	621.2
566.34	621.2
566.745	649
567.172	624
567.577	636.4
567.982	640.2
568.409	623.8
568.815	621.2
569.22	627.6
569.626	625
570.053	612.6
570.459	627
570.865	630.8
571.292	626.6
571.698	623.6
572.104	604.4
572.531	614.6
572.937	637.2
573.343	614.2
573.75	618.2
574.177	620.2
574.583	623.4
574.99	616.6
575.396	617.4
575.824	607.8
576.231	618.4
576.637	613.2
577.065	641.8
577.472	602
577.879	610.6
578.286	635.6
578.714	607.8
579.121	615
579.528	617.2
579.935	620
580.364	616
580.771	597.4
581.178	612.8
581.585	614.4
582.014	608.4
582.421	609.6
582.829	600.6
583.236	616.6
583.644	604.6
584.073	607.8
584.481	611.8
584.889	609
585.296	613.4
585.726	609.8
586.134	605.4
586.542	604.6
586.95	620.4
587.358	593.8
587.787	601.6
588.196	613.4
588.604	598.8
589.012	608
589.421	603
589.851	591
590.259	611.6
590.668	598
591.076	638
591.485	597.2
591.894	600.8
592.324	613
592.733	611.2
593.142	596.6
593.551	598.2
593.96	626.8
594.369	596.6
594.8	593.6
595.209	604.8
595.618	593.6
596.028	591.4
596.437	584.6
596.847	595.4
597.256	604.4
597.687	604.2
598.097	591.4
598.507	583.4
598.917	598.8
599.327	606.4
599.736	600.8
600.146	601.8
600.556	599.8
600.988	608.8
601.398	596.4
601.808	607.4
602.219	586.6
602.629	590.8
603.039	596.2
603.45	619.4
603.86	601.6
604.271	609.6
604.703	600.8
605.114	592.8
605.525	592.8
605.935	605.6
606.346	613.8
606.757	596.8
607.168	591.4
607.579	593.4
607.99	603.2
608.402	595.2
608.813	601
609.224	591.2
609.636	596
610.047	594.2
610.48	598.4
610.892	599
611.303	600
611.715	592.4
612.127	592.2
612.539	588.4
612.95	597.4
613.362	588
613.774	581.8
614.186	588.4
614.599	586.4
615.011	597
615.423	594.8
615.835	589
616.248	575.2
616.66	590.6
617.073	581
617.485	594.8
617.898	602
618.311	599
618.723	594.2
619.136	618.4
619.549	604
619.962	609
620.375	596.6
620.788	594.6
621.201	584.6
621.614	602.6
622.028	596.8
622.441	594.6
622.854	605.8
623.268	584.6
623.681	598.4
624.095	588.2
624.509	600.6
624.922	601.2
625.336	578.8
625.728	596.8
626.142	593.8
626.556	603
626.97	604.2
627.384	592.2
627.799	591.6
628.213	594
628.627	585.6
629.041	595.4
629.456	592.6
629.87	592.4
630.285	602.6
630.699	602.4
631.093	588.8
631.507	599.8
631.922	586.2
632.337	596
632.752	582.2
633.167	589.4
633.582	585.8
633.997	581.6
634.412	575
634.806	584.4
635.221	577.6
635.637	594.6
636.052	583.6
636.468	588.8
636.883	601.2
637.299	586.6
637.715	568.2
638.109	594
638.525	577.4
638.941	593.2
639.357	591.4
639.773	605.4
640.189	585.2
640.584	585.8
641	588.4
641.416	581.4
641.832	587.8
642.249	580.4
642.665	585.2
643.06	590.4
643.477	598.2
643.894	577.8
644.31	580.6
644.727	587.4
645.123	591.2
645.54	581
645.957	586.6
646.374	591.4
646.77	586.4
647.187	614.6
647.604	588.6
648.021	576.4
648.439	580
648.835	586.2
649.252	575.8
649.67	593.8
650.088	593.2
650.484	584.6
650.902	590.2
651.32	599.6
651.738	585.4
652.134	586
652.552	604
652.971	593.4
653.389	586.6
653.786	591.4
654.204	614.4
654.622	582.2
655.019	589
655.438	591
655.857	593.8
656.275	587.2
656.673	581.4
657.091	582.4
657.51	577.8
657.908	593.4
658.327	598.2
658.746	577
659.144	585.2
659.563	592.2
659.982	578.2
660.38	573.8
660.8	583.6
661.219	582.8
661.617	590.2
662.037	589.4
662.457	593.8
662.855	574.2
663.275	606.4
663.695	583.6
664.094	583.2
664.514	585.6
664.934	575.6
665.333	590.8
665.753	580
666.152	576.6
666.572	577.8
666.993	597.6
667.392	577.8
667.812	584.2
668.212	580.6
668.632	584
669.053	577.4
669.453	588.2
669.874	582.6
670.273	581
670.694	576.6
671.116	590
671.515	592
671.937	583.8
672.337	583.8
672.758	581.8
673.158	593.2
673.58	577.2
673.98	583.4
674.402	590
674.824	580.2
675.224	587.2
675.646	571
676.047	579.4
676.469	582.8
676.869	597
677.292	580
677.693	575.8
678.115	583.8
678.516	587.4
678.939	583.2
679.34	573.8
679.762	590.6
680.164	586.2
680.586	575
680.988	582.2
681.411	606.2
681.812	578
682.236	575.6
682.637	578.6
683.061	568.8
683.462	583.6
683.864	577.4
684.288	588
684.69	578.2
685.114	593.6
685.516	592.8
685.94	581
686.342	590
686.766	576.4
687.168	582
687.571	593
687.995	580.4
688.398	572.4
688.822	578.6
689.225	594.6
689.628	605
690.052	587.4
690.456	589
690.88	579.6
691.284	578.8
691.687	589
692.112	574.8
692.515	571.2
692.919	579
693.344	584.8
693.747	579.2
694.173	579.2
694.577	589.6
694.98	587.2
695.406	575.6
695.81	585.2
696.214	581.6
696.64	579.8
697.044	577.4
697.448	598
697.874	581.2
698.279	583
698.684	570.6
699.11	564.4
699.514	576.2
699.919	582.2
700.324	572
700.75	586.8
701.156	582.2
701.561	594
701.987	595.4
702.393	588.8
702.798	588.6
703.203	581
703.63	582.6
704.036	580.4
704.442	579
704.847	579.2
705.274	577.6
705.68	583.8
706.086	583
706.492	562.2
706.92	578.2
707.326	590
707.732	582
708.139	577.2
708.545	569.6
708.973	575.4
709.38	580.6
709.786	572.6
710.193	597.6
710.6	582
711.028	571
711.435	585.4
711.842	583.4
712.249	575.6
712.656	583.2
713.064	591
713.492	571
713.9	578.4
714.307	582.6
714.715	584.2
715.123	582
715.53	581
715.938	593.8
716.367	581.4
716.775	577.8
717.184	573.8
717.592	572.6
718	595.6
718.408	613.2
718.816	614.8
719.225	580
719.633	582.6
720.042	566.8
720.472	575
720.881	595.2
721.29	594.2
721.699	565.8
722.108	571.4
722.517	580.8
722.926	572.4
723.335	592.8
723.744	580.2
724.154	584.8
724.563	574
724.973	582.8
725.382	579
725.792	574.2
726.202	568.2
726.612	595.6
727.022	573.4
727.432	576.8
779.813	570.8
780.223	617.8
780.634	570.2
781.044	570.8
781.454	568
781.865	585.8
782.276	573.6
782.686	593.8
783.097	573.8
783.508	573
783.919	578.2
784.33	586.6
784.741	588.2
785.152	573.8
785.563	558.6
785.974	574.6
786.386	588.4
786.776	576.8
787.188	580.8
787.599	574.6
788.011	584.2
788.423	579.2
788.835	575.6
789.247	570.6
789.659	574
790.071	575.4
790.483	615
790.874	580
791.286	593.2
791.699	576.4
792.111	568.8
792.524	582.8
792.937	571.8
793.349	570
793.741	571.8
794.154	573.4
794.567	590
794.98	583.6
795.393	570.6
795.785	595.6
796.198	576.4
796.612	581.4
797.026	577.8
797.439	562.8
797.831	578.6
798.245	573.4
798.659	574.6
799.073	580.6
799.487	573.6
799.88	580.8
800.294	577.4
800.708	582.2
801.123	575.8
801.516	593.6
801.93	570.6
802.345	563.8
802.76	577.2
803.153	588.6
803.568	586.2
803.983	582.8
804.377	577.4
804.792	560.8
805.207	569.8
805.601	585.8
806.016	613.2
806.432	566.6
806.826	605.4
807.242	587.4
807.658	575
808.052	569.4
808.468	574.8
808.884	572.8
809.279	576.8
809.695	580
810.111	590.8
810.506	578.2
810.922	594.6
811.339	574
811.734	578
812.151	575.2
812.546	569.8
812.963	570.6
813.38	575
813.776	572.4
814.193	595
814.589	572
815.006	571.6
815.402	570.8
815.82	568.2
816.237	579.6
816.633	576
817.051	570
817.448	581.6
817.866	559.2
818.262	598.8
818.68	573.4
819.077	570
819.495	572
819.892	606.4
820.311	568.6
820.708	570.4
821.127	570.2
821.524	591.4
821.943	575.4
822.34	592.2
822.759	576.8
823.157	580.4
823.576	595.8
823.974	574.8
824.393	616
824.791	571.8
825.189	573
825.609	576.4
826.007	580.4
826.427	562.4
826.826	572.8
827.246	580.6
827.644	557.2
828.043	579.6
828.463	573.8
828.862	593.2
829.261	584.2
829.682	575.4
830.081	583.2
830.502	573.4
830.901	577.4
831.301	588.6
831.722	562.6
832.121	572.6
832.521	578.6
832.943	570.8
833.342	573.2
833.742	563
834.164	571
834.564	566
834.965	581
835.386	570
835.787	572.6
836.188	572.6
836.588	574.8
837.01	584.4
837.411	571.4
837.812	582.6
838.213	573
838.636	575
839.037	642.8
839.438	580.8
839.84	588.6
840.263	580.8
840.664	585
841.066	571.2
841.468	575.4
841.891	574.2
842.293	574.2
842.695	574
843.098	578.6
843.5	574
843.902	585.8
844.326	576.4
844.729	576.8
845.131	580
845.534	575.6
845.937	590.6
846.34	588
846.764	566.2
847.167	577.2
847.571	568.2
847.974	579.2
848.377	575.8
848.781	624.6
849.184	582.6
849.588	582.2
849.992	575.6
850.396	575.8
850.821	603.4
851.225	574.4
851.63	573.2
852.034	590.2
852.438	571
852.843	600
853.247	570.8
853.652	572
854.057	594.6
854.462	575.8
854.867	587.8
855.272	613
855.677	581.4
