#lambda/nm	C1
208.295	541.2
208.67	484.4
209.045	445.8
209.419	452
209.794	606.2
210.169	583.8
210.544	697.8
210.919	617.4
211.295	596.2
211.67	607.6
212.045	606.8
212.421	599
212.796	631.8
213.172	594
213.547	597.2
213.923	600.8
214.299	599.4
214.675	600.2
215.051	609.4
215.427	609.2
215.803	615.4
216.179	609.4
216.555	595.8
216.932	611.2
217.308	599.8
217.684	596.4
218.061	606.6
218.438	608.6
218.814	593.8
219.191	610.4
219.568	592.8
219.945	603.6
220.322	607.2
220.699	613
221.076	613.2
221.453	606.4
221.83	599
222.208	597.2
222.585	604.4
222.962	603.6
223.34	597.4
223.717	598.6
224.095	602.8
224.473	605.4
224.851	589.8
225.229	592.6
225.607	613.4
225.985	598.8
226.363	601.2
226.741	603
227.119	604.2
227.497	617.6
227.876	590.4
228.254	608.4
228.633	603
229.011	600
229.39	610.4
229.769	600
230.148	608.4
230.527	612.2
230.905	606.8
231.284	611.8
231.664	598.6
232.043	608.8
232.422	610
232.801	592.6
233.181	609.4
233.56	599
233.94	606.4
234.319	594
234.699	605.4
235.079	637.2
235.458	645.6
235.838	617.2
236.218	591
236.598	597.6
236.978	599.4
237.358	595.2
237.738	602
238.119	611.2
238.499	593
238.88	603.6
239.26	621.8
239.641	594
240.021	602.6
240.402	598.2
240.783	606.6
241.163	598.6
241.544	601.6
241.925	599.4
242.306	614.4
242.687	603.8
243.069	604.8
243.45	602.8
243.831	595.8
244.212	602
244.594	638.4
244.975	602.2
245.357	609.4
245.739	590.2
246.12	604.4
246.502	614.2
246.884	596.4
247.266	609
247.648	611.6
248.03	621.2
248.412	610.2
248.794	603.6
249.176	598.6
249.559	615.6
249.941	591.2
250.323	598.6
250.706	597.8
251.089	599.4
251.471	603.8
251.854	609.4
252.237	601.4
252.62	616.6
253.002	599.8
253.385	605.8
253.769	618.2
254.152	597.8
254.535	607.4
254.918	597
255.301	604
255.685	596.2
256.068	588
256.452	617.4
256.835	605.6
257.219	610.2
257.603	617.4
257.986	593.4
258.37	601
258.754	588
259.138	613.6
259.522	615.2
259.906	601.2
260.29	602.2
260.675	605.6
261.059	604.2
261.443	592
261.828	614.8
262.212	605.2
262.597	598
262.981	604
263.366	603.4
263.751	609.4
264.136	599.6
264.521	598.6
264.906	596.6
265.291	617.2
265.676	604.6
266.061	606.4
266.446	616
266.831	599.2
267.217	626.6
267.602	606.4
267.987	610.6
268.373	595.6
268.759	603.4
269.144	596
269.53	605.6
269.916	592.2
270.302	592.4
270.688	611
271.074	604
271.46	608
271.846	621
272.232	599.2
272.618	591
273.004	596.6
273.391	616.4
273.777	615.4
274.164	607
274.55	617
274.937	600
275.324	603
275.71	613
276.097	610.8
276.484	592
276.871	599.4
277.258	607.8
277.645	591.4
278.032	597
278.419	600.6
278.807	603.8
279.194	605.6
279.581	599.4
279.969	606.4
280.356	602.4
280.744	603.6
281.131	635.6
281.519	608
281.907	599.4
282.295	597
282.682	611.6
283.07	607.6
283.458	619
283.846	609.4
284.235	611.6
284.623	606
285.011	595
285.399	610.8
285.788	606.8
286.176	598.4
286.565	612
286.953	600
287.342	596.8
287.731	593.2
288.119	596.4
288.508	601
288.897	611.8
289.286	592.8
289.675	604.4
290.064	610.4
290.453	602
290.821	598.8
291.21	613
291.599	602.4
291.989	600.8
292.378	606.8
292.768	621.2
293.157	610.6
293.547	606.6
293.936	602
294.326	591.6
294.716	604.4
295.106	594.8
295.496	605.2
295.886	609.4
296.276	596.6
296.666	599.6
297.056	596.4
297.446	593.2
297.836	617.6
298.227	598.8
298.617	607.6
299.008	612.8
299.398	608.4
299.789	598.4
300.179	608.2
300.57	608.6
300.961	600.2
301.352	605.2
301.742	608.8
302.133	606.2
302.524	601.8
302.915	596.8
303.307	593.6
303.698	614.6
304.089	613.2
304.48	603.2
304.872	615.4
305.263	602.2
305.655	595
306.046	608.2
306.438	604.2
306.829	593
307.221	615.4
307.613	614.8
308.005	613.6
308.397	617.6
308.789	620.2
309.181	633.2
309.573	617.6
309.965	616.6
310.357	602.4
310.749	612.4
311.142	596.4
311.534	604.8
311.926	615.2
312.319	611
312.711	596
313.104	617.8
313.497	601.4
313.889	636.4
314.282	615.8
314.675	617.8
315.068	605.8
315.461	612.4
315.854	626.6
316.247	607.6
316.64	602.8
317.033	602.6
317.405	609
317.798	604
318.192	599.4
318.585	597
318.979	607.8
319.372	603
319.766	599.8
320.16	605
320.553	621.4
320.947	623
321.341	608.6
321.735	599
322.129	592.8
322.523	622
322.917	593.6
323.311	622.6
323.705	605.6
324.099	601.4
324.494	618
324.888	615.4
325.282	602.6
325.677	610.6
326.071	615.8
326.466	611.8
326.861	601.2
327.255	608
327.65	615.6
328.045	619.4
328.44	612.4
328.835	602.4
329.23	598
329.625	619.8
330.02	605.8
330.415	621.6
330.81	611.6
331.206	610.4
331.601	612.2
331.996	616.4
332.37	624.8
332.766	597.4
333.161	622.8
333.557	602
333.953	602.6
334.348	898
334.744	596.4
335.14	604.2
335.536	604.8
335.932	615.4
336.328	603.2
336.724	613
337.12	602.2
337.516	599
337.913	605.2
338.309	606
338.705	607
339.102	616.4
339.498	600.4
339.895	613
340.291	598.6
340.688	606.4
341.085	595.6
341.481	603.8
341.878	598.8
342.275	624.4
342.672	604.4
343.069	594.8
343.466	597.6
343.842	619.6
344.239	595.4
344.636	598
345.033	599.6
345.431	601
345.828	607.2
346.225	596.8
346.623	634.8
347.02	600.8
347.418	601.2
347.816	613.8
348.213	594.6
348.611	610.2
349.009	596
349.407	612.2
349.805	590.8
350.203	597
350.601	613.6
350.999	604
351.397	662.4
351.795	601.4
352.193	609.2
352.57	608.4
352.969	605.8
353.367	594.8
353.766	596.4
354.164	594
354.563	603.4
354.961	601.8
355.36	594.8
355.759	604.6
356.158	591
356.557	598.6
356.956	593.2
357.355	594
357.754	598.6
358.153	606.2
358.552	618
358.951	601.8
359.35	614.6
359.75	602.8
360.149	596.8
360.527	588.6
360.926	587.8
361.326	604.4
361.726	590.6
362.125	596
362.525	605.2
362.925	592.6
363.325	598.6
363.724	598.2
364.124	598.2
364.524	599.4
364.924	597.8
365.324	606.4
365.725	578.8
366.125	607.4
366.525	603.6
366.904	583
367.304	573
367.705	614.6
368.105	609
368.506	602
368.906	602.2
369.307	595.6
369.708	599
370.108	586.2
370.509	600.4
370.91	588.8
371.311	595.4
371.712	596.8
372.113	589.4
372.514	593.6
372.894	592
373.295	586.6
373.696	604.6
374.097	610.6
374.499	618
374.9	599.2
375.301	593.4
375.703	590.4
376.105	589.2
376.506	597.8
376.908	600.2
377.309	602.6
377.711	601
378.113	591.2
378.493	596.2
378.895	586
379.297	598
379.699	582.6
380.102	603
380.504	593.8
380.906	593.6
381.308	613.2
381.71	603.8
382.113	603.2
382.515	591.8
382.918	597.2
383.299	595.4
383.701	606.4
384.104	595
384.507	582
384.909	598.2
385.312	589.2
385.715	594
386.118	599.2
386.521	587.4
386.924	614.2
387.327	592.4
387.709	582.2
388.112	586.4
388.515	598.8
388.918	589
389.322	599.4
389.725	593.6
390.129	609.8
390.532	602.6
390.936	586.2
391.339	589.4
391.743	595.8
392.125	589.2
392.529	613.4
392.933	604
393.337	604
393.74	594.2
394.144	600.8
394.548	593.4
394.953	591.6
395.357	611.2
395.761	599.4
396.144	607
396.548	598.8
396.952	596.8
397.357	591.2
397.761	592.2
398.166	593.2
398.57	596
398.975	588.2
399.379	603
399.763	647
400.168	600.2
400.572	596
400.977	599.4
401.382	612.8
401.787	612
402.192	613.8
402.597	616.8
403.002	588.4
403.386	614.2
403.791	613.8
404.197	591.8
404.602	599.8
405.007	596.2
405.413	586
405.818	599.2
406.224	595.8
406.608	592.4
407.014	591
407.42	609.2
407.825	599
408.231	605
408.637	605.4
409.043	609
409.449	589.6
409.834	593.2
410.24	599.6
410.646	605.8
411.052	606
411.458	598
411.865	605.4
412.271	598.6
412.677	594
413.062	601
413.469	581.6
413.875	623.2
414.282	605.2
414.689	593.8
415.095	597.8
415.502	590.8
415.888	601.6
416.294	579
416.701	635.2
417.108	593
417.515	601.8
417.923	593.4
418.33	613.2
418.715	599.8
419.123	597.2
419.53	586.8
419.937	608.2
420.345	610.6
420.752	600
421.16	607.8
421.546	597
421.953	607
422.361	594
422.769	600.8
423.177	588.6
423.585	616.4
423.992	620.8
424.379	609.8
424.787	605.6
425.195	611
425.603	596.6
426.011	609.4
426.419	607.6
426.806	599.6
427.214	603.8
427.623	613.4
428.031	629.4
428.44	612
428.848	616.6
429.235	625.6
429.644	619.2
430.053	613
430.461	641
430.87	657.4
431.279	638.4
431.666	633.4
432.075	645.4
432.484	658.4
432.893	661.6
433.302	685.2
433.711	697
434.099	685
434.508	685.6
434.918	690.6
435.327	713.4
435.737	716.6
436.125	721.8
436.534	734.4
436.944	738.2
437.353	756.8
437.763	775.4
438.173	774.8
438.561	782.4
438.971	781
439.381	796
439.791	815.6
440.201	797
440.589	831
440.999	837
441.409	834
441.819	834.4
442.23	870.4
442.619	874
443.029	873.6
443.439	879.2
443.85	889.6
444.26	908
444.649	903
445.06	898.6
445.471	899.2
445.881	904.2
446.292	919.8
446.682	919.6
447.092	903.2
447.503	956.4
447.914	919.2
448.325	920.6
448.715	934
449.126	925
449.537	946
449.948	937.6
450.338	933.4
450.75	944.4
451.161	933.2
451.572	949.2
451.984	944.6
452.374	931.2
452.786	950.6
453.197	957.6
453.609	963
453.999	943.4
454.411	952
454.823	965
455.235	950.6
455.647	953.2
456.037	959
456.449	945.8
456.862	952.6
457.274	964.6
457.665	961.2
458.077	969.8
458.489	982.6
458.902	948.2
459.293	969.8
459.705	969.8
460.118	959.4
460.53	963.6
460.921	969.4
461.334	966.6
461.747	967.8
462.16	982.4
462.551	977.6
462.964	969.6
463.377	954.8
463.79	967
464.182	976.6
464.595	961.8
465.008	962.8
465.421	957.8
465.813	960.8
466.226	969.2
466.64	964
467.053	1016.2
467.445	978.4
467.859	993.2
468.272	979
468.686	985
469.078	966.2
469.492	962.4
469.906	981.4
470.298	970
470.712	956.4
471.126	1013.6
471.54	955.2
471.933	959.4
472.347	952.4
472.761	960.4
473.175	956.8
473.568	960.8
473.982	934.6
474.397	949.2
474.79	947
475.204	958
475.619	945.6
476.033	950.8
476.426	947.2
476.841	943.2
477.256	959.4
477.649	930.4
478.064	937.2
478.479	923.8
478.872	929.6
479.287	914.8
479.702	924
480.118	926.4
480.511	922.8
480.927	924.8
481.342	919.2
481.736	916.6
482.151	911.6
482.566	926
482.96	928.8
483.376	914.4
483.792	906
484.186	912.6
484.602	899
485.017	923.2
485.412	894.8
485.827	912.8
486.243	905.6
486.638	916.6
487.054	913
487.47	907.4
487.865	898.4
488.281	889.6
488.697	881
489.092	887.2
489.508	876.4
489.925	901.6
490.32	886.2
490.736	891.6
491.153	866
491.548	889.8
491.964	887.2
492.381	867
492.776	876
493.193	878.6
493.61	875.8
494.006	879.2
494.422	866.6
494.84	871.4
495.235	872.4
495.652	851.2
496.069	857.6
496.465	839.8
496.883	851.4
497.3	879.4
497.696	850.6
498.113	860.6
498.509	831
498.927	834.6
499.344	831
499.741	833.6
500.158	844.2
500.576	832.4
500.973	831
501.39	814.6
501.787	817.4
502.205	823.2
502.623	812
503.02	812.4
503.438	816.6
503.856	808
504.253	818.6
504.671	819.2
505.068	801.6
505.486	807
505.905	822.6
506.302	800.2
506.72	801
507.118	781.6
507.536	792.8
507.955	789
508.352	786.2
508.771	797.6
509.169	785.8
509.587	771.8
510.006	771.8
510.404	774
510.823	775
511.221	780.4
511.64	768.2
512.038	774.6
512.457	763.6
512.877	772.6
513.275	766.6
513.694	758.4
514.092	764
514.512	772.6
514.91	773.2
515.33	758.4
515.749	757.8
516.148	754.8
516.568	754.8
516.966	754
517.386	749.6
517.785	748
518.205	741.4
518.603	731.2
519.024	741.6
519.444	734.4
519.843	751.6
520.263	759.2
520.662	744.2
521.082	730.6
521.481	729.4
521.902	722.2
522.301	727.2
522.722	733.6
523.121	724.8
523.542	723.6
523.963	721.2
524.362	727.8
524.783	720.8
525.183	720.8
525.604	722
526.003	705.8
526.425	700.2
526.824	724.6
527.246	712.4
527.646	719.4
528.067	703.4
528.467	705.4
528.888	705.2
529.289	699.8
529.71	707
530.11	692.2
530.532	699.2
530.932	689
531.354	697
531.755	723.4
532.176	708.8
532.577	689
532.999	691.4
533.4	688.4
533.822	694.2
534.223	700.4
534.645	688
535.046	675
535.468	682.8
535.869	696.4
536.292	677.2
536.693	712
537.115	689.8
537.516	674.4
537.939	673.4
538.34	695.2
538.742	685.2
539.165	682.8
539.566	669.8
539.989	664.6
540.391	677
540.814	676.8
541.216	677.8
541.639	672.8
542.041	682.6
542.464	672.4
542.866	668.2
543.268	667
543.691	668.2
544.093	672.4
544.517	684
544.919	656
545.343	683.2
545.745	662.6
546.147	662
546.571	661
546.974	655.2
547.398	658.8
547.8	672
548.224	652.8
548.627	659
549.03	653.8
549.454	655.4
549.857	639.8
550.281	649.8
550.684	648.4
551.087	659.6
551.512	657
551.915	661.8
552.34	654.4
552.743	637.8
553.146	659.6
553.571	646.8
553.975	660.6
554.399	638.2
554.803	688
555.207	646.6
555.632	640.6
556.036	652.6
556.461	632.2
556.865	640.8
557.268	633.8
557.694	631.8
558.098	651.6
558.502	638.2
558.927	633.8
559.332	640
559.736	632.6
560.162	653.8
560.566	626.8
560.992	639.4
561.396	625
561.801	627.8
562.227	638.2
562.631	625.6
563.036	627.6
563.462	639.6
563.867	636.8
564.272	622.4
564.698	634.4
565.103	623.2
565.508	648.4
565.935	632.8
566.34	623.4
566.745	642.6
567.172	628.4
567.577	643.2
567.982	638.4
568.409	627.2
568.815	615.4
569.22	628.4
569.626	627.4
570.053	612.4
570.459	626.4
570.865	623
571.292	618
571.698	618.8
572.104	614
572.531	610.8
572.937	623.6
573.343	615.4
573.75	612
574.177	617.4
574.583	627.2
574.99	615.4
575.396	620.2
575.824	613.8
576.231	624.8
576.637	612
577.065	633.8
577.472	610.4
577.879	619
578.286	632.6
578.714	608
579.121	606.8
579.528	613.8
579.935	618
580.364	609.4
580.771	597.2
581.178	602.8
581.585	614.6
582.014	622
582.421	605.4
582.829	609.8
583.236	609.8
583.644	610.2
584.073	606
584.481	614.4
584.889	599.4
585.296	613.2
585.726	604.6
586.134	600.6
586.542	599.2
586.95	624.2
587.358	594.4
587.787	605.8
588.196	617.6
588.604	605.8
589.012	598.6
589.421	596.2
589.851	599.6
590.259	607
590.668	603.8
591.076	635.2
591.485	596.8
591.894	607.2
592.324	613.4
592.733	607.4
593.142	597.2
593.551	596
593.96	606.6
594.369	596.2
594.8	594.6
595.209	600.6
595.618	590.4
596.028	592.8
596.437	586.8
596.847	604.8
597.256	603
597.687	605.6
598.097	596.4
598.507	584.2
598.917	596.4
599.327	607
599.736	602.8
600.146	605.8
600.556	602
600.988	612.8
601.398	588
601.808	600
602.219	586.4
602.629	595.2
603.039	599.8
603.45	618.8
603.86	598
604.271	616
604.703	592
605.114	591.4
605.525	594.6
605.935	594
606.346	615.4
606.757	599.2
607.168	597
607.579	589.2
607.99	599.2
608.402	596.4
608.813	596.4
609.224	585.4
609.636	584.2
610.047	591
610.48	588.6
610.892	594.8
611.303	603.6
611.715	585.4
612.127	581.2
612.539	587.8
612.95	584
613.362	580
613.774	586.6
614.186	588.6
614.599	581.8
615.011	595.4
615.423	586.8
615.835	587.6
616.248	580.6
616.66	604
617.073	589.4
617.485	584.6
617.898	599
618.311	589.2
618.723	591.4
619.136	621.8
619.549	608.6
619.962	609
620.375	586.6
620.788	591.4
621.201	587.4
621.614	593.6
622.028	590.6
622.441	593.6
622.854	602.2
623.268	589.8
623.681	599.6
624.095	588
624.509	598
624.922	599.6
625.336	584
625.728	595
626.142	606.4
626.556	607.2
626.97	593.8
627.384	582.4
627.799	582.8
628.213	596
628.627	584.2
629.041	583.2
629.456	589.2
629.87	585.2
630.285	599
630.699	600.4
631.093	579.8
631.507	594.4
631.922	596.2
632.337	595.6
632.752	576.8
633.167	584
633.582	584.8
633.997	589.2
634.412	576.8
634.806	589.2
635.221	576.8
635.637	594.8
636.052	581.4
636.468	595.6
636.883	596.2
637.299	589
637.715	578
638.109	577.2
638.525	571.4
638.941	599
639.357	596
639.773	595
640.189	583
640.584	584.4
641	592.4
641.416	568.2
641.832	587.4
642.249	583
642.665	591.6
643.06	585.8
643.477	592.4
643.894	571.2
644.31	587.6
644.727	586
645.123	584.4
645.54	581.2
645.957	585.8
646.374	600.4
646.77	580.6
647.187	610.8
647.604	581.6
648.021	570.8
648.439	579
648.835	590
649.252	588.4
649.67	578.6
650.088	586.8
650.484	579.4
650.902	590
651.32	588.4
651.738	577.6
652.134	585
652.552	596
652.971	598.4
653.389	581.8
653.786	589.8
654.204	605.8
654.622	577.2
655.019	578
655.438	588
655.857	586.6
656.275	586
656.673	574.2
657.091	580.4
657.51	581.4
657.908	588.4
658.327	591.6
658.746	566.4
659.144	579.6
659.563	590
659.982	581.2
660.38	573.2
660.8	578.8
661.219	587
661.617	585.2
662.037	576.6
662.457	587.6
662.855	570.2
663.275	612.6
663.695	591.6
664.094	572.6
664.514	587.6
664.934	577.4
665.333	591.2
665.753	575.4
666.152	577.8
666.572	572.8
666.993	590.4
667.392	579.2
667.812	575.6
668.212	583.8
668.632	589.6
669.053	578.6
669.453	581.8
669.874	585
670.273	586
670.694	574.8
671.116	596.4
671.515	585.2
671.937	577.6
672.337	578.8
672.758	582.4
673.158	580.2
673.58	577.8
673.98	581.8
674.402	591.8
674.824	574.6
675.224	574.2
675.646	578.8
676.047	577.4
676.469	576
676.869	587.4
677.292	586
677.693	568.6
678.115	575.2
678.516	573.6
678.939	586
679.34	583.2
679.762	589.8
680.164	578.4
680.586	573.4
680.988	577.2
681.411	604.8
681.812	575.6
682.236	579.4
682.637	569.4
683.061	571.2
683.462	575.8
683.864	579
684.288	590.2
684.69	572.4
685.114	593.4
685.516	594.2
685.94	569.2
686.342	577.8
686.766	569.6
687.168	580.8
687.571	597
687.995	579.6
688.398	566.4
688.822	572
689.225	590.2
689.628	592.2
690.052	579.2
690.456	589.2
690.88	573.2
691.284	570.2
691.687	579.2
692.112	571
692.515	574.8
692.919	584.6
693.344	582.4
693.747	578.2
694.173	575.8
694.577	584.6
694.98	571.6
695.406	579.4
695.81	583.2
696.214	589
696.64	582.4
697.044	584.8
697.448	585.8
697.874	580.2
698.279	571
698.684	573.4
699.11	576.2
699.514	580.4
699.919	579.8
700.324	570
700.75	585.2
701.156	578.6
701.561	591.6
701.987	580
702.393	579.4
702.798	589.4
703.203	566.8
703.63	566.8
704.036	572.8
704.442	581.2
704.847	568.8
705.274	574.8
705.68	570.8
706.086	587.8
706.492	565.2
706.92	571.8
707.326	583.2
707.732	575.2
708.139	579.8
708.545	572.6
708.973	570.6
709.38	566.6
709.786	567.8
710.193	592
710.6	581.6
711.028	572
711.435	579.4
711.842	571.4
712.249	577.2
712.656	570.4
713.064	587.8
713.492	566.8
713.9	571.4
714.307	580.4
714.715	577.2
715.123	574.4
715.53	586.4
715.938	585.2
716.367	572.2
716.775	577.2
717.184	571.8
717.592	573.2
718	587.4
718.408	615.8
718.816	616.8
719.225	582.6
719.633	582.2
720.042	567.2
720.472	573.4
720.881	599.4
721.29	582
721.699	573
722.108	579.8
722.517	583.2
722.926	574.2
723.335	580.6
723.744	575.4
724.154	577.8
724.563	575.6
724.973	579.4
725.382	577.4
725.792	576.6
726.202	567.2
726.612	592
727.022	574.8
727.432	572.6
779.813	576.4
780.223	616.4
780.634	575
781.044	569.8
781.454	572.6
781.865	590.8
782.276	571.4
782.686	581.4
783.097	581.4
783.508	571.8
783.919	580.4
784.33	588
784.741	581
785.152	575.8
785.563	569.6
785.974	581
786.386	580.4
786.776	579.6
787.188	577
787.599	578.8
788.011	581.4
788.423	580.8
788.835	566.8
789.247	565.6
789.659	569.8
790.071	579
790.483	610.4
790.874	579.2
791.286	579.2
791.699	564
792.111	579.6
792.524	579.2
792.937	577.8
793.349	564.4
793.741	571
794.154	572.8
794.567	588.8
794.98	569.4
795.393	563.2
795.785	590.8
796.198	563.8
796.612	576
797.026	571.6
797.439	563.6
797.831	572
798.245	567.4
798.659	578.8
799.073	558.6
799.487	573.6
799.88	580.4
800.294	571.6
800.708	574
801.123	578.4
801.516	594.6
801.93	566.8
802.345	558.8
802.76	580.2
803.153	591
803.568	587.2
803.983	581
804.377	573.2
804.792	559.8
805.207	562
805.601	573.6
806.016	605.2
806.432	566.6
806.826	601
807.242	580.4
807.658	581
808.052	565.2
808.468	566
808.884	570.2
809.279	572.8
809.695	591
810.111	591.8
810.506	577.6
810.922	591.8
811.339	576.2
811.734	578.4
812.151	570.2
812.546	564
812.963	569.8
813.38	580.6
813.776	579.6
814.193	585.6
814.589	567.6
815.006	560
815.402	571.6
815.82	563.6
816.237	571.8
816.633	576.4
817.051	567.8
817.448	567
817.866	559.4
818.262	592.8
818.68	570.2
819.077	568.8
819.495	570.8
819.892	600.4
820.311	564.8
820.708	565.6
821.127	566
821.524	591.2
821.943	576.8
822.34	586.8
822.759	573.8
823.157	572.6
823.576	589.2
823.974	587.2
824.393	616.4
824.791	569.4
825.189	571.6
825.609	569
826.007	574
826.427	559.8
826.826	571
827.246	575
827.644	551.6
828.043	575
828.463	573
828.862	575
829.261	583
829.682	559.2
830.081	578.2
830.502	573.4
830.901	580.4
831.301	598
831.722	563.6
832.121	566.8
832.521	575
832.943	577
833.342	566
833.742	562
834.164	569.2
834.564	571.2
834.965	576.4
835.386	566.6
835.787	569
836.188	568.4
836.588	583.8
837.01	573.2
837.411	558.6
837.812	580.8
838.213	574.8
838.636	575.4
839.037	635.6
839.438	573.6
839.84	577.8
840.263	580
840.664	582.4
841.066	564.6
841.468	578.6
841.891	569
842.293	584.6
842.695	579.2
843.098	580.4
843.5	569.6
843.902	568.2
844.326	578
844.729	569.6
845.131	585.2
845.534	570
845.937	584.6
846.34	587.4
846.764	572
847.167	581.4
847.571	572.4
847.974	570.8
848.377	576
848.781	610
849.184	581.6
849.588	561.6
849.992	569
850.396	570.4
850.821	590.6
851.225	572.6
851.63	565.4
852.034	582.4
852.438	573.4
852.843	641.2
853.247	568.2
853.652	559
854.057	590.4
854.462	574.4
854.867	579.6
855.272	596
855.677	575.8
856.082	572.4
856.487	575.6
856.893	579
857.298	573.2
