#lambda/nm	C1
208.295	544.8
208.67	484.4
209.045	450.6
209.419	450.6
209.794	599.6
210.169	590.6
210.544	694
210.919	601.8
211.295	598.2
211.67	597.8
212.045	596.6
212.421	581.4
212.796	628.4
213.172	592.6
213.547	586.6
213.923	589.6
214.299	595
214.675	600.4
215.051	604.4
215.427	605.2
215.803	616.2
216.179	607
216.555	585.6
216.932	605
217.308	604.2
217.684	600.6
218.061	602.8
218.438	603.8
218.814	593.2
219.191	602.2
219.568	594.2
219.945	600.8
220.322	603
220.699	603.6
221.076	602.2
221.453	598.6
221.83	587.8
222.208	593.6
222.585	602.6
222.962	603.2
223.34	600.2
223.717	595.2
224.095	588
224.473	599.2
224.851	588
225.229	588.8
225.607	618.4
225.985	587
226.363	596.4
226.741	607.2
227.119	598.8
227.497	613.8
227.876	587.8
228.254	599.8
228.633	599
229.011	593.6
229.39	597.2
229.769	612.4
230.148	601.8
230.527	616.6
230.905	595.8
231.284	597.6
231.664	592
232.043	612.2
232.422	598.4
232.801	598.2
233.181	600.4
233.56	596
233.94	607
234.319	584.4
234.699	595.8
235.079	633.6
235.458	632
235.838	612.4
236.218	585.6
236.598	589.2
236.978	590.2
237.358	595
237.738	597
238.119	612.2
238.499	585.4
238.88	603.2
239.26	613.2
239.641	589.8
240.021	595
240.402	596.6
240.783	597.8
241.163	600.4
241.544	594.4
241.925	598.4
242.306	608.6
242.687	601
243.069	590.8
243.45	608.4
243.831	597.2
244.212	602.8
244.594	622.8
244.975	611
245.357	600
245.739	593.2
246.12	598.2
246.502	607.2
246.884	593.8
247.266	600.2
247.648	595.2
248.03	616.8
248.412	594.8
248.794	603.6
249.176	592
249.559	604.6
249.941	588
250.323	589.4
250.706	593.2
251.089	599.4
251.471	603.6
251.854	595.6
252.237	600.4
252.62	605.8
253.002	600.8
253.385	593.2
253.769	615.2
254.152	602.6
254.535	597.8
254.918	588.6
255.301	600.4
255.685	593.4
256.068	589.2
256.452	618.8
256.835	607.6
257.219	598.8
257.603	613
257.986	594.6
258.37	602.8
258.754	593
259.138	614.4
259.522	609.8
259.906	604
260.29	603.6
260.675	602.4
261.059	605.4
261.443	590.8
261.828	595.4
262.212	600.8
262.597	589.8
262.981	599
263.366	606.4
263.751	593.8
264.136	592.6
264.521	589.6
264.906	589.4
265.291	606.4
265.676	599.4
266.061	600.6
266.446	618.6
266.831	595
267.217	614
267.602	599.2
267.987	601.4
268.373	597.6
268.759	605
269.144	605.8
269.53	599.6
269.916	598
270.302	600.4
270.688	605.2
271.074	604.2
271.46	605.4
271.846	625
272.232	600.8
272.618	588.4
273.004	596
273.391	602.8
273.777	604.8
274.164	606.4
274.55	614.4
274.937	605.4
275.324	592.2
275.71	601.8
276.097	601.6
276.484	595.8
276.871	601.4
277.258	605
277.645	591.4
278.032	598
278.419	594.4
278.807	606.4
279.194	588.2
279.581	593.2
279.969	602.6
280.356	598.8
280.744	605.4
281.131	623
281.519	614.4
281.907	592.2
282.295	594
282.682	618.2
283.07	605.6
283.458	607
283.846	612.8
284.235	606
284.623	604.6
285.011	592.8
285.399	600.8
285.788	598
286.176	587
286.565	607.4
286.953	596.2
287.342	604.4
287.731	600.4
288.119	597.2
288.508	598
288.897	608.4
289.286	583
289.675	599.6
290.064	606.2
290.453	599.8
290.821	596.2
291.21	608.8
291.599	595.4
291.989	602.4
292.378	605.8
292.768	615.8
293.157	602.6
293.547	604.8
293.936	596.8
294.326	596.4
294.716	607.4
295.106	597.6
295.496	608.6
295.886	606.6
296.276	596.6
296.666	595.6
297.056	598
297.446	587.2
297.836	621.8
298.227	597
298.617	607.4
299.008	617.6
299.398	604.4
299.789	589.8
300.179	604.2
300.57	612.8
300.961	596
301.352	595.8
301.742	603.6
302.133	592.8
302.524	599.2
302.915	603.6
303.307	590
303.698	611
304.089	600.4
304.48	600
304.872	610.2
305.263	606.2
305.655	590.6
306.046	603.4
306.438	601.8
306.829	593.4
307.221	610.6
307.613	607.4
308.005	605.2
308.397	610.6
308.789	608.2
309.181	620.8
309.573	610.8
309.965	610.2
310.357	594.8
310.749	607
311.142	587
311.534	591.4
311.926	601.4
312.319	594.8
312.711	589
313.104	609.8
313.497	598.6
313.889	629.2
314.282	614
314.675	621.8
315.068	599
315.461	599.4
315.854	621.2
316.247	601.4
316.64	590
317.033	595.2
317.405	604.6
317.798	602
318.192	607.8
318.585	594.2
318.979	600.8
319.372	592.2
319.766	599.4
320.16	609.6
320.553	618.4
320.947	620.2
321.341	591.6
321.735	596
322.129	591.4
322.523	628
322.917	597.4
323.311	599.8
323.705	599
324.099	600.4
324.494	615.2
324.888	609.2
325.282	600.2
325.677	612.6
326.071	615
326.466	611.8
326.861	608.4
327.255	612.8
327.65	608.6
328.045	605.4
328.44	602
328.835	599.2
329.23	595.6
329.625	624.8
330.02	586.8
330.415	618
330.81	603.2
331.206	601.2
331.601	600.8
331.996	604.8
332.37	624
332.766	592.8
333.161	625.8
333.557	591.6
333.953	603.6
334.348	979.4
334.744	598.2
335.14	602
335.536	600.2
335.932	610.4
336.328	605
336.724	607.2
337.12	600.4
337.516	601
337.913	607.6
338.309	612.2
338.705	602.6
339.102	606.8
339.498	601
339.895	619
340.291	600.6
340.688	604.6
341.085	589.6
341.481	594.8
341.878	598.8
342.275	620.6
342.672	600.4
343.069	598.6
343.466	592.4
343.842	607.6
344.239	584
344.636	595.4
345.033	588
345.431	594.4
345.828	596.4
346.225	589.4
346.623	630.8
347.02	590
347.418	604
347.816	610.6
348.213	585.2
348.611	601.8
349.009	586.8
349.407	598.4
349.805	585
350.203	589.2
350.601	603.8
350.999	595.2
351.397	652.6
351.795	588.2
352.193	605.2
352.57	606.4
352.969	606
353.367	593
353.766	586
354.164	594.8
354.563	615.6
354.961	596
355.36	590.6
355.759	594.8
356.158	586
356.557	594.8
356.956	586.8
357.355	590.4
357.754	598.8
358.153	602.8
358.552	618.2
358.951	594
359.35	609.6
359.75	586.2
360.149	594.2
360.527	575.2
360.926	581.8
361.326	588.2
361.726	591
362.125	583.6
362.525	592.4
362.925	600
363.325	596.2
363.724	596.4
364.124	596.6
364.524	591
364.924	595.2
365.324	598.8
365.725	583
366.125	593
366.525	593.4
366.904	588
367.304	581.2
367.705	603.8
368.105	604.4
368.506	594.2
368.906	593.2
369.307	593.2
369.708	593.4
370.108	589.6
370.509	594.4
370.91	586
371.311	595.4
371.712	590
372.113	583.8
372.514	586.4
372.894	594.6
373.295	591.8
373.696	602.2
374.097	614.2
374.499	619.2
374.9	598.8
375.301	582.2
375.703	597.4
376.105	584.2
376.506	597.6
376.908	595
377.309	595.6
377.711	593
378.113	590.4
378.493	601
378.895	592
379.297	604
379.699	591.8
380.102	595.2
380.504	597.8
380.906	592.4
381.308	622.2
381.71	599
382.113	588
382.515	591.4
382.918	600
383.299	593.4
383.701	604
384.104	592.4
384.507	575
384.909	597.2
385.312	582.2
385.715	582.2
386.118	593.6
386.521	583.4
386.924	603.4
387.327	594.2
387.709	582.2
388.112	578.4
388.515	591.6
388.918	594.8
389.322	601.2
389.725	587.6
390.129	611.2
390.532	599.8
390.936	594.8
391.339	587
391.743	596
392.125	596.6
392.529	603
392.933	603.4
393.337	592.2
393.74	598.2
394.144	592.4
394.548	590.2
394.953	594
395.357	604.2
395.761	588.4
396.144	594.2
396.548	591.2
396.952	604.2
397.357	598
397.761	596.4
398.166	584.6
398.57	596.4
398.975	585.6
399.379	591.4
399.763	628.6
400.168	594
400.572	596.6
400.977	594.6
401.382	612.4
401.787	604.6
402.192	602.6
402.597	612
403.002	584
403.386	603.8
403.791	618.2
404.197	588.4
404.602	590.8
405.007	593
405.413	590
405.818	588.6
406.224	585.2
406.608	591.6
407.014	580.4
407.42	614.4
407.825	588.2
408.231	597.6
408.637	591.2
409.043	609.6
409.449	582.4
409.834	585.2
410.24	590
410.646	598.2
411.052	599.6
411.458	592.6
411.865	609.6
412.271	595.4
412.677	597
413.062	596
413.469	583.8
413.875	613.4
414.282	608.4
414.689	595.4
415.095	597.2
415.502	588.8
415.888	593.8
416.294	582.2
416.701	627.6
417.108	584.4
417.515	607.6
417.923	597.4
418.33	607
418.715	600.2
419.123	590.4
419.53	583.4
419.937	598.8
420.345	602
420.752	589.6
421.16	605.4
421.546	591.8
421.953	604.6
422.361	590
422.769	589.2
423.177	586
423.585	620.8
423.992	612.2
424.379	605
424.787	601.8
425.195	619
425.603	597
426.011	602.6
426.419	611
426.806	601
427.214	600.8
427.623	605.2
428.031	606.2
428.44	603.2
428.848	609.2
429.235	617.2
429.644	608.4
430.053	613.6
430.461	626.8
430.87	644.8
431.279	629.6
431.666	629.2
432.075	638.2
432.484	654
432.893	656.8
433.302	676
433.711	706
434.099	683.6
434.508	686.2
434.918	695.2
435.327	711.8
435.737	718
436.125	738.4
436.534	738.6
436.944	757.4
437.353	762.2
437.763	789.6
438.173	776.4
438.561	799.4
438.971	794.8
439.381	805
439.791	829.8
440.201	819.6
440.589	841.4
440.999	852
441.409	862
441.819	850.6
442.23	888.2
442.619	888.8
443.029	883
443.439	895
443.85	900.6
444.26	905
444.649	913
445.06	917
445.471	917.2
445.881	918.6
446.292	939.6
446.682	953
447.092	931.2
447.503	992.6
447.914	939.8
448.325	944
448.715	947.6
449.126	950.4
449.537	944.4
449.948	960.4
450.338	956.4
450.75	969.6
451.161	970.2
451.572	978.6
451.984	966
452.374	955.8
452.786	977.4
453.197	988
453.609	980.2
453.999	979.8
454.411	968.2
454.823	1001
455.235	995.6
455.647	997.6
456.037	999.2
456.449	980.4
456.862	985
457.274	986.6
457.665	985.4
458.077	1000
458.489	1014.2
458.902	993
459.293	995.8
459.705	995
460.118	985.6
460.53	994
460.921	988
461.334	988.2
461.747	998
462.16	1010.2
462.551	1016.8
462.964	1004.6
463.377	987.2
463.79	985.4
464.182	990.6
464.595	977.2
465.008	1001.6
465.421	997.2
465.813	1003.4
466.226	993.8
466.64	993.4
467.053	1040.8
467.445	1016
467.859	1012
468.272	1004.2
468.686	1013.8
469.078	996.4
469.492	992.6
469.906	991.6
470.298	1014.4
470.712	991.8
471.126	1036.2
471.54	977.4
471.933	992.8
472.347	990.6
472.761	981.6
473.175	976.4
473.568	981.2
473.982	973.2
474.397	978.4
474.79	984.8
475.204	987.2
475.619	976.6
476.033	983.4
476.426	960.4
476.841	968.4
477.256	982.2
477.649	960.8
478.064	955.2
478.479	948.2
478.872	950.8
479.287	949.8
479.702	946
480.118	952.2
480.511	943.6
480.927	948.8
481.342	959.2
481.736	948
482.151	930.8
482.566	955.8
482.96	949.8
483.376	943
483.792	939.8
484.186	943.8
484.602	932.8
485.017	932.6
485.412	941
485.827	933.2
486.243	924.2
486.638	959.4
487.054	922.2
487.47	940.2
487.865	918.2
488.281	929.4
488.697	913
489.092	912.4
489.508	909.8
489.925	917.2
490.32	892.8
490.736	912
491.153	897.2
491.548	908.2
491.964	904.8
492.381	883
492.776	893.6
493.193	901.6
493.61	897.8
494.006	893.2
494.422	893
494.84	875.2
495.235	883
495.652	870
496.069	883.6
496.465	865.8
496.883	865.8
497.3	886.2
497.696	864.2
498.113	866.4
498.509	855.4
498.927	857.6
499.344	850.8
499.741	857.6
500.158	860.2
500.576	864
500.973	852.4
501.39	841.8
501.787	837
502.205	838.2
502.623	827.4
503.02	826
503.438	825.8
503.856	818.2
504.253	827.6
504.671	818
505.068	811.8
505.486	822.2
505.905	827
506.302	818.4
506.72	818
507.118	800.6
507.536	807.8
507.955	799.4
508.352	801
508.771	801.6
509.169	798
509.587	787.4
510.006	796.4
510.404	784
510.823	784.6
511.221	770.2
511.64	787.8
512.038	787.8
512.457	782
512.877	780.6
513.275	776.8
513.694	782.4
514.092	764.4
514.512	763.2
514.91	768.2
515.33	770
515.749	770.4
516.148	769.6
516.568	770.4
516.966	759
517.386	765.8
517.785	761.4
518.205	751.2
518.603	746.6
519.024	752.8
519.444	753.2
519.843	759
520.263	765.2
520.662	747
521.082	743.6
521.481	740.2
521.902	744.2
522.301	742.4
522.722	731.4
523.121	731.6
523.542	730.8
523.963	725.4
524.362	725.8
524.783	732.6
525.183	727.8
525.604	722
526.003	716.6
526.425	709
526.824	733.6
527.246	726
527.646	730
528.067	719.8
528.467	711.2
528.888	723.6
529.289	714.4
529.71	708.2
530.11	711
530.532	698.4
530.932	695.4
531.354	702
531.755	726.6
532.176	698.2
532.577	696
532.999	698.6
533.4	692.8
533.822	707.2
534.223	699.8
534.645	700
535.046	693.2
535.468	695
535.869	700.8
536.292	685.8
536.693	718.6
537.115	693.6
537.516	683.4
537.939	681.2
538.34	694.8
538.742	691
539.165	678.4
539.566	679.2
539.989	665.4
540.391	667.2
540.814	673.4
541.216	679.6
541.639	675.4
542.041	681.8
542.464	670.8
542.866	674.6
543.268	664.6
543.691	683.4
544.093	672.4
544.517	684.4
544.919	666.2
545.343	687.2
545.745	660
546.147	674.2
546.571	667.8
546.974	651.4
547.398	665
547.8	680.4
548.224	658.6
548.627	648.4
549.03	659.6
549.454	647.6
549.857	647.4
550.281	647.4
550.684	649
551.087	664.2
551.512	653.8
551.915	664.4
552.34	654.8
552.743	655.6
553.146	645.2
553.571	648.4
553.975	658
554.399	637.6
554.803	688.6
555.207	646.4
555.632	635
556.036	649
556.461	633.8
556.865	639.8
557.268	636.2
557.694	631.6
558.098	646.8
558.502	643.8
558.927	627.4
559.332	636.8
559.736	636.2
560.162	640.8
560.566	642
560.992	640.8
561.396	636
561.801	639.8
562.227	637.8
562.631	631
563.036	635.4
563.462	640.4
563.867	629.2
564.272	619
564.698	635.2
565.103	621.4
565.508	648
565.935	630.6
566.34	625.8
566.745	639.6
567.172	623.4
567.577	645.6
567.982	636.2
568.409	632.4
568.815	621
569.22	625.2
569.626	633.2
570.053	612.8
570.459	622.4
570.865	632.2
571.292	633.6
571.698	615.4
572.104	616.8
572.531	614.8
572.937	625.8
573.343	617
573.75	616.8
574.177	621.4
574.583	623.6
574.99	610.6
575.396	611.4
575.824	609.2
576.231	624.4
576.637	613.6
577.065	632.8
577.472	612
577.879	613.2
578.286	624.4
578.714	601.8
579.121	607
579.528	609.8
579.935	621
580.364	613.8
580.771	597.2
581.178	595.2
581.585	618
582.014	618.2
582.421	608
582.829	597.6
583.236	614
583.644	604
584.073	614.2
584.481	616.4
584.889	602.8
585.296	618
585.726	601.6
586.134	595.4
586.542	592
586.95	611
587.358	595.8
587.787	610.6
588.196	615.6
588.604	604.8
589.012	605
589.421	606.2
589.851	599.4
590.259	600.2
590.668	597.8
591.076	631.2
591.485	584.8
591.894	600.8
592.324	617
592.733	615.2
593.142	592.4
593.551	599
593.96	629.2
594.369	593.2
594.8	588.2
595.209	600
595.618	581.2
596.028	602
596.437	587.4
596.847	600
597.256	601.2
597.687	599.2
598.097	591.6
598.507	589.4
598.917	587
599.327	594.4
599.736	597.8
600.146	607.2
600.556	586.4
600.988	597.8
601.398	581.2
601.808	592
602.219	574.4
602.629	582.8
603.039	583.2
603.45	610
603.86	590.2
604.271	595.6
604.703	590.8
605.114	590.6
605.525	591
605.935	591.4
606.346	608.8
606.757	588.4
607.168	582.4
607.579	588.6
607.99	590.6
608.402	592.2
608.813	586.6
609.224	592.4
609.636	580
610.047	589.4
610.48	585
610.892	597.4
611.303	593.2
611.715	586.2
612.127	585.6
612.539	589.6
612.95	593.8
613.362	585.8
613.774	579
614.186	584
614.599	588.2
615.011	593.2
615.423	585
615.835	580
616.248	582.4
616.66	596.2
617.073	572.4
617.485	589.2
617.898	597.2
618.311	585.2
618.723	581.4
619.136	610
619.549	601.8
619.962	607.8
620.375	583.6
620.788	592.2
621.201	579.2
621.614	595.8
622.028	585.2
622.441	589.2
622.854	596.6
623.268	579
623.681	596.4
624.095	594
624.509	592.6
624.922	599.4
625.336	576.4
625.728	590
626.142	591
626.556	601.8
626.97	588.4
627.384	591.4
627.799	581.8
628.213	598
628.627	582.2
629.041	586
629.456	581.4
629.87	595.4
630.285	594.2
630.699	602
631.093	582.4
631.507	585.8
631.922	588.4
632.337	598.8
632.752	579.8
633.167	587.6
633.582	586
633.997	581.8
634.412	581.2
634.806	586.8
635.221	576.2
635.637	593.4
636.052	574.2
636.468	591
636.883	591.6
637.299	580.8
637.715	565.6
638.109	582.2
638.525	577.6
638.941	586.2
639.357	588
639.773	597.2
640.189	569.4
640.584	574
641	582
641.416	567.8
641.832	575
642.249	577
642.665	582.8
643.06	586.4
643.477	588.2
643.894	562.8
644.31	577.6
644.727	579.4
645.123	582.8
645.54	575.4
645.957	581
646.374	584.2
646.77	578.2
647.187	609.4
647.604	587.4
648.021	572.2
648.439	575.6
648.835	584.4
649.252	581.6
649.67	578.2
650.088	580.2
650.484	578.4
650.902	584
651.32	579.8
651.738	575.8
652.134	579.6
652.552	587
652.971	585
653.389	576.4
653.786	588.8
654.204	595.4
654.622	572
655.019	578.8
655.438	578
655.857	577.8
656.275	590
656.673	564.4
657.091	587.8
657.51	575
657.908	588.4
658.327	587.8
658.746	573
659.144	577.8
659.563	594
659.982	586.4
660.38	572.6
660.8	578.6
661.219	586.2
661.617	587.8
662.037	581
662.457	591
662.855	566.2
663.275	601.2
663.695	583.8
664.094	581
664.514	575.6
664.934	572.8
665.333	579.4
665.753	576
666.152	573.8
666.572	572
666.993	588.6
667.392	578.8
667.812	579.8
668.212	580.4
668.632	586.6
669.053	576.2
669.453	583
669.874	579.6
670.273	577.4
670.694	574.8
671.116	587.8
671.515	584.4
671.937	571.6
672.337	576.8
672.758	577.6
673.158	595.6
673.58	574.4
673.98	576.8
674.402	583.6
674.824	574
675.224	566.4
675.646	572.4
676.047	571.2
676.469	579.2
676.869	584
677.292	578.8
677.693	570.2
678.115	571
678.516	578
678.939	574.4
679.34	581.4
679.762	584.2
680.164	580
680.586	571.8
680.988	580
681.411	594.6
681.812	577
682.236	573.6
682.637	572.6
683.061	562.4
683.462	574.4
683.864	574.8
684.288	575
684.69	569.8
685.114	584.8
685.516	587
685.94	568.8
686.342	587.2
686.766	568.8
687.168	574.6
687.571	592.6
687.995	573
688.398	575.2
688.822	580.6
689.225	588
689.628	593.4
690.052	583
690.456	583.4
690.88	588.2
691.284	572
691.687	579.8
692.112	568.4
692.515	565.6
692.919	575
693.344	572
693.747	569.4
694.173	567.6
694.577	582
694.98	576.2
695.406	570.6
695.81	574.6
696.214	571.4
696.64	577.6
697.044	570.8
697.448	579
697.874	571.6
698.279	567.6
698.684	564
699.11	570.2
699.514	575.8
699.919	569.2
700.324	558.4
700.75	574.2
701.156	572.2
701.561	581.6
701.987	572
702.393	581
702.798	588.4
703.203	574.8
703.63	567.2
704.036	569.8
704.442	575.6
704.847	572
705.274	562
705.68	574.4
706.086	578.8
706.492	568.2
706.92	571.4
707.326	589
707.732	574.8
708.139	572
708.545	566.4
708.973	563.2
709.38	570.2
709.786	562.2
710.193	582.2
710.6	577.2
711.028	568
711.435	575.6
711.842	575
712.249	566.8
712.656	574.6
713.064	587.8
713.492	579.8
713.9	572.4
714.307	574.2
714.715	574.6
715.123	581.2
715.53	572.2
715.938	581.6
716.367	583.8
716.775	571.4
717.184	567.8
717.592	564
718	581
718.408	608
718.816	611.4
719.225	578
719.633	577.6
720.042	564
720.472	575.8
720.881	590.6
721.29	575.2
721.699	563
722.108	570.2
722.517	576.8
722.926	572.4
723.335	582.6
723.744	571
724.154	578.8
724.563	570.4
724.973	576.8
725.382	571.2
725.792	579.8
726.202	566.4
726.612	590.6
727.022	566
727.432	573.4
779.813	568
780.223	612.8
780.634	577
781.044	567.6
781.454	568.8
781.865	584.4
782.276	562.8
782.686	579.6
783.097	571.6
783.508	570.6
783.919	577.4
784.33	569.8
784.741	576.4
785.152	564.6
785.563	555.8
785.974	564
786.386	574.4
786.776	568
787.188	571
787.599	566.2
788.011	568
788.423	573
788.835	564.8
789.247	564.4
789.659	563.2
790.071	567.6
790.483	601
790.874	570.2
791.286	574.6
791.699	564.6
792.111	571.6
792.524	578.8
792.937	571
793.349	566.6
793.741	565.2
794.154	566
794.567	578.6
794.98	575.2
795.393	571
795.785	584.6
796.198	563.2
796.612	576
797.026	569.8
797.439	563.2
797.831	566
798.245	557.4
798.659	574.8
799.073	567.8
799.487	564.2
799.88	565.6
800.294	567.6
800.708	569
801.123	575.8
801.516	590
801.93	561.2
802.345	559.6
802.76	568.6
803.153	579.4
803.568	577.6
803.983	582.6
804.377	576
804.792	558.4
805.207	562.6
805.601	571.8
806.016	598.4
806.432	569.6
806.826	594.2
807.242	580.4
807.658	562.6
808.052	573.6
808.468	569.4
808.884	573.4
809.279	565.8
809.695	587.4
810.111	583.6
810.506	565.6
810.922	588.4
811.339	567.4
811.734	571.2
812.151	567.6
812.546	567.2
812.963	566
813.38	575.6
813.776	569.2
814.193	589.2
814.589	559.2
815.006	571
815.402	565.6
815.82	569
816.237	571.4
816.633	569.6
817.051	556.8
817.448	573.4
817.866	560.8
818.262	591
818.68	556.6
819.077	568.2
819.495	566.2
819.892	612.2
820.311	565.8
820.708	564.2
821.127	563.8
821.524	577.8
821.943	566.6
822.34	584.8
822.759	571
823.157	570
823.576	577.4
823.974	580
824.393	610.6
824.791	563.2
825.189	566.2
825.609	558.4
826.007	566.6
826.427	559.2
826.826	567.6
827.246	576.8
827.644	560
828.043	574.6
828.463	566.6
828.862	573.6
829.261	573.8
829.682	555.2
830.081	574.4
830.502	564.6
830.901	572.4
831.301	588.2
831.722	566.6
832.121	574.6
832.521	565.2
832.943	563.2
833.342	566.2
833.742	566.4
834.164	573
834.564	563
834.965	571.6
835.386	569
835.787	567.6
836.188	561.6
836.588	575.8
837.01	570
837.411	568.2
837.812	577.8
838.213	579
838.636	568.2
839.037	627.8
839.438	572.4
839.84	573.2
840.263	568.8
840.664	576.4
841.066	565.8
841.468	577.8
841.891	574
842.293	576.4
842.695	571.6
843.098	576
843.5	562.6
843.902	571.6
844.326	570.8
844.729	570.4
845.131	573.6
845.534	568.6
845.937	577.8
846.34	590.6
846.764	561.8
847.167	571.8
847.571	559.4
847.974	564.4
848.377	560.6
848.781	609.8
849.184	577.4
849.588	557.8
849.992	561.6
850.396	569
850.821	586
851.225	563.6
851.63	570.2
852.034	580.6
852.438	566.6
852.843	589.8
853.247	558
853.652	561.2
854.057	582.6
854.462	559.6
854.867	575.4
855.272	593.6
855.677	573.6
856.082	564.4
856.487	561.2
856.893	579
857.298	569.6
