#lambda/nm	C1
208.295	538.2
208.67	482.2
209.045	442.6
209.419	444
209.794	605.2
210.169	599.4
210.544	706.2
210.919	611.2
211.295	590.4
211.67	607.2
212.045	608
212.421	604
212.796	642
213.172	602.8
213.547	595.2
213.923	612
214.299	601.6
214.675	603.8
215.051	605
215.427	600.8
215.803	633
216.179	604.4
216.555	602.4
216.932	616.8
217.308	608.2
217.684	604.4
218.061	623.4
218.438	606.8
218.814	605.6
219.191	610
219.568	602.8
219.945	613.6
220.322	614.2
220.699	611.4
221.076	609.6
221.453	616.4
221.83	599.2
222.208	603.8
222.585	606.8
222.962	612.4
223.34	612.8
223.717	609.2
224.095	601.2
224.473	612.2
224.851	600.4
225.229	600
225.607	625.6
225.985	600.4
226.363	611.2
226.741	602.2
227.119	600
227.497	617.8
227.876	597
228.254	614
228.633	618.2
229.011	606.2
229.39	613.8
229.769	602.8
230.148	609.8
230.527	620.8
230.905	611.2
231.284	617
231.664	607.4
232.043	613.2
232.422	614.6
232.801	608.2
233.181	616
233.56	602.2
233.94	600.6
234.319	597.4
234.699	609.2
235.079	644
235.458	636.4
235.838	622
236.218	601.4
236.598	599.2
236.978	600.6
237.358	606.2
237.738	600.4
238.119	612.4
238.499	597.2
238.88	611.6
239.26	623.4
239.641	597.8
240.021	608.8
240.402	607.6
240.783	607.8
241.163	607
241.544	611.8
241.925	603.8
242.306	616.6
242.687	613.8
243.069	605.8
243.45	611
243.831	611
244.212	606.8
244.594	643.8
244.975	612.8
245.357	606.8
245.739	599.6
246.12	601
246.502	616.8
246.884	600.6
247.266	602
247.648	604.6
248.03	624
248.412	602.4
248.794	613.4
249.176	600.8
249.559	619
249.941	596
250.323	591.6
250.706	592.6
251.089	599.8
251.471	602.2
251.854	605.2
252.237	604.8
252.62	608.8
253.002	600.6
253.385	598.6
253.769	607.4
254.152	606
254.535	611.6
254.918	598
255.301	601.2
255.685	602.2
256.068	593
256.452	619.6
256.835	602.8
257.219	601
257.603	611.6
257.986	595.2
258.37	606.6
258.754	592.8
259.138	610.2
259.522	615
259.906	597
260.29	607.4
260.675	599.4
261.059	606.8
261.443	592
261.828	604.6
262.212	606.8
262.597	600.6
262.981	593
263.366	611.6
263.751	604.8
264.136	607
264.521	599
264.906	602.8
265.291	613
265.676	602.6
266.061	615.6
266.446	627
266.831	609.6
267.217	626.2
267.602	608
267.987	605.2
268.373	602.4
268.759	612
269.144	613
269.53	607.4
269.916	605.6
270.302	598.6
270.688	606.8
271.074	610
271.46	624.4
271.846	632
272.232	614
272.618	601.4
273.004	607.2
273.391	614
273.777	621.8
274.164	615.6
274.55	617.8
274.937	612.2
275.324	604.6
275.71	615.4
276.097	621.2
276.484	598.6
276.871	599.8
277.258	609
277.645	599.4
278.032	597.6
278.419	604
278.807	606.8
279.194	593.4
279.581	597
279.969	610.2
280.356	611
280.744	614
281.131	629
281.519	609.2
281.907	599.6
282.295	606
282.682	614.2
283.07	604.2
283.458	613.4
283.846	619
284.235	617
284.623	614.2
285.011	596.4
285.399	603.8
285.788	607.2
286.176	597
286.565	613.4
286.953	600.6
287.342	598.2
287.731	600
288.119	599.6
288.508	605.2
288.897	612.2
289.286	600
289.675	609
290.064	612.8
290.453	607.4
290.821	614.6
291.21	626.4
291.599	596
291.989	605.2
292.378	614.4
292.768	622.8
293.157	607.8
293.547	610.6
293.936	609.6
294.326	599
294.716	616.2
295.106	601.6
295.496	610.4
295.886	613.6
296.276	609.8
296.666	602.2
297.056	605.2
297.446	602.4
297.836	624
298.227	607.4
298.617	599.8
299.008	619.6
299.398	599.4
299.789	607.6
300.179	602.6
300.57	625.4
300.961	609.2
301.352	611.4
301.742	616.2
302.133	605.8
302.524	606.8
302.915	608.8
303.307	597
303.698	611.4
304.089	617.6
304.48	605.8
304.872	607.8
305.263	596
305.655	605
306.046	609.8
306.438	613
306.829	608.4
307.221	617.2
307.613	620.8
308.005	616.8
308.397	619
308.789	622.6
309.181	625.2
309.573	621.4
309.965	621.6
310.357	612.4
310.749	626.2
311.142	599.8
311.534	607.2
311.926	612
312.319	605.6
312.711	598.4
313.104	623.8
313.497	608.8
313.889	649.8
314.282	623
314.675	624
315.068	602
315.461	619.2
315.854	640.8
316.247	607.8
316.64	604.8
317.033	610
317.405	620.4
317.798	603.8
318.192	610
318.585	604.6
318.979	616
319.372	601
319.766	607
320.16	613
320.553	622.8
320.947	624.4
321.341	603.8
321.735	604.6
322.129	600.4
322.523	632.6
322.917	603.8
323.311	621.6
323.705	606.4
324.099	611.4
324.494	617.6
324.888	614.6
325.282	608.4
325.677	628.4
326.071	622.8
326.466	618.8
326.861	606.4
327.255	622.8
327.65	624.8
328.045	624.6
328.44	612.6
328.835	604.6
329.23	602.8
329.625	630.4
330.02	611
330.415	629.4
330.81	605.2
331.206	614.2
331.601	605.6
331.996	619.4
332.37	630.8
332.766	611.4
333.161	632.8
333.557	601
333.953	610.4
334.348	892
334.744	605.6
335.14	596
335.536	596.8
335.932	620
336.328	607
336.724	609
337.12	617.2
337.516	610.4
337.913	605.4
338.309	618.2
338.705	612.4
339.102	616.2
339.498	604.6
339.895	621
340.291	603.8
340.688	621.8
341.085	599.8
341.481	610.8
341.878	613
342.275	623.6
342.672	609
343.069	599
343.466	600
343.842	613
344.239	603.4
344.636	607.4
345.033	596
345.431	590
345.828	604
346.225	597.6
346.623	637.4
347.02	603.6
347.418	618.6
347.816	621.6
348.213	593.4
348.611	611.8
349.009	599.6
349.407	613.6
349.805	591.6
350.203	596.8
350.601	605
350.999	597
351.397	659
351.795	597
352.193	613.4
352.57	609.4
352.969	615.4
353.367	589.6
353.766	594.6
354.164	606.4
354.563	609
354.961	611.2
355.36	602.2
355.759	602.2
356.158	588.4
356.557	608
356.956	603.2
357.355	592.2
357.754	600
358.153	606.2
358.552	625.2
358.951	601.6
359.35	611.2
359.75	600
360.149	593.4
360.527	585
360.926	594.2
361.326	601.2
361.726	600.4
362.125	589.6
362.525	602.4
362.925	595.8
363.325	605.6
363.724	595
364.124	593
364.524	587.4
364.924	602.2
365.324	611.4
365.725	593.6
366.125	613.8
366.525	605.8
366.904	595
367.304	587.4
367.705	612.8
368.105	609
368.506	606.8
368.906	607.4
369.307	597.8
369.708	603.6
370.108	584.2
370.509	612.2
370.91	590
371.311	601
371.712	604
372.113	600.6
372.514	592
372.894	597.6
373.295	592.2
373.696	608.2
374.097	612.4
374.499	628
374.9	600.6
375.301	598.2
375.703	603.8
376.105	593.4
376.506	611
376.908	612
377.309	604.6
377.711	604.4
378.113	602.6
378.493	596
378.895	595.4
379.297	603.8
379.699	587
380.102	600.4
380.504	599.6
380.906	586.6
381.308	624.6
381.71	601.6
382.113	604.2
382.515	601.8
382.918	604.2
383.299	601.6
383.701	608.4
384.104	598
384.507	593.6
384.909	593.8
385.312	589.4
385.715	590.4
386.118	594.6
386.521	587.4
386.924	615
387.327	586.8
387.709	592
388.112	588.8
388.515	596.4
388.918	599.2
389.322	603.2
389.725	590.6
390.129	616.6
390.532	602.6
390.936	588.4
391.339	603.8
391.743	597
392.125	593
392.529	611.6
392.933	607.8
393.337	602.4
393.74	600.8
394.144	595.4
394.548	590.8
394.953	594
395.357	604.8
395.761	599
396.144	604.4
396.548	600
396.952	597
397.357	597.2
397.761	585.2
398.166	601.4
398.57	583.2
398.975	587
399.379	607.8
399.763	641.8
400.168	601.2
400.572	594.2
400.977	595.4
401.382	619.4
401.787	606.2
402.192	621.2
402.597	611.4
403.002	585.6
403.386	605
403.791	620.6
404.197	601.4
404.602	602.6
405.007	597
405.413	594.2
405.818	609.6
406.224	593.2
406.608	594.6
407.014	602.4
407.42	612.6
407.825	593.6
408.231	613
408.637	606.6
409.043	611
409.449	601.6
409.834	596.6
410.24	596.8
410.646	618.4
411.052	601.8
411.458	603
411.865	610.4
412.271	604
412.677	606
413.062	608.2
413.469	589.4
413.875	623.8
414.282	607.6
414.689	603.2
415.095	607.2
415.502	596.4
415.888	594.2
416.294	593.4
416.701	634.2
417.108	608.4
417.515	606.2
417.923	600
418.33	622.8
418.715	608.4
419.123	601.8
419.53	598.4
419.937	610
420.345	610.4
420.752	600.2
421.16	622
421.546	600.8
421.953	604
422.361	600
422.769	604.8
423.177	597.4
423.585	622.4
423.992	611.6
424.379	612.8
424.787	613.4
425.195	622
425.603	603.6
426.011	616
426.419	617.8
426.806	608.4
427.214	603.6
427.623	621.6
428.031	610.8
428.44	610.6
428.848	617.2
429.235	620.6
429.644	616.6
430.053	615.8
430.461	634.2
430.87	652
431.279	629.2
431.666	627.4
432.075	631.8
432.484	651
432.893	640.6
433.302	672.6
433.711	700
434.099	675
434.508	669.8
434.918	664.2
435.327	686.4
435.737	691
436.125	708
436.534	719.2
436.944	716.8
437.353	728.4
437.763	758
438.173	737.2
438.561	759
438.971	742.2
439.381	771.2
439.791	783.4
440.201	758
440.589	789
440.999	801.6
441.409	803.2
441.819	795
442.23	813.6
442.619	816.6
443.029	821.4
443.439	834.4
443.85	845.6
444.26	847.6
444.649	844.2
445.06	838
445.471	824.4
445.881	858.8
446.292	864.4
446.682	876
447.092	845.4
447.503	909
447.914	867.6
448.325	869.8
448.715	874.4
449.126	869.2
449.537	881
449.948	870.4
450.338	883
450.75	892
451.161	880.2
451.572	895.2
451.984	891.2
452.374	877.6
452.786	895.8
453.197	894.6
453.609	898.8
453.999	891.6
454.411	886.6
454.823	906.2
455.235	908.4
455.647	885.8
456.037	898.4
456.449	887.4
456.862	900
457.274	913.2
457.665	905
458.077	906.2
458.489	925.6
458.902	913.6
459.293	912
459.705	903.6
460.118	896.2
460.53	914.2
460.921	896.4
461.334	915
461.747	902.8
462.16	901.6
462.551	926.6
462.964	906.4
463.377	907.8
463.79	899.6
464.182	920.2
464.595	909.6
465.008	915.6
465.421	922.4
465.813	912.2
466.226	922.6
466.64	909.6
467.053	958.4
467.445	917.8
467.859	930.8
468.272	909
468.686	926.4
469.078	918.8
469.492	906
469.906	913.2
470.298	925
470.712	913.2
471.126	952.2
471.54	889.2
471.933	906.8
472.347	894.8
472.761	898.8
473.175	888.8
473.568	897
473.982	888
474.397	905.8
474.79	908.8
475.204	890.6
475.619	894.8
476.033	887.4
476.426	886.2
476.841	891
477.256	906
477.649	886.6
478.064	870
478.479	870.4
478.872	874.8
479.287	871.6
479.702	868.2
480.118	883.2
480.511	876.6
480.927	877.2
481.342	870.4
481.736	882.2
482.151	869.6
482.566	888.4
482.96	870.8
483.376	879.4
483.792	868.6
484.186	870.4
484.602	864.8
485.017	867.4
485.412	865.6
485.827	863
486.243	864.8
486.638	881
487.054	865
487.47	865.2
487.865	850.2
488.281	843.2
488.697	847.2
489.092	852.4
489.508	838.4
489.925	861
490.32	835.6
490.736	845.8
491.153	836.8
491.548	840.4
491.964	832.4
492.381	825.8
492.776	840
493.193	831.6
493.61	843.8
494.006	819.2
494.422	827.4
494.84	813.4
495.235	833
495.652	821.4
496.069	820.4
496.465	807.2
496.883	801.4
497.3	845
497.696	805.2
498.113	805.2
498.509	795.8
498.927	805.4
499.344	793
499.741	793.4
500.158	808
500.576	802.6
500.973	798
501.39	783.6
501.787	777.6
502.205	787.8
502.623	786.2
503.02	784.8
503.438	776.4
503.856	781.2
504.253	783.8
504.671	783.2
505.068	779
505.486	764.8
505.905	784.8
506.302	771.4
506.72	777
507.118	757.2
507.536	765.6
507.955	764.8
508.352	758
508.771	770.4
509.169	775.8
509.587	764.2
510.006	758.6
510.404	747.6
510.823	753.4
511.221	753
511.64	744.2
512.038	767.6
512.457	748.8
512.877	753.6
513.275	739.2
513.694	745.4
514.092	733.2
514.512	741.4
514.91	736.4
515.33	737.6
515.749	734.4
516.148	733
516.568	739.6
516.966	738.6
517.386	723
517.785	731.4
518.205	726.2
518.603	714.8
519.024	716.2
519.444	728
519.843	729.6
520.263	725
520.662	722.2
521.082	723.4
521.481	705.6
521.902	707
522.301	711.2
522.722	710.8
523.121	704.2
523.542	707.8
523.963	711.6
524.362	704.6
524.783	708.2
525.183	702.2
525.604	707.4
526.003	695.6
526.425	691
526.824	705.4
527.246	710.8
527.646	708.8
528.067	691.6
528.467	699
528.888	693.8
529.289	693.6
529.71	681.2
530.11	681.4
530.532	674.4
530.932	674
531.354	669
531.755	716
532.176	691.2
532.577	671
532.999	679
533.4	676
533.822	687.6
534.223	686.4
534.645	676.2
535.046	671.6
535.468	679
535.869	689.8
536.292	666.2
536.693	699.2
537.115	674
537.516	666.2
537.939	671.6
538.34	676
538.742	676
539.165	669.2
539.566	659
539.989	653.4
540.391	660.8
540.814	667
541.216	655.8
541.639	664.6
542.041	662.6
542.464	656.4
542.866	654.8
543.268	650.6
543.691	656.4
544.093	656
544.517	680.8
544.919	645.4
545.343	671.4
545.745	645.8
546.147	647
546.571	652.6
546.974	638.2
547.398	655
547.8	663
548.224	642
548.627	638.6
549.03	653.6
549.454	632.2
549.857	636.4
550.281	638.6
550.684	635.6
551.087	653.6
551.512	646.8
551.915	645.8
552.34	646.2
552.743	635.6
553.146	640.2
553.571	640.6
553.975	656.2
554.399	638.2
554.803	682.8
555.207	635.4
555.632	633.8
556.036	643.6
556.461	629.8
556.865	641.4
557.268	629.4
557.694	631.2
558.098	642.8
558.502	641.8
558.927	629.2
559.332	629.2
559.736	626.2
560.162	636.4
560.566	636.2
560.992	633.2
561.396	638.2
561.801	629.8
562.227	633.6
562.631	629.2
563.036	636.4
563.462	637
563.867	627.4
564.272	619.8
564.698	628.8
565.103	620.6
565.508	651.2
565.935	625.8
566.34	630.6
566.745	639.4
567.172	630.6
567.577	641.2
567.982	643
568.409	629
568.815	617
569.22	627.4
569.626	636
570.053	609.6
570.459	625
570.865	617.6
571.292	629
571.698	624.8
572.104	603
572.531	609.6
572.937	624
573.343	619.8
573.75	614.2
574.177	616.6
574.583	620.2
574.99	612
575.396	614.4
575.824	615.6
576.231	623.8
576.637	615.4
577.065	638.6
577.472	613.2
577.879	603.8
578.286	629
578.714	603.4
579.121	609.8
579.528	617.2
579.935	612.8
580.364	608.8
580.771	595.4
581.178	611.4
581.585	606.2
582.014	612.4
582.421	605.8
582.829	609
583.236	621.2
583.644	602.4
584.073	603
584.481	610.6
584.889	603.4
585.296	616.4
585.726	611.4
586.134	599.2
586.542	596.4
586.95	621.4
587.358	600.2
587.787	613.8
588.196	606
588.604	608
589.012	608.2
589.421	594.2
589.851	593
590.259	602.8
590.668	589.6
591.076	636
591.485	592
591.894	607
592.324	614.4
592.733	607.2
593.142	596.8
593.551	596
593.96	634
594.369	587.2
594.8	599.8
595.209	603
595.618	588.2
596.028	590
596.437	593.6
596.847	601
597.256	600
597.687	602.6
598.097	596
598.507	592.4
598.917	600
599.327	607.2
599.736	597.8
600.146	617.6
600.556	596.6
600.988	610.4
601.398	597.6
601.808	614.6
602.219	579.6
602.629	590.6
603.039	602.4
603.45	621.6
603.86	601.6
604.271	615
604.703	595.4
605.114	602.4
605.525	599.4
605.935	602.6
606.346	610
606.757	605.6
607.168	601.2
607.579	597
607.99	598.6
608.402	598
608.813	600.8
609.224	590.4
609.636	585.8
610.047	592.6
610.48	597
610.892	600.2
611.303	597.4
611.715	595.6
612.127	585.4
612.539	596
612.95	591.4
613.362	581.6
613.774	583.8
614.186	593.4
614.599	588.6
615.011	607.2
615.423	589
615.835	590.4
616.248	584.2
616.66	596
617.073	590.2
617.485	592.2
617.898	598.6
618.311	594
618.723	588.6
619.136	614.8
619.549	600.4
619.962	606.6
620.375	587.6
620.788	592.6
621.201	589.2
621.614	599.4
622.028	594
622.441	595.4
622.854	601.4
623.268	591.2
623.681	596.4
624.095	590
624.509	600.2
624.922	594.8
625.336	573
625.728	589.8
626.142	596
626.556	608
626.97	597.2
627.384	588.2
627.799	592.2
628.213	600.4
628.627	585.8
629.041	587.6
629.456	584.8
629.87	590.8
630.285	590
630.699	600.4
631.093	590
631.507	588
631.922	589.8
632.337	603.6
632.752	580.4
633.167	584.4
633.582	586.8
633.997	581.2
634.412	576.6
634.806	583.6
635.221	578.8
635.637	593.6
636.052	571.8
636.468	587.8
636.883	598.2
637.299	583
637.715	574.6
638.109	581
638.525	571.8
638.941	591.6
639.357	591.6
639.773	598.6
640.189	586.4
640.584	585.4
641	590.2
641.416	572.4
641.832	584
642.249	585.2
642.665	585
643.06	582.2
643.477	585.2
643.894	574.8
644.31	584.6
644.727	586.4
645.123	579.6
645.54	576.8
645.957	590.4
646.374	589.8
646.77	577.2
647.187	602.4
647.604	584.4
648.021	571.4
648.439	576.2
648.835	586.4
649.252	579.8
649.67	591.2
650.088	583.4
650.484	595.4
650.902	598.8
651.32	587.6
651.738	583
652.134	588.6
652.552	602
652.971	588.6
653.389	584.2
653.786	605.4
654.204	609.6
654.622	581.6
655.019	583
655.438	592.4
655.857	582
656.275	585.6
656.673	579.8
657.091	592.2
657.51	588
657.908	590.8
658.327	601.2
658.746	573.4
659.144	590.6
659.563	599.4
659.982	593.2
660.38	576
660.8	585.6
661.219	602.2
661.617	590.8
662.037	587.6
662.457	593.2
662.855	574.6
663.275	605.8
663.695	590.2
664.094	578
664.514	593.8
664.934	588.2
665.333	597
665.753	580.6
666.152	577.8
666.572	581.4
666.993	591.4
667.392	581.8
667.812	586
668.212	578.2
668.632	596.8
669.053	577
669.453	581.8
669.874	588.2
670.273	588.8
670.694	575
671.116	588.8
671.515	583.2
671.937	576.4
672.337	573.4
672.758	579.4
673.158	588
673.58	570.4
673.98	580.4
674.402	586.4
674.824	583.6
675.224	576
675.646	569.4
676.047	581.4
676.469	584
676.869	585.4
677.292	585.6
677.693	586
678.115	576.2
678.516	584.6
678.939	579.6
679.34	583.8
679.762	595.8
680.164	575.2
680.586	580.4
680.988	591.2
681.411	602.4
681.812	580
682.236	573.4
682.637	578
683.061	570.2
683.462	581.4
683.864	579
684.288	592.2
684.69	573.2
685.114	587.4
685.516	598
685.94	574.2
686.342	587.2
686.766	577.6
687.168	571.6
687.571	598.6
687.995	581.2
688.398	578
688.822	573.4
689.225	595.6
689.628	600.2
690.052	585
690.456	587.4
690.88	577
691.284	574.4
691.687	580.8
692.112	578.4
692.515	573
692.919	572.4
693.344	584.8
693.747	572.8
694.173	581.8
694.577	592
694.98	581
695.406	581.4
695.81	577.4
696.214	583
696.64	590.6
697.044	581.4
697.448	591.2
697.874	584.6
698.279	579
698.684	583
699.11	574.2
699.514	578.4
699.919	583.8
700.324	571.6
700.75	577.6
701.156	591.8
701.561	586.8
701.987	590.8
702.393	594
702.798	589.8
703.203	578.2
703.63	581.2
704.036	576.2
704.442	581.6
704.847	569
705.274	583.8
705.68	582.4
706.086	594.8
706.492	578
706.92	572.8
707.326	584.6
707.732	579
708.139	578
708.545	573.4
708.973	576.2
709.38	580.8
709.786	578.2
710.193	594.8
710.6	582.6
711.028	578.6
711.435	578.6
711.842	582.6
712.249	582.8
712.656	585.8
713.064	585
713.492	576.6
713.9	575.8
714.307	575.8
714.715	583.2
715.123	580.4
715.53	584.2
715.938	592.2
716.367	587
716.775	581.2
717.184	570
717.592	576.4
718	590
718.408	603.8
718.816	614
719.225	591
719.633	580.8
720.042	564.6
720.472	580.2
720.881	594.4
721.29	582.6
721.699	572.4
722.108	582.8
722.517	591.2
722.926	577.4
723.335	587.4
723.744	585
724.154	582.8
724.563	580.4
724.973	585.2
725.382	576.2
725.792	576
726.202	570.6
726.612	601.6
727.022	575.4
727.432	574
779.813	583.4
780.223	625.8
780.634	586.4
781.044	578
781.454	577.8
781.865	593.6
782.276	568.6
782.686	590.4
783.097	570.4
783.508	576.2
783.919	582.2
784.33	586.2
784.741	587.2
785.152	573.2
785.563	565.6
785.974	575.8
786.386	585
786.776	578.2
787.188	581.6
787.599	567.8
788.011	587.6
788.423	581
788.835	569.4
789.247	565.2
789.659	574
790.071	564.4
790.483	613.6
790.874	575.8
791.286	582.4
791.699	567.2
792.111	575.6
792.524	579.2
792.937	565.8
793.349	565.2
793.741	565.6
794.154	567.4
794.567	587.8
794.98	575.2
795.393	567.4
795.785	590.4
796.198	572.4
796.612	571.2
797.026	570.4
797.439	556.4
797.831	576.8
798.245	565.6
798.659	590.4
799.073	571.6
799.487	571.8
799.88	580.8
800.294	571.2
800.708	579.2
801.123	580.4
801.516	600
801.93	568.8
802.345	569.2
802.76	581
803.153	589.2
803.568	595.6
803.983	584.2
804.377	579
804.792	572.2
805.207	571.6
805.601	575.6
806.016	616.6
806.432	572.2
806.826	606
807.242	585.2
807.658	586.6
808.052	576.8
808.468	573.8
808.884	572
809.279	581.2
809.695	596.2
810.111	602.4
810.506	581
810.922	593.2
811.339	573.4
811.734	592
812.151	573.6
812.546	568.8
812.963	575.6
813.38	582.8
813.776	582.6
814.193	596.4
814.589	575.8
815.006	575.6
815.402	573.8
815.82	567.6
816.237	575.4
816.633	573
817.051	574.4
817.448	579.2
817.866	568
818.262	586.2
818.68	569.8
819.077	571.4
819.495	580.8
819.892	611.4
820.311	569.4
820.708	573.8
821.127	562.4
821.524	587.6
821.943	572.2
822.34	593.6
822.759	569.8
823.157	579
823.576	580.4
823.974	587.2
824.393	610.4
824.791	571.6
825.189	572.4
825.609	570.4
826.007	579.6
826.427	570
826.826	580
827.246	584
827.644	559.8
828.043	581.4
828.463	577.2
828.862	577.4
829.261	580.2
829.682	570.8
830.081	582.2
830.502	569.2
830.901	578.8
831.301	589.4
831.722	567
832.121	577
832.521	570.2
832.943	574
833.342	573
833.742	575.8
834.164	589
834.564	569.4
834.965	576.6
835.386	570.6
835.787	575
836.188	570.6
836.588	574.2
837.01	574.6
837.411	564.6
837.812	585.6
838.213	578.6
838.636	576.8
839.037	637.6
839.438	575.4
839.84	575.4
840.263	574.4
840.664	581.2
841.066	580.4
841.468	572.6
841.891	571
842.293	581
842.695	584
843.098	581.4
843.5	577.4
843.902	589.4
844.326	587.6
844.729	578.2
845.131	590.6
845.534	572.6
845.937	585.6
846.34	587
846.764	566.2
847.167	577.2
847.571	569.6
847.974	573.4
848.377	574.2
848.781	617.8
849.184	585.8
849.588	572
849.992	564.4
850.396	573
850.821	591
851.225	576
851.63	568.2
852.034	587.2
852.438	575.8
852.843	608.2
853.247	578
853.652	567.6
854.057	599
854.462	585.2
854.867	576.4
855.272	598.6
855.677	574.4
856.082	564
856.487	573.2
856.893	584.6
857.298	580.8
857.704	577.8
858.11	575.6
858.516	575.4
