#lambda/nm	C1
208.295	563.6
208.67	501.6
209.045	463.8
209.419	461.4
209.794	595.8
210.169	575.4
210.544	672.6
210.919	591.6
211.295	578.6
211.67	585.6
212.045	586.6
212.421	577.8
212.796	614
213.172	582.6
213.547	573.8
213.923	588
214.299	577.8
214.675	592.4
215.051	587.2
215.427	594
215.803	603.8
216.179	593.2
216.555	583.4
216.932	590.6
217.308	589
217.684	585.4
218.061	589.8
218.438	592.6
218.814	588
219.191	585.6
219.568	578.2
219.945	583.8
220.322	594.6
220.699	577.8
221.076	588.4
221.453	587.8
221.83	579.2
222.208	579.6
222.585	583.4
222.962	579
223.34	584
223.717	578
224.095	576.8
224.473	578
224.851	588
225.229	576.2
225.607	592.8
225.985	573.2
226.363	580
226.741	588
227.119	580.6
227.497	582
227.876	572.6
228.254	589.2
228.633	583.2
229.011	588.4
229.39	585.2
229.769	587.6
230.148	586.4
230.527	601.2
230.905	583
231.284	584.6
231.664	578.4
232.043	593.8
232.422	591.6
232.801	581.6
233.181	590.8
233.56	579.8
233.94	576.6
234.319	580.2
234.699	584.4
235.079	605.6
235.458	605.4
235.838	596.4
236.218	574.6
236.598	571.8
236.978	583.4
237.358	581.8
237.738	587.6
238.119	583.8
238.499	576.8
238.88	584.8
239.26	597.6
239.641	572.2
240.021	575.6
240.402	584.8
240.783	584
241.163	582.4
241.544	589.6
241.925	583.2
242.306	596.2
242.687	585.4
243.069	583
243.45	587
243.831	581.6
244.212	581.2
244.594	607.2
244.975	591.2
245.357	588.6
245.739	589.2
246.12	583
246.502	602.8
246.884	584.2
247.266	584.6
247.648	586.8
248.03	600.2
248.412	581.6
248.794	587
249.176	579.2
249.559	591
249.941	585.4
250.323	574.4
250.706	578.4
251.089	582.6
251.471	585.2
251.854	585.2
252.237	583.6
252.62	584
253.002	588.2
253.385	582.6
253.769	589.2
254.152	579.8
254.535	585
254.918	582
255.301	579.8
255.685	583.2
256.068	579
256.452	603
256.835	596.6
257.219	579.8
257.603	591
257.986	574.8
258.37	587.8
258.754	570.4
259.138	585.6
259.522	590.6
259.906	584.6
260.29	585
260.675	583
261.059	585.2
261.443	576.6
261.828	587.8
262.212	595.2
262.597	571.4
262.981	582.8
263.366	592.2
263.751	577.6
264.136	577.8
264.521	585
264.906	582.8
265.291	587.8
265.676	582
266.061	584.6
266.446	596.4
266.831	580
267.217	602.2
267.602	596
267.987	588.2
268.373	581.2
268.759	589.2
269.144	592.6
269.53	583.4
269.916	589
270.302	581
270.688	581
271.074	583
271.46	587
271.846	609
272.232	585.4
272.618	584
273.004	583.4
273.391	588.8
273.777	589
274.164	584.2
274.55	596.4
274.937	586.2
275.324	575.6
275.71	585.4
276.097	595
276.484	572.4
276.871	578.6
277.258	587.8
277.645	576
278.032	581.4
278.419	577.8
278.807	592.2
279.194	576
279.581	575
279.969	590.8
280.356	582.6
280.744	579.8
281.131	602.2
281.519	589
281.907	579.2
282.295	578.4
282.682	598
283.07	589
283.458	593.8
283.846	593.8
284.235	592
284.623	589.6
285.011	577.2
285.399	592.4
285.788	581.6
286.176	578.2
286.565	592
286.953	583.4
287.342	580
287.731	586.2
288.119	574.4
288.508	583.4
288.897	585.2
289.286	575.2
289.675	587.2
290.064	590.2
290.453	579.8
290.821	575.8
291.21	593.8
291.599	584
291.989	579.6
292.378	598.4
292.768	599.6
293.157	589.6
293.547	588.2
293.936	585.6
294.326	582.2
294.716	582
295.106	572.6
295.496	595.4
295.886	594.6
296.276	581.6
296.666	577.6
297.056	580.4
297.446	571.4
297.836	586.4
298.227	577.4
298.617	581
299.008	596.6
299.398	577
299.789	570
300.179	582.6
300.57	589.6
300.961	583
301.352	584
301.742	588.2
302.133	584.2
302.524	585.8
302.915	581.4
303.307	586.6
303.698	590
304.089	589.8
304.48	583.8
304.872	590.2
305.263	588.4
305.655	583
306.046	594.2
306.438	599.4
306.829	579.8
307.221	596.4
307.613	583.4
308.005	589
308.397	589.2
308.789	596.2
309.181	599
309.573	593.4
309.965	585.8
310.357	587
310.749	597.2
311.142	581.4
311.534	582.8
311.926	589.8
312.319	590.6
312.711	580.6
313.104	598.8
313.497	583.6
313.889	612.4
314.282	602.6
314.675	598.4
315.068	581.4
315.461	592
315.854	611
316.247	585.6
316.64	587
317.033	578.6
317.405	595.8
317.798	589.6
318.192	593.6
318.585	582
318.979	583.6
319.372	587
319.766	578
320.16	595.2
320.553	597
320.947	594.4
321.341	585.8
321.735	588
322.129	568
322.523	602.6
322.917	585
323.311	589.8
323.705	579.4
324.099	585
324.494	600.6
324.888	592.8
325.282	584.8
325.677	592.4
326.071	578.6
326.466	593
326.861	579.8
327.255	599.4
327.65	588.6
328.045	591.4
328.44	586.2
328.835	587
329.23	578.8
329.625	598.6
330.02	575.6
330.415	598
330.81	583.4
331.206	587
331.601	577
331.996	581.8
332.37	597.6
332.766	582.4
333.161	605.8
333.557	584
333.953	588.8
334.348	868.6
334.744	584.4
335.14	580.8
335.536	584.2
335.932	596
336.328	587
336.724	593
337.12	582.8
337.516	591.6
337.913	589
338.309	583.6
338.705	581
339.102	594.2
339.498	579.8
339.895	596.6
340.291	573
340.688	588
341.085	580.2
341.481	592.4
341.878	583.4
342.275	604
342.672	581.8
343.069	587.8
343.466	574.2
343.842	591.8
344.239	573.8
344.636	586.2
345.033	572.8
345.431	578.6
345.828	581.4
346.225	580
346.623	612.4
347.02	581.4
347.418	590.2
347.816	592.4
348.213	570
348.611	586
349.009	586.8
349.407	590.6
349.805	571.4
350.203	570.2
350.601	593.2
350.999	580.4
351.397	626.6
351.795	580.6
352.193	583.8
352.57	593.6
352.969	592.4
353.367	574
353.766	580.6
354.164	573.2
354.563	583.6
354.961	577.8
355.36	580.8
355.759	575
356.158	575
356.557	566
356.956	575
357.355	580.8
357.754	582.6
358.153	578.8
358.552	594.4
358.951	582.4
359.35	582.6
359.75	576.6
360.149	580.6
360.527	571.8
360.926	570.6
361.326	579
361.726	579
362.125	576.6
362.525	589
362.925	574.6
363.325	578.2
363.724	579.4
364.124	570
364.524	570
364.924	575.8
365.324	588
365.725	565.6
366.125	584.4
366.525	581
366.904	573.2
367.304	566
367.705	587.8
368.105	582
368.506	575.6
368.906	573.6
369.307	571
369.708	578.8
370.108	565.4
370.509	585
370.91	575.6
371.311	575.2
371.712	578.8
372.113	570.8
372.514	574.2
372.894	578
373.295	577
373.696	582.8
374.097	583.4
374.499	598.6
374.9	579.4
375.301	574.4
375.703	581
376.105	574.8
376.506	578.4
376.908	580
377.309	572
377.711	584.6
378.113	575
378.493	577
378.895	571.4
379.297	588.8
379.699	566
380.102	581.4
380.504	581
380.906	574
381.308	594.6
381.71	573
382.113	586.6
382.515	571.4
382.918	583.4
383.299	579.4
383.701	584.8
384.104	579.8
384.507	558.6
384.909	580.2
385.312	562.8
385.715	574.4
386.118	574.8
386.521	563.2
386.924	581.6
387.327	572.2
387.709	562.4
388.112	560.8
388.515	571.2
388.918	584.2
389.322	586
389.725	577.2
390.129	589.8
390.532	580.4
390.936	572
391.339	561.2
391.743	583.2
392.125	572.8
392.529	580.4
392.933	584.8
393.337	570.8
393.74	572.2
394.144	577.6
394.548	571.6
394.953	572
395.357	580.6
395.761	576.8
396.144	577.8
396.548	579
396.952	570.4
397.357	581.6
397.761	564.4
398.166	570.4
398.57	574.8
398.975	563.4
399.379	575.4
399.763	613
400.168	576.2
400.572	574.4
400.977	565.4
401.382	588.4
401.787	578
402.192	586
402.597	583.8
403.002	569.4
403.386	589.2
403.791	586.8
404.197	572.8
404.602	578.4
405.007	576
405.413	577.6
405.818	574.6
406.224	568
406.608	570.2
407.014	572.2
407.42	587
407.825	574.8
408.231	584.4
408.637	576.6
409.043	589.6
409.449	577.2
409.834	572.4
410.24	577.2
410.646	586.4
411.052	583.4
411.458	580.4
411.865	582.4
412.271	590
412.677	582
413.062	590.6
413.469	572
413.875	596.6
414.282	585.8
414.689	581.4
415.095	590
415.502	567.8
415.888	583.2
416.294	569.2
416.701	609
417.108	571.2
417.515	578.8
417.923	576.2
418.33	585
418.715	584
419.123	577.4
419.53	572.2
419.937	580.6
420.345	592.4
420.752	577.8
421.16	587.8
421.546	574.2
421.953	573.8
422.361	567.4
422.769	581.6
423.177	573
423.585	592.2
423.992	596.4
424.379	582.8
424.787	585.6
425.195	589
425.603	575
426.011	587
426.419	589.8
426.806	582.8
427.214	580
427.623	580.2
428.031	596.2
428.44	585.2
428.848	589.4
429.235	593.6
429.644	588.2
430.053	582.8
430.461	603.4
430.87	615.6
431.279	606.6
431.666	598.6
432.075	608.6
432.484	613.8
432.893	607.8
433.302	640.2
433.711	649
434.099	631.4
434.508	632.6
434.918	650.2
435.327	646
435.737	659.8
436.125	663.8
436.534	665.8
436.944	675.2
437.353	687.6
437.763	708.2
438.173	695.8
438.561	721.4
438.971	700.4
439.381	712.8
439.791	727.2
440.201	718.6
440.589	744
440.999	740.8
441.409	749
441.819	732.8
442.23	773.4
442.619	772.2
443.029	773.8
443.439	768.4
443.85	787.8
444.26	797.2
444.649	793.8
445.06	782.4
445.471	791.8
445.881	793.6
446.292	810.8
446.682	820.8
447.092	805.4
447.503	846.2
447.914	814.4
448.325	817
448.715	820.4
449.126	813.8
449.537	816.4
449.948	824.8
450.338	832
450.75	832
451.161	825.4
451.572	840.8
451.984	823.4
452.374	819.8
452.786	827.6
453.197	833.4
453.609	833.6
453.999	825.4
454.411	823
454.823	842.8
455.235	845.4
455.647	834.2
456.037	843.8
456.449	825.8
456.862	852.8
457.274	840.4
457.665	837.2
458.077	845
458.489	868
458.902	834
459.293	859.6
459.705	844.4
460.118	844.4
460.53	849.4
460.921	847.6
461.334	843.6
461.747	852.8
462.16	861.8
462.551	864.2
462.964	856.4
463.377	844.8
463.79	844
464.182	863.4
464.595	844.8
465.008	859.4
465.421	849.2
465.813	839.6
466.226	854.2
466.64	838.6
467.053	876.8
467.445	860.6
467.859	855.8
468.272	854.4
468.686	851.8
469.078	853.6
469.492	834.6
469.906	833
470.298	836
470.712	826.2
471.126	888
471.54	841.4
471.933	843.2
472.347	837.8
472.761	847.4
473.175	830
473.568	850.2
473.982	837.2
474.397	842.4
474.79	842.2
475.204	838.4
475.619	833.6
476.033	846.6
476.426	836.2
476.841	832.4
477.256	846.6
477.649	831.4
478.064	819.2
478.479	835.8
478.872	824.8
479.287	814.2
479.702	819.4
480.118	816.8
480.511	824
480.927	814.2
481.342	812.2
481.736	832
482.151	805.4
482.566	833.6
482.96	813.2
483.376	817.4
483.792	815
484.186	819.4
484.602	810.4
485.017	815.4
485.412	810.8
485.827	814.8
486.243	801
486.638	819
487.054	802.4
487.47	821.8
487.865	803.8
488.281	798.8
488.697	790.6
489.092	793.2
489.508	798
489.925	794.6
490.32	789
490.736	785
491.153	795.6
491.548	781.2
491.964	793.2
492.381	779.2
492.776	784.2
493.193	779.6
493.61	785.8
494.006	781
494.422	773.2
494.84	779.2
495.235	778.8
495.652	763.6
496.069	781.4
496.465	769
496.883	770
497.3	782.4
497.696	757.8
498.113	766.8
498.509	756.6
498.927	747.4
499.344	753.2
499.741	743
500.158	770.6
500.576	754
500.973	753.8
501.39	744.6
501.787	727.8
502.205	744.6
502.623	740.4
503.02	735.4
503.438	727.4
503.856	730.6
504.253	737.6
504.671	737.4
505.068	723.2
505.486	729.4
505.905	753.4
506.302	727
506.72	740.4
507.118	715.6
507.536	728.2
507.955	720.6
508.352	723.2
508.771	721.6
509.169	716.2
509.587	718
510.006	723
510.404	714.4
510.823	708.2
511.221	712.8
511.64	707
512.038	713
512.457	703.4
512.877	707.4
513.275	695
513.694	695.8
514.092	702.6
514.512	697.2
514.91	702.8
515.33	695.4
515.749	697.6
516.148	694.2
516.568	694.4
516.966	691.6
517.386	686.8
517.785	691.6
518.205	685.8
518.603	674.8
519.024	675.6
519.444	678.2
519.843	692.8
520.263	683.8
520.662	683.6
521.082	678
521.481	691.8
521.902	685
522.301	681.8
522.722	672.8
523.121	675.6
523.542	660.2
523.963	662.8
524.362	672
524.783	673.8
525.183	664.6
525.604	668.8
526.003	661.4
526.425	665.6
526.824	664.6
527.246	666
527.646	663.4
528.067	662.8
528.467	658.2
528.888	657.6
529.289	655
529.71	658.4
530.11	660.2
530.532	640.6
530.932	646.6
531.354	645.2
531.755	671.2
532.176	660
532.577	650.2
532.999	646.8
533.4	639.8
533.822	654.2
534.223	651.2
534.645	644
535.046	644
535.468	650.2
535.869	650.6
536.292	642.4
536.693	662.2
537.115	651.6
537.516	638.6
537.939	637.8
538.34	646.2
538.742	655.8
539.165	645
539.566	638
539.989	631
540.391	634.2
540.814	642.2
541.216	643
541.639	630.8
542.041	646.6
542.464	631
542.866	632
543.268	632.8
543.691	628.8
544.093	637.6
544.517	650.2
544.919	619
545.343	643.4
545.745	624.4
546.147	630.4
546.571	627.6
546.974	618.8
547.398	631
547.8	634.4
548.224	609.4
548.627	609.2
549.03	625.6
549.454	613
549.857	612.4
550.281	611.4
550.684	617
551.087	624
551.512	627.2
551.915	617.4
552.34	615.4
552.743	620
553.146	611.6
553.571	624
553.975	629.4
554.399	606.2
554.803	658.8
555.207	616.8
555.632	601.8
556.036	620.4
556.461	611.4
556.865	603.4
557.268	607
557.694	610
558.098	613.2
558.502	614.2
558.927	601.2
559.332	606.8
559.736	610.2
560.162	607.6
560.566	603.6
560.992	611.8
561.396	602.2
561.801	601.4
562.227	603.4
562.631	610.4
563.036	603.2
563.462	605.8
563.867	600.6
564.272	593.4
564.698	608
565.103	593.4
565.508	617.8
565.935	594.8
566.34	596
566.745	600
567.172	598.8
567.577	617
567.982	600.6
568.409	601.2
568.815	586.4
569.22	597.6
569.626	599.6
570.053	595
570.459	602.4
570.865	605.4
571.292	599.8
571.698	596.2
572.104	588.8
572.531	586.6
572.937	594.4
573.343	589.6
573.75	586.2
574.177	590.6
574.583	597.4
574.99	588.6
575.396	595.8
575.824	587.4
576.231	596.4
576.637	582.2
577.065	607
577.472	587.2
577.879	587.8
578.286	603.8
578.714	587.2
579.121	592.2
579.528	590.4
579.935	593.4
580.364	578
580.771	580.6
581.178	579.2
581.585	582.6
582.014	590.6
582.421	580.8
582.829	581.4
583.236	593
583.644	582
584.073	584
584.481	590
584.889	571
585.296	588.8
585.726	581.8
586.134	573.8
586.542	584.8
586.95	590.6
587.358	570.2
587.787	583.2
588.196	584.8
588.604	577
589.012	584
589.421	575.8
589.851	576.8
590.259	581.4
590.668	572.8
591.076	611
591.485	566
591.894	579.4
592.324	580.8
592.733	582
593.142	572.4
593.551	579.4
593.96	574.2
594.369	562.4
594.8	570.4
595.209	573
595.618	567.2
596.028	572
596.437	566.6
596.847	573.2
597.256	576.2
597.687	579.6
598.097	577.4
598.507	572.6
598.917	575
599.327	576.8
599.736	578.4
600.146	571.8
600.556	580.8
600.988	588.6
601.398	577.6
601.808	583.2
602.219	565.6
602.629	576.4
603.039	573.6
603.45	598.8
603.86	573.2
604.271	589.6
604.703	572.6
605.114	567.8
605.525	574
605.935	565.2
606.346	586.6
606.757	572.2
607.168	572.4
607.579	571.8
607.99	583.2
608.402	567.4
608.813	570.2
609.224	569.6
609.636	571.4
610.047	572.6
610.48	568.4
610.892	570.2
611.303	577.6
611.715	562
612.127	560.8
612.539	563.8
612.95	566.2
613.362	561
613.774	557.6
614.186	563.8
614.599	560.8
615.011	578.2
615.423	575.2
615.835	571.4
616.248	560.8
616.66	572
617.073	563.8
617.485	556.8
617.898	570.8
618.311	570.8
618.723	562
619.136	588.8
619.549	575.4
619.962	588.2
620.375	572.2
620.788	572.2
621.201	569.8
621.614	574
622.028	568.4
622.441	570.8
622.854	577.4
623.268	561.8
623.681	573.2
624.095	566.2
624.509	575.8
624.922	574.8
625.336	559.4
625.728	570.6
626.142	574.2
626.556	586
626.97	575.4
627.384	570
627.799	565.4
628.213	579.4
628.627	562.8
629.041	560.8
629.456	566.6
629.87	573.4
630.285	575.2
630.699	578.6
631.093	564
631.507	565.4
631.922	573.6
632.337	575.8
632.752	567.8
633.167	571.4
633.582	573.2
633.997	562.8
634.412	562.2
634.806	569
635.221	554
635.637	578.8
636.052	559.6
636.468	561.2
636.883	579.8
637.299	563.4
637.715	558.8
638.109	568
638.525	556
638.941	583.4
639.357	567
639.773	573
640.189	565
640.584	560.4
641	570.8
641.416	563.6
641.832	568.4
642.249	565
642.665	558.8
643.06	566.2
643.477	575.8
643.894	552.8
644.31	564.2
644.727	570
645.123	560.8
645.54	559.4
645.957	558.8
646.374	569.2
646.77	562
647.187	586
647.604	572.8
648.021	555.4
648.439	555.8
648.835	567.4
649.252	560.4
649.67	562.2
650.088	563.8
650.484	563
650.902	561.8
651.32	575
651.738	555.8
652.134	563.8
652.552	574.8
652.971	566.2
653.389	562
653.786	573.6
654.204	585
654.622	557.2
655.019	557.8
655.438	563.4
655.857	568.8
656.275	566.6
656.673	551.4
657.091	570.2
657.51	556.6
657.908	572.8
658.327	575.4
658.746	548.2
659.144	566.2
659.563	573.6
659.982	563.6
660.38	552.4
660.8	559.4
661.219	574.4
661.617	566
662.037	559.4
662.457	568.6
662.855	559.2
663.275	580
663.695	568.8
664.094	558.8
664.514	560.6
664.934	559.8
665.333	568
665.753	555.4
666.152	557.4
666.572	558.8
666.993	564.6
667.392	562.8
667.812	555
668.212	561.4
668.632	571.4
669.053	563.2
669.453	565.2
669.874	561.4
670.273	559.8
670.694	554.6
671.116	574.8
671.515	564.2
671.937	566.4
672.337	561.4
672.758	559.8
673.158	569.2
673.58	559
673.98	558.2
674.402	570.6
674.824	556.6
675.224	553.8
675.646	554.8
676.047	561.2
676.469	567
676.869	564.4
677.292	567.6
677.693	560.2
678.115	565.2
678.516	563.4
678.939	564.2
679.34	565.6
679.762	572.6
680.164	563
680.586	556.6
680.988	561.6
681.411	587.2
681.812	556.2
682.236	561
682.637	555
683.061	553.4
683.462	563.6
683.864	561
684.288	562.4
684.69	552.8
685.114	567
685.516	562
685.94	546.8
686.342	562
686.766	555.6
687.168	558.8
687.571	576.6
687.995	557.4
688.398	546.6
688.822	567.6
689.225	578.4
689.628	569.8
690.052	560.6
690.456	559.4
690.88	560.6
691.284	556.4
691.687	566
692.112	557.6
692.515	560.4
692.919	558.2
693.344	552.2
693.747	552.8
694.173	554.8
694.577	579.8
694.98	561
695.406	556.4
695.81	560.2
696.214	561.6
696.64	567
697.044	559.6
697.448	566.2
697.874	566.4
698.279	555.2
698.684	555
699.11	549.6
699.514	558
699.919	554.4
700.324	553.4
700.75	565
701.156	560.4
701.561	563.2
701.987	563.8
702.393	565
702.798	564
703.203	560.2
703.63	552.2
704.036	550.8
704.442	561.6
704.847	554.6
705.274	561.8
705.68	568.4
706.086	563.8
706.492	553.2
706.92	557.4
707.326	565.6
707.732	551.2
708.139	546.8
708.545	552.2
708.973	558
709.38	550.4
709.786	552.2
710.193	567.8
710.6	562.2
711.028	552.8
711.435	551
711.842	551.8
712.249	552.6
712.656	556.2
713.064	557
713.492	549.2
713.9	550.6
714.307	559.8
714.715	558.8
715.123	558.6
715.53	557.8
715.938	564.6
716.367	562.6
716.775	559
717.184	553.4
717.592	561.8
718	565.8
718.408	586.6
718.816	588.2
719.225	559
719.633	560.8
720.042	552.4
720.472	558.4
720.881	568.2
721.29	563
721.699	546.2
722.108	560.8
722.517	558
722.926	556
723.335	564.4
723.744	556.8
724.154	550.4
724.563	559.8
724.973	559
725.382	560.2
725.792	556
726.202	549.2
726.612	572.6
727.022	555.6
727.432	552.2
779.813	557.2
780.223	591.6
780.634	562
781.044	556.2
781.454	556
781.865	565.8
782.276	553.8
782.686	568.6
783.097	560
783.508	558.8
783.919	561
784.33	561.6
784.741	565.6
785.152	543.6
785.563	553.2
785.974	550.4
786.386	569.4
786.776	556
787.188	560.6
787.599	550.8
788.011	554
788.423	562
788.835	556.6
789.247	548.8
789.659	548.6
790.071	559.2
790.483	590.4
790.874	554.8
791.286	561.6
791.699	548.8
792.111	558.2
792.524	561.8
792.937	556.4
793.349	543.2
793.741	555.8
794.154	556.2
794.567	571
794.98	557.6
795.393	548.6
795.785	563.2
796.198	563.2
796.612	558.2
797.026	548.8
797.439	545.6
797.831	556.4
798.245	548.2
798.659	555.8
799.073	552.6
799.487	548.8
799.88	547.8
800.294	554.8
800.708	564.8
801.123	555.2
801.516	565.6
801.93	549.4
802.345	553
802.76	552.4
803.153	571
803.568	566.2
803.983	567.6
804.377	562.2
804.792	546
805.207	548.8
805.601	557.2
806.016	588
806.432	555.4
806.826	582
807.242	569
807.658	561.2
808.052	554.4
808.468	545.4
808.884	547.2
809.279	555.4
809.695	554.6
810.111	576.6
810.506	558.4
810.922	562.8
811.339	549.4
811.734	556.8
812.151	547.4
812.546	554.4
812.963	550
813.38	554.2
813.776	558.6
814.193	574.4
814.589	545.4
815.006	555.4
815.402	548
815.82	548.6
816.237	556
816.633	554.4
817.051	552.2
817.448	549.8
817.866	548
818.262	567
818.68	551.4
819.077	555
819.495	556.8
819.892	592
820.311	550.4
820.708	548.6
821.127	550.4
821.524	558.6
821.943	560.8
822.34	568.6
822.759	562
823.157	548.4
823.576	560.2
823.974	558
824.393	589.2
824.791	559.4
825.189	536.6
825.609	555.8
826.007	550.8
826.427	545.6
826.826	549.2
827.246	554.8
827.644	534.4
828.043	565.8
828.463	550.8
828.862	555.4
829.261	552.8
829.682	534.6
830.081	557
830.502	545.6
830.901	557.2
831.301	559.6
831.722	545
832.121	552.4
832.521	549.8
832.943	546.6
833.342	551.8
833.742	552.8
834.164	543.8
834.564	548.8
834.965	552.8
835.386	543.8
835.787	550.6
836.188	557.2
836.588	553.4
837.01	553.8
837.411	547
837.812	558.4
838.213	565
838.636	552.2
839.037	601
839.438	555.8
839.84	553.4
840.263	564
840.664	555.4
841.066	547.6
841.468	552.4
841.891	553.8
842.293	559.8
842.695	553.2
843.098	568.4
843.5	550
843.902	561.2
844.326	563.4
844.729	556.6
845.131	567.4
845.534	550.8
845.937	560.4
846.34	565.6
846.764	552.4
847.167	554
847.571	543.4
847.974	556
848.377	550.8
848.781	593.6
849.184	567.6
849.588	555.2
849.992	545
850.396	553.2
850.821	566.8
851.225	556.2
851.63	551.6
852.034	562.8
852.438	558.4
852.843	579.4
853.247	547.2
853.652	548.6
854.057	563
854.462	553.2
854.867	550.6
855.272	573.6
855.677	557
856.082	547.6
856.487	544.4
856.893	555.4
857.298	545.6
