#lambda/nm	C1
208.295	560.8
208.67	491.6
209.045	458.2
209.419	454
209.794	603
210.169	587.6
210.544	673.4
210.919	595
211.295	587.8
211.67	589
212.045	591.4
212.421	585.6
212.796	623.6
213.172	589.8
213.547	585.8
213.923	581.4
214.299	582.2
214.675	597
215.051	591.6
215.427	602.4
215.803	606.4
216.179	591.4
216.555	581.4
216.932	603
217.308	595.4
217.684	585.8
218.061	598
218.438	592.8
218.814	588
219.191	597.8
219.568	588.6
219.945	581.8
220.322	605
220.699	592.2
221.076	590.4
221.453	598
221.83	585.8
222.208	581
222.585	590.8
222.962	588.4
223.34	589.2
223.717	585
224.095	578.6
224.473	588.8
224.851	583.2
225.229	577.4
225.607	600.6
225.985	581.6
226.363	588.8
226.741	586.6
227.119	585.2
227.497	595.6
227.876	578.4
228.254	603
228.633	590.6
229.011	588.6
229.39	594.4
229.769	582.2
230.148	603
230.527	609.2
230.905	590.6
231.284	591.4
231.664	581.6
232.043	602.6
232.422	595
232.801	583.8
233.181	589
233.56	588.4
233.94	590.8
234.319	578
234.699	586.4
235.079	630.4
235.458	616.6
235.838	607.6
236.218	578.2
236.598	587.4
236.978	589.6
237.358	592.4
237.738	585.4
238.119	589.2
238.499	585.8
238.88	591
239.26	604.6
239.641	573.4
240.021	584
240.402	586.6
240.783	587.6
241.163	584.2
241.544	596.2
241.925	599.8
242.306	605.8
242.687	590
243.069	587.2
243.45	595
243.831	583.8
244.212	585.4
244.594	620.4
244.975	599.4
245.357	586.4
245.739	582.4
246.12	594.8
246.502	601
246.884	594.6
247.266	588.8
247.648	589.6
248.03	604.2
248.412	593.8
248.794	589.8
249.176	595
249.559	596.6
249.941	580
250.323	579
250.706	574.6
251.089	593.4
251.471	589.6
251.854	586.8
252.237	587
252.62	600.2
253.002	590.6
253.385	584.8
253.769	604.4
254.152	594.8
254.535	589.8
254.918	581.2
255.301	577.4
255.685	586.8
256.068	586
256.452	612.2
256.835	590
257.219	589.2
257.603	596.8
257.986	580.8
258.37	593
258.754	582.8
259.138	589.6
259.522	593.6
259.906	583.8
260.29	587
260.675	588.2
261.059	588.8
261.443	577.8
261.828	594.4
262.212	593.8
262.597	578.8
262.981	583.8
263.366	593.4
263.751	594.2
264.136	585.4
264.521	590.4
264.906	589
265.291	591.2
265.676	589.6
266.061	595.4
266.446	601.6
266.831	591.6
267.217	609.8
267.602	593.4
267.987	587.2
268.373	580.8
268.759	590.8
269.144	597.6
269.53	589.4
269.916	589.6
270.302	578.6
270.688	597.6
271.074	586.4
271.46	597.6
271.846	608.6
272.232	589.2
272.618	583.2
273.004	590.4
273.391	597.8
273.777	596
274.164	589
274.55	601
274.937	603.8
275.324	586.6
275.71	582.6
276.097	591
276.484	577.2
276.871	592.2
277.258	595.4
277.645	579
278.032	594
278.419	588.4
278.807	593.2
279.194	577.4
279.581	584.8
279.969	595.8
280.356	586.8
280.744	591.6
281.131	602.8
281.519	588.4
281.907	585
282.295	573.6
282.682	591.6
283.07	586.2
283.458	591.6
283.846	597.6
284.235	600.2
284.623	591.2
285.011	578
285.399	584.4
285.788	587.6
286.176	582
286.565	598.6
286.953	576
287.342	585
287.731	581
288.119	577
288.508	580.6
288.897	585.2
289.286	581.6
289.675	579
290.064	596.2
290.453	583.4
290.821	589.2
291.21	596
291.599	591.8
291.989	590.4
292.378	594.2
292.768	597
293.157	589.2
293.547	590.6
293.936	589
294.326	586.6
294.716	597.2
295.106	591.2
295.496	592
295.886	596.6
296.276	581.8
296.666	582.2
297.056	589
297.446	589
297.836	605
298.227	585.6
298.617	583.4
299.008	601.6
299.398	590.8
299.789	584.4
300.179	598.8
300.57	603.8
300.961	588.4
301.352	588.8
301.742	599.4
302.133	586.6
302.524	595.6
302.915	594.2
303.307	583
303.698	596.2
304.089	585.2
304.48	591.8
304.872	601.6
305.263	590.8
305.655	584
306.046	603
306.438	596
306.829	580.6
307.221	602.6
307.613	593.8
308.005	600.6
308.397	598.6
308.789	606.2
309.181	607.4
309.573	600.2
309.965	598.6
310.357	595.2
310.749	608.4
311.142	580.2
311.534	580.6
311.926	596.2
312.319	584.4
312.711	584.8
313.104	600.4
313.497	593.4
313.889	622.8
314.282	601.8
314.675	615.2
315.068	586
315.461	599
315.854	623
316.247	599.6
316.64	594.8
317.033	588.4
317.405	602.6
317.798	592.6
318.192	598.2
318.585	590
318.979	590.6
319.372	594.2
319.766	593
320.16	592.6
320.553	604.4
320.947	609.4
321.341	588.2
321.735	585.8
322.129	584.4
322.523	603
322.917	592.6
323.311	596
323.705	591
324.099	595.8
324.494	604.2
324.888	595.8
325.282	589.8
325.677	594.8
326.071	603
326.466	601.4
326.861	595.6
327.255	596.6
327.65	606.4
328.045	601.2
328.44	590
328.835	586.4
329.23	587
329.625	610.6
330.02	583.2
330.415	613.8
330.81	596.6
331.206	585.4
331.601	583.4
331.996	592.6
332.37	606.4
332.766	585
333.161	610.6
333.557	581.6
333.953	588.8
334.348	847.8
334.744	588
335.14	579.2
335.536	581.8
335.932	600
336.328	587.8
336.724	592.6
337.12	592.2
337.516	590
337.913	594.4
338.309	586.4
338.705	591.8
339.102	595.8
339.498	585.4
339.895	595
340.291	587
340.688	597.8
341.085	584.8
341.481	588.8
341.878	587.4
342.275	599.8
342.672	586.6
343.069	584
343.466	580.4
343.842	598.2
344.239	580.2
344.636	590
345.033	577.4
345.431	577.8
345.828	587.4
346.225	579.6
346.623	621.8
347.02	582.4
347.418	591.2
347.816	598.2
348.213	588.6
348.611	588.6
349.009	581.4
349.407	601.8
349.805	579.8
350.203	577.4
350.601	593.2
350.999	583.6
351.397	639.8
351.795	588.4
352.193	594.4
352.57	588.8
352.969	593.8
353.367	576.6
353.766	586.2
354.164	590.6
354.563	593.8
354.961	582
355.36	584.8
355.759	581
356.158	575.6
356.557	586.6
356.956	571.6
357.355	576.2
357.754	591.2
358.153	589.2
358.552	598.8
358.951	581.8
359.35	593.8
359.75	579.2
360.149	576
360.527	569.6
360.926	571.4
361.326	585.4
361.726	588.8
362.125	578.4
362.525	582.8
362.925	581.8
363.325	580.6
363.724	585.6
364.124	585.4
364.524	579.4
364.924	572.8
365.324	596.4
365.725	569.2
366.125	586.2
366.525	581.4
366.904	572
367.304	569.4
367.705	600.4
368.105	598.2
368.506	578.8
368.906	579
369.307	582.8
369.708	592.2
370.108	573.4
370.509	595
370.91	578.6
371.311	582
371.712	586.8
372.113	590.2
372.514	577.6
372.894	582.4
373.295	583.6
373.696	596.2
374.097	590.2
374.499	607.6
374.9	584.8
375.301	579.2
375.703	583.8
376.105	574.6
376.506	581.2
376.908	585.4
377.309	584.8
377.711	577.8
378.113	576.6
378.493	582.6
378.895	573.2
379.297	585.2
379.699	572.4
380.102	582.8
380.504	578.2
380.906	575.6
381.308	603.2
381.71	575.4
382.113	581.4
382.515	575.2
382.918	581
383.299	574.8
383.701	583.6
384.104	581.2
384.507	572.4
384.909	577.8
385.312	567.4
385.715	570.6
386.118	581.6
386.521	569.8
386.924	586.4
387.327	581.6
387.709	567.2
388.112	565.2
388.515	579.6
388.918	584.8
389.322	580
389.725	575.8
390.129	595.2
390.532	581.4
390.936	580.6
391.339	575.2
391.743	583.2
392.125	570.2
392.529	586.6
392.933	588.6
393.337	581.6
393.74	579.4
394.144	574
394.548	579.6
394.953	578.2
395.357	586.8
395.761	585.6
396.144	588.6
396.548	586.4
396.952	582.8
397.357	584
397.761	574
398.166	575
398.57	581.2
398.975	574.4
399.379	581.8
399.763	617.2
400.168	583.8
400.572	577.4
400.977	575.2
401.382	591.8
401.787	586.6
402.192	601
402.597	589.2
403.002	577.6
403.386	594.8
403.791	600
404.197	578
404.602	585.6
405.007	585.6
405.413	580.8
405.818	579.4
406.224	575.4
406.608	581
407.014	576.6
407.42	594.2
407.825	582.6
408.231	589.2
408.637	577.8
409.043	599.8
409.449	575
409.834	579
410.24	580.4
410.646	588.6
411.052	586.2
411.458	587
411.865	591.4
412.271	593.2
412.677	580
413.062	585.6
413.469	571.8
413.875	602.4
414.282	589
414.689	590
415.095	589.8
415.502	579.2
415.888	585
416.294	572.4
416.701	618.8
417.108	578.4
417.515	582.4
417.923	579.6
418.33	599
418.715	587
419.123	578.4
419.53	589.4
419.937	578.8
420.345	592.8
420.752	577.6
421.16	596.8
421.546	586.6
421.953	590.4
422.361	586
422.769	584.6
423.177	576.2
423.585	595.4
423.992	608.8
424.379	592
424.787	590.6
425.195	603
425.603	587.8
426.011	598.4
426.419	594.2
426.806	586.6
427.214	590
427.623	588.2
428.031	597.4
428.44	587
428.848	591.8
429.235	599.6
429.644	591
430.053	594.6
430.461	607.4
430.87	614.8
431.279	609.8
431.666	597.2
432.075	609
432.484	610.8
432.893	617.2
433.302	622.2
433.711	654.4
434.099	624.4
434.508	632.6
434.918	635.4
435.327	650
435.737	647.4
436.125	659.4
436.534	655.2
436.944	671
437.353	669.4
437.763	691.4
438.173	675.8
438.561	703.8
438.971	680
439.381	696.4
439.791	706
440.201	682.6
440.589	708
440.999	722.4
441.409	721
441.819	713.6
442.23	737.2
442.619	746.8
443.029	734.4
443.439	737.2
443.85	749.6
444.26	767.4
444.649	754.4
445.06	756.8
445.471	754
445.881	765
446.292	773.4
446.682	775.4
447.092	758
447.503	821.2
447.914	762.8
448.325	760.2
448.715	766.8
449.126	766
449.537	769.8
449.948	768.8
450.338	779.8
450.75	782.6
451.161	784.4
451.572	779
451.984	790.4
452.374	776.4
452.786	774
453.197	789.4
453.609	780.2
453.999	775.4
454.411	771.8
454.823	797.8
455.235	796.6
455.647	784.8
456.037	782.6
456.449	778.6
456.862	782.8
457.274	787.6
457.665	777.6
458.077	782.8
458.489	800.2
458.902	788
459.293	792.2
459.705	797.2
460.118	797.4
460.53	802.2
460.921	796.8
461.334	795
461.747	791.8
462.16	814
462.551	808.6
462.964	803
463.377	778.4
463.79	790.8
464.182	804.6
464.595	780.4
465.008	797.6
465.421	799.2
465.813	794.4
466.226	796.8
466.64	799.8
467.053	836
467.445	798.8
467.859	804
468.272	793.2
468.686	798.6
469.078	787.4
469.492	778
469.906	796
470.298	796.4
470.712	795.6
471.126	830.6
471.54	780.8
471.933	784
472.347	792
472.761	791.2
473.175	783.8
473.568	789.8
473.982	790.8
474.397	788
474.79	793
475.204	779
475.619	786.4
476.033	787.2
476.426	787.8
476.841	770.6
477.256	793.8
477.649	786.6
478.064	768.4
478.479	768.8
478.872	777.4
479.287	768.8
479.702	770.4
480.118	776
480.511	763
480.927	765.2
481.342	766.2
481.736	781.6
482.151	765.2
482.566	778.4
482.96	772.8
483.376	770
483.792	757.6
484.186	765.6
484.602	755
485.017	766.8
485.412	753.4
485.827	758.4
486.243	761
486.638	786.2
487.054	776.8
487.47	767.8
487.865	763.2
488.281	753.8
488.697	745.8
489.092	750.6
489.508	741.6
489.925	757.2
490.32	739.4
490.736	761.4
491.153	754
491.548	748.2
491.964	761.2
492.381	735
492.776	755
493.193	747.4
493.61	746.8
494.006	748
494.422	744.8
494.84	732.6
495.235	740.2
495.652	738.4
496.069	742.4
496.465	732.4
496.883	727.6
497.3	750
497.696	724.2
498.113	738
498.509	713.8
498.927	712
499.344	708.8
499.741	714.6
500.158	733.8
500.576	732.6
500.973	721.6
501.39	714.8
501.787	708
502.205	717
502.623	701.4
503.02	701.4
503.438	698.4
503.856	716.4
504.253	712
504.671	700.8
505.068	707.4
505.486	698
505.905	708.8
506.302	706
506.72	711.6
507.118	695.4
507.536	693
507.955	689.2
508.352	699.8
508.771	705.4
509.169	697.4
509.587	687.2
510.006	689.6
510.404	685.6
510.823	685
511.221	694.4
511.64	694.6
512.038	705.8
512.457	687
512.877	683.6
513.275	676
513.694	681.6
514.092	672.8
514.512	665.8
514.91	678.2
515.33	673.6
515.749	681.6
516.148	676.6
516.568	678.6
516.966	671
517.386	675.4
517.785	678.6
518.205	663
518.603	653.8
519.024	659
519.444	676.8
519.843	671.4
520.263	671.2
520.662	669.6
521.082	652.6
521.481	660
521.902	665.2
522.301	654.6
522.722	655.4
523.121	656.4
523.542	646.8
523.963	652
524.362	648.8
524.783	655.8
525.183	642.4
525.604	656.8
526.003	638.2
526.425	649.2
526.824	658.4
527.246	657.8
527.646	653.8
528.067	639
528.467	642.6
528.888	643
529.289	647.6
529.71	639.4
530.11	634.4
530.532	641
530.932	632
531.354	636.2
531.755	667.6
532.176	650.6
532.577	637.4
532.999	635.6
533.4	642.6
533.822	640.2
534.223	642.4
534.645	630.8
535.046	635
535.468	637.2
535.869	647.8
536.292	630.6
536.693	650.6
537.115	630.8
537.516	627.8
537.939	624.2
538.34	641
538.742	652.6
539.165	627.2
539.566	629
539.989	620.8
540.391	626.2
540.814	628.4
541.216	630.6
541.639	627.4
542.041	631
542.464	624.2
542.866	620.6
543.268	618
543.691	623
544.093	623.8
544.517	641
544.919	619.8
545.343	640.4
545.745	615.6
546.147	622
546.571	614.8
546.974	615.2
547.398	621
547.8	629.6
548.224	610.2
548.627	625
549.03	620
549.454	603.6
549.857	601
550.281	602.4
550.684	601.2
551.087	617
551.512	612.4
551.915	614
552.34	612.8
552.743	607.8
553.146	611.6
553.571	606
553.975	619.6
554.399	592
554.803	641.2
555.207	607.6
555.632	602.8
556.036	612.8
556.461	592.6
556.865	609
557.268	601.4
557.694	606.8
558.098	603.8
558.502	601.4
558.927	594.6
559.332	608.2
559.736	603.2
560.162	608
560.566	602.8
560.992	601.8
561.396	601.2
561.801	604.8
562.227	605.6
562.631	597.6
563.036	606.4
563.462	609.4
563.867	607.2
564.272	597.8
564.698	603.8
565.103	592.4
565.508	611
565.935	607
566.34	601.4
566.745	605.2
567.172	598.8
567.577	615.6
567.982	608.4
568.409	598
568.815	592.2
569.22	599
569.626	597.8
570.053	583
570.459	596.4
570.865	595.2
571.292	596.4
571.698	589.8
572.104	577.2
572.531	587.2
572.937	596
573.343	589.2
573.75	588.8
574.177	585.2
574.583	594.2
574.99	586.2
575.396	598.4
575.824	586.4
576.231	598.6
576.637	588
577.065	608.6
577.472	586.4
577.879	585.4
578.286	597.4
578.714	586.2
579.121	582
579.528	585.2
579.935	594.8
580.364	587.2
580.771	577.6
581.178	581.8
581.585	595.4
582.014	590.4
582.421	578.4
582.829	581.8
583.236	594.8
583.644	578.4
584.073	586.4
584.481	578.4
584.889	589
585.296	593.6
585.726	579.6
586.134	579.4
586.542	573.8
586.95	601.6
587.358	573.2
587.787	580.6
588.196	595.6
588.604	578
589.012	579.2
589.421	575.6
589.851	580.4
590.259	584.8
590.668	582
591.076	612
591.485	568.2
591.894	583.2
592.324	587.4
592.733	590.2
593.142	568.4
593.551	579.2
593.96	584
594.369	576
594.8	577.8
595.209	589.8
595.618	568.4
596.028	580
596.437	574.2
596.847	585
597.256	584.2
597.687	581.4
598.097	583.6
598.507	580.6
598.917	579.2
599.327	579.4
599.736	592.8
600.146	595
600.556	586
600.988	591.8
601.398	582.2
601.808	592.6
602.219	580
602.629	581.8
603.039	591
603.45	613
603.86	587.2
604.271	599.8
604.703	588.4
605.114	587.4
605.525	583
605.935	597.4
606.346	605.4
606.757	592.6
607.168	588.8
607.579	592.2
607.99	603.8
608.402	594.6
608.813	592.2
609.224	591.2
609.636	593.4
610.047	592.4
610.48	600
610.892	607
611.303	599.8
611.715	600
612.127	598.2
612.539	598.2
612.95	599
613.362	597.4
613.774	601.4
614.186	593.6
614.599	603.2
615.011	611.8
615.423	607.8
615.835	603.8
616.248	604
616.66	607.4
617.073	607.4
617.485	608
617.898	622.2
618.311	614.8
618.723	608.6
619.136	629.6
619.549	614.4
619.962	630.8
620.375	610.8
620.788	616.8
621.201	613
621.614	621.8
622.028	620.8
622.441	619.4
622.854	629
623.268	612.2
623.681	625.6
624.095	618.8
624.509	625
624.922	625.4
625.336	612.4
625.728	618.6
626.142	619.2
626.556	628.2
626.97	614.4
627.384	615.4
627.799	617.8
628.213	624.8
628.627	621.4
629.041	617.2
629.456	618.2
629.87	620.2
630.285	628.8
630.699	630.6
631.093	618.2
631.507	626.6
631.922	620.2
632.337	628.8
632.752	606.8
633.167	613.8
633.582	621.6
633.997	614.8
634.412	612.4
634.806	614.4
635.221	608.6
635.637	619.4
636.052	607.8
636.468	616.4
636.883	632.6
637.299	613
637.715	602
638.109	600.6
638.525	593.2
638.941	619
639.357	619.8
639.773	615.4
640.189	604.4
640.584	614.4
641	603.2
641.416	600.4
641.832	600.6
642.249	606.8
642.665	603.8
643.06	606.4
643.477	611.8
643.894	591
644.31	593.2
644.727	597.2
645.123	597.2
645.54	595.4
645.957	590.8
646.374	599.4
646.77	591.4
647.187	609
647.604	589.2
648.021	596.8
648.439	589
648.835	596
649.252	585
649.67	592.2
650.088	585.4
650.484	595.4
650.902	597.8
651.32	593.8
651.738	584
652.134	593.2
652.552	597.2
652.971	584.4
653.389	580.4
653.786	600.2
654.204	604.6
654.622	586.2
655.019	579
655.438	590.2
655.857	586
656.275	586
656.673	582.2
657.091	586.8
657.51	575
657.908	592.6
658.327	591.2
658.746	580.6
659.144	578.6
659.563	586.4
659.982	576.8
660.38	575.6
660.8	574
661.219	589.2
661.617	575.6
662.037	580.2
662.457	584.4
662.855	566.6
663.275	599.8
663.695	578.2
664.094	575.8
664.514	584.8
664.934	581.8
665.333	590.2
665.753	575.4
666.152	563.8
666.572	572
666.993	589
667.392	566.6
667.812	575
668.212	574.6
668.632	570
669.053	563.2
669.453	576
669.874	576
670.273	579.2
670.694	563.6
671.116	583
671.515	570.4
671.937	569.6
672.337	565.6
672.758	567.4
673.158	573.8
673.58	560
673.98	565.8
674.402	587
674.824	569.6
675.224	567.2
675.646	564.6
676.047	561.2
676.469	563.8
676.869	571.8
677.292	575.2
677.693	559.4
678.115	565.4
678.516	571.2
678.939	573
679.34	566.4
679.762	579.2
680.164	572.8
680.586	565.8
680.988	571
681.411	588
681.812	566.8
682.236	558
682.637	566.6
683.061	559.8
683.462	566
683.864	559.2
684.288	569.8
684.69	567.6
685.114	578
685.516	576.8
685.94	559.8
686.342	569.4
686.766	560.2
687.168	563.6
687.571	584
687.995	572.8
688.398	556.2
688.822	569
689.225	580
689.628	592.2
690.052	572.4
690.456	564.4
690.88	567.8
691.284	562
691.687	566.4
692.112	561.4
692.515	569.2
692.919	568.8
693.344	570.8
693.747	560.4
694.173	565.4
694.577	574.6
694.98	564.4
695.406	563.6
695.81	570.8
696.214	570.8
696.64	570.4
697.044	574.6
697.448	569.8
697.874	562.8
698.279	567
698.684	562
699.11	563
699.514	564.8
699.919	564.4
700.324	550.8
700.75	571.6
701.156	564.8
701.561	569.6
701.987	568.4
702.393	577
702.798	568.2
703.203	566.4
703.63	561.6
704.036	568.8
704.442	568.6
704.847	559.8
705.274	561.8
705.68	569.2
706.086	563.2
706.492	562
706.92	564.2
707.326	571
707.732	569.2
708.139	562.6
708.545	559.4
708.973	561.4
709.38	559
709.786	558
710.193	572.2
710.6	568.8
711.028	557
711.435	562.8
711.842	563.2
712.249	560.4
712.656	562
713.064	570.6
713.492	550.2
713.9	566
714.307	562.4
714.715	559.8
715.123	562.2
715.53	560.8
715.938	564.4
716.367	564.2
716.775	562.2
717.184	555.8
717.592	558
718	573.6
718.408	597
718.816	600.6
719.225	568.8
719.633	563.6
720.042	552.8
720.472	561.4
720.881	574.4
721.29	569.4
721.699	554
722.108	567.8
722.517	568.6
722.926	556
723.335	573.2
723.744	563.8
724.154	566
724.563	564.4
724.973	569
725.382	563.8
725.792	560.6
726.202	559.4
726.612	575
727.022	560
727.432	563.4
779.813	555.6
780.223	602.8
780.634	557
781.044	558.8
781.454	568.8
781.865	568.4
782.276	554.2
782.686	567.8
783.097	564.6
783.508	557.6
783.919	559.6
784.33	569.4
784.741	572.2
785.152	564.4
785.563	552.2
785.974	559.6
786.386	574.2
786.776	565.8
787.188	564.2
787.599	557.2
788.011	557.2
788.423	564
788.835	558.4
789.247	548.2
789.659	555.2
790.071	567
790.483	598.6
790.874	562
791.286	562.8
791.699	556.8
792.111	553.4
792.524	558.8
792.937	563.6
793.349	553.8
793.741	558.6
794.154	556.4
794.567	579
794.98	567.2
795.393	557.4
795.785	566.6
796.198	550
796.612	556.8
797.026	553
797.439	545.6
797.831	547.4
798.245	551.2
798.659	554.2
799.073	557.4
799.487	553
799.88	552.2
800.294	568
800.708	565
801.123	559.8
801.516	573.2
801.93	547.2
802.345	544.4
802.76	559.8
803.153	574.6
803.568	567.4
803.983	572.4
804.377	560
804.792	562
805.207	549.2
805.601	562
806.016	584
806.432	554.4
806.826	586.8
807.242	568.6
807.658	558.6
808.052	557.2
808.468	554.4
808.884	558.4
809.279	564
809.695	572.4
810.111	586.2
810.506	566
810.922	578.8
811.339	563.6
811.734	565.4
812.151	552.4
812.546	554.8
812.963	562.6
813.38	562
813.776	559.6
814.193	579.2
814.589	552
815.006	550.8
815.402	558.4
815.82	553.4
816.237	558.6
816.633	560.2
817.051	552.6
817.448	560.2
817.866	549.8
818.262	575
818.68	550.6
819.077	553.4
819.495	556.4
819.892	592.2
820.311	552.8
820.708	548.4
821.127	551.2
821.524	556
821.943	559
822.34	571.6
822.759	561.2
823.157	559.4
823.576	567.4
823.974	561
824.393	580.8
824.791	551
825.189	544.2
825.609	561.4
826.007	557.6
826.427	556.2
826.826	555
827.246	558.4
827.644	546.8
828.043	569.6
828.463	552.8
828.862	559
829.261	568.2
829.682	552
830.081	567.8
830.502	554.6
830.901	561.2
831.301	574
831.722	551
832.121	566
832.521	552.6
832.943	557.6
833.342	554.4
833.742	558.8
834.164	559.6
834.564	546.2
834.965	558
835.386	558.2
835.787	558.8
836.188	558.4
836.588	562.8
837.01	559.8
837.411	555.4
837.812	565.8
838.213	560.2
838.636	560
839.037	613
839.438	560.2
839.84	562
840.263	563
840.664	559.8
841.066	565.2
841.468	555.6
841.891	560
842.293	574.2
842.695	564.6
843.098	566.6
843.5	552.8
843.902	564.4
844.326	570.6
844.729	563
845.131	577.2
845.534	564.4
845.937	562.2
846.34	572.8
846.764	554.2
847.167	561.2
847.571	544
847.974	557.8
848.377	553.6
848.781	594.6
849.184	569.2
849.588	554.4
849.992	553.6
850.396	560.6
850.821	584.6
851.225	559.6
851.63	557.2
852.034	578
852.438	552.2
852.843	616
853.247	544.6
853.652	546.8
854.057	571
854.462	561.8
854.867	562.2
855.272	588.2
855.677	559.2
856.082	549.6
856.487	550.8
856.893	567
857.298	562
