#lambda/nm	C1
208.295	538.6
208.67	487.2
209.045	444.2
209.419	448.8
209.794	600
210.169	590
210.544	702.6
210.919	614
211.295	598.6
211.67	605.4
212.045	603
212.421	600.6
212.796	627.6
213.172	592.8
213.547	599.4
213.923	600.6
214.299	597.2
214.675	606.6
215.051	599.2
215.427	612.2
215.803	617
216.179	611.2
216.555	597.8
216.932	607.6
217.308	600.8
217.684	605.6
218.061	608.2
218.438	608.4
218.814	601
219.191	605.6
219.568	605.2
219.945	594
220.322	611
220.699	606.8
221.076	604.8
221.453	603.4
221.83	597
222.208	599.4
222.585	599.8
222.962	598.8
223.34	608.6
223.717	599
224.095	596.6
224.473	604.8
224.851	603.8
225.229	595
225.607	616
225.985	601.2
226.363	606.6
226.741	604.4
227.119	600.2
227.497	621.4
227.876	593
228.254	598.2
228.633	604
229.011	605.6
229.39	602
229.769	593.8
230.148	605.8
230.527	610.4
230.905	593
231.284	598.6
231.664	589
232.043	617.8
232.422	605.8
232.801	591.8
233.181	606.2
233.56	599
233.94	605.2
234.319	591.4
234.699	605.2
235.079	634.6
235.458	632.4
235.838	612
236.218	589
236.598	598.6
236.978	594.2
237.358	605
237.738	595.6
238.119	605.6
238.499	587.4
238.88	605.8
239.26	606.4
239.641	599
240.021	604.2
240.402	603.4
240.783	596
241.163	598.2
241.544	602.2
241.925	599.6
242.306	614.2
242.687	609.2
243.069	602
243.45	602.2
243.831	592.2
244.212	602.6
244.594	636.4
244.975	612.4
245.357	610
245.739	595.4
246.12	606
246.502	614.4
246.884	605
247.266	600.2
247.648	607.2
248.03	621.6
248.412	597.6
248.794	606
249.176	602
249.559	613.2
249.941	596.2
250.323	587
250.706	595.2
251.089	606.6
251.471	603.2
251.854	605
252.237	607.2
252.62	604.2
253.002	603
253.385	603.6
253.769	614
254.152	606.6
254.535	606.8
254.918	596
255.301	606.2
255.685	598.8
256.068	595.8
256.452	615
256.835	606.2
257.219	607.4
257.603	607.8
257.986	597
258.37	611.8
258.754	594.2
259.138	603.8
259.522	603.8
259.906	594.2
260.29	608.8
260.675	599.2
261.059	603.8
261.443	588.2
261.828	600.6
262.212	608.6
262.597	587.2
262.981	590.4
263.366	606
263.751	599.6
264.136	595.6
264.521	598.4
264.906	597.4
265.291	614.6
265.676	603.4
266.061	608
266.446	620.2
266.831	604.4
267.217	617.2
267.602	610.8
267.987	610.6
268.373	600.2
268.759	612.6
269.144	607.2
269.53	599.8
269.916	597.4
270.302	592.4
270.688	605.4
271.074	604.8
271.46	613.4
271.846	628.8
272.232	605.4
272.618	599.6
273.004	597.8
273.391	615.8
273.777	614.6
274.164	606.4
274.55	616.8
274.937	606
275.324	595
275.71	607.6
276.097	600.4
276.484	594.2
276.871	602.8
277.258	608
277.645	584.8
278.032	600.2
278.419	601.2
278.807	601.8
279.194	593.6
279.581	595.8
279.969	613
280.356	602.4
280.744	599.8
281.131	629.8
281.519	610.6
281.907	603.4
282.295	605.6
282.682	615.4
283.07	603.6
283.458	610.6
283.846	616.4
284.235	609
284.623	619
285.011	592.8
285.399	607
285.788	600.4
286.176	592.4
286.565	607.6
286.953	593
287.342	599
287.731	585.2
288.119	599.4
288.508	587.8
288.897	603.6
289.286	590.2
289.675	600.4
290.064	607.6
290.453	596.2
290.821	599.2
291.21	620.4
291.599	602.4
291.989	605
292.378	605.8
292.768	627.8
293.157	611
293.547	611.2
293.936	600.8
294.326	594.6
294.716	610.2
295.106	595.6
295.496	603.4
295.886	609.4
296.276	599.6
296.666	598.6
297.056	596.6
297.446	591.6
297.836	621.8
298.227	601.8
298.617	603.6
299.008	624
299.398	599.4
299.789	597.6
300.179	601
300.57	623.4
300.961	589.8
301.352	592.6
301.742	614.6
302.133	605.2
302.524	603.8
302.915	597
303.307	595.2
303.698	613
304.089	613
304.48	602.4
304.872	607.6
305.263	599.8
305.655	598.4
306.046	601.8
306.438	608.2
306.829	593.2
307.221	618.4
307.613	605.2
308.005	607.2
308.397	616.4
308.789	622.2
309.181	631.8
309.573	612.4
309.965	613
310.357	598
310.749	615.6
311.142	594.4
311.534	598.8
311.926	602.8
312.319	601
312.711	601.4
313.104	620.4
313.497	604.6
313.889	639
314.282	621.8
314.675	622
315.068	603.4
315.461	602
315.854	628.4
316.247	611.8
316.64	600.6
317.033	599.2
317.405	605.8
317.798	602.8
318.192	610.6
318.585	600.4
318.979	606.8
319.372	603
319.766	590.6
320.16	606.8
320.553	618.8
320.947	632.4
321.341	601
321.735	606.8
322.129	585.4
322.523	619.4
322.917	593
323.311	616.4
323.705	605.2
324.099	601
324.494	619.2
324.888	607.2
325.282	603.6
325.677	611
326.071	608
326.466	618
326.861	613
327.255	613.4
327.65	617.6
328.045	609.2
328.44	609.6
328.835	599.2
329.23	594.6
329.625	629.4
330.02	601.8
330.415	618
330.81	608.6
331.206	604.2
331.601	603
331.996	612
332.37	626.4
332.766	600
333.161	620
333.557	592.4
333.953	604.2
334.348	935.6
334.744	607
335.14	600
335.536	596
335.932	612.2
336.328	602.8
336.724	610
337.12	603
337.516	609.2
337.913	604.8
338.309	615.6
338.705	595.8
339.102	601.8
339.498	596.6
339.895	605
340.291	601.2
340.688	610.2
341.085	592.6
341.481	596.4
341.878	598.8
342.275	629
342.672	600.4
343.069	595.8
343.466	595.8
343.842	614.8
344.239	595.4
344.636	598.8
345.033	603.8
345.431	598.8
345.828	600.2
346.225	599.8
346.623	638
347.02	601.2
347.418	612.2
347.816	617.2
348.213	594.8
348.611	606
349.009	586.4
349.407	610.4
349.805	595.6
350.203	589
350.601	612
350.999	594.6
351.397	652.6
351.795	602
352.193	610.2
352.57	615.4
352.969	606.8
353.367	590.2
353.766	594.4
354.164	597.2
354.563	607
354.961	599.6
355.36	596.2
355.759	600.6
356.158	585.8
356.557	592
356.956	597
357.355	583.4
357.754	607.6
358.153	601.8
358.552	616.4
358.951	600.6
359.35	606.8
359.75	594.4
360.149	588.6
360.527	585
360.926	593.8
361.326	602.2
361.726	599.4
362.125	589.2
362.525	602.2
362.925	600.8
363.325	598.2
363.724	598.8
364.124	593.8
364.524	594.4
364.924	599.8
365.324	603.2
365.725	587
366.125	603.8
366.525	600
366.904	589.4
367.304	582.6
367.705	615.2
368.105	612.4
368.506	600.6
368.906	593.4
369.307	598.4
369.708	602
370.108	595.2
370.509	600.2
370.91	588.4
371.311	593.4
371.712	595
372.113	591.2
372.514	583
372.894	600.2
373.295	586
373.696	600.4
374.097	596.6
374.499	618
374.9	591.8
375.301	583.4
375.703	597.6
376.105	584
376.506	599.6
376.908	598.2
377.309	594.8
377.711	592.8
378.113	591
378.493	594.2
378.895	594.6
379.297	596.6
379.699	575.8
380.102	599
380.504	593.6
380.906	587.4
381.308	609.4
381.71	586.6
382.113	595
382.515	590.6
382.918	591.6
383.299	591
383.701	591
384.104	594
384.507	572.4
384.909	591
385.312	573.2
385.715	585
386.118	593.2
386.521	589.6
386.924	601.6
387.327	588.6
387.709	582.6
388.112	577.4
388.515	587.6
388.918	595.4
389.322	593.8
389.725	593.4
390.129	611.2
390.532	606.4
390.936	598.2
391.339	589.8
391.743	592
392.125	591
392.529	603
392.933	603.8
393.337	593.2
393.74	594.2
394.144	593
394.548	585.4
394.953	592.6
395.357	597
395.761	592.2
396.144	599.4
396.548	596.2
396.952	601.4
397.357	598.6
397.761	596
398.166	587.8
398.57	602
398.975	585.6
399.379	600.4
399.763	641.6
400.168	593.2
400.572	599.2
400.977	599.4
401.382	608
401.787	605.4
402.192	606.6
402.597	607.6
403.002	587.6
403.386	608
403.791	614
404.197	586.6
404.602	595
405.007	593.6
405.413	592
405.818	600
406.224	585.2
406.608	594.4
407.014	587.4
407.42	613.8
407.825	596
408.231	599.8
408.637	605.4
409.043	602.4
409.449	590.2
409.834	588.6
410.24	599.6
410.646	610.2
411.052	610.2
411.458	601.6
411.865	612.2
412.271	603.6
412.677	596.6
413.062	603.8
413.469	592.6
413.875	617.2
414.282	614
414.689	597.2
415.095	602.8
415.502	591.2
415.888	592.2
416.294	580.8
416.701	638.4
417.108	599.2
417.515	602.8
417.923	596.2
418.33	614.8
418.715	608
419.123	606
419.53	594.4
419.937	594
420.345	617
420.752	593.8
421.16	614.8
421.546	592.4
421.953	608.6
422.361	585.8
422.769	597.6
423.177	587.2
423.585	613.6
423.992	615.2
424.379	609.6
424.787	613
425.195	613.2
425.603	597.6
426.011	616.8
426.419	614.6
426.806	600.6
427.214	595.8
427.623	609.4
428.031	611.2
428.44	606
428.848	610.6
429.235	617.6
429.644	601
430.053	614
430.461	621.2
430.87	634.2
431.279	632.6
431.666	623
432.075	635.8
432.484	641
432.893	632.4
433.302	659.8
433.711	692.8
434.099	656.6
434.508	660
434.918	660.2
435.327	683
435.737	679
436.125	691.2
436.534	703.4
436.944	704
437.353	718.2
437.763	740.6
438.173	729.8
438.561	756
438.971	737.2
439.381	752
439.791	755.4
440.201	737.8
440.589	775.4
440.999	787.4
441.409	782.8
441.819	769.8
442.23	802.2
442.619	804.6
443.029	804.6
443.439	813.4
443.85	824
444.26	837.8
444.649	827.8
445.06	830.8
445.471	831.2
445.881	843.8
446.292	861.4
446.682	870.8
447.092	834.4
447.503	903
447.914	852.4
448.325	849.6
448.715	861.2
449.126	844.4
449.537	857
449.948	859.8
450.338	869.6
450.75	873.6
451.161	862.4
451.572	882.2
451.984	874
452.374	864
452.786	878.4
453.197	882.2
453.609	877.2
453.999	873.2
454.411	874
454.823	887.4
455.235	892
455.647	883.6
456.037	879.8
456.449	881.8
456.862	890.2
457.274	888.8
457.665	880
458.077	880.8
458.489	911.2
458.902	879
459.293	889.6
459.705	891.6
460.118	876.2
460.53	897.6
460.921	891.2
461.334	892.2
461.747	888
462.16	892.4
462.551	895.4
462.964	895
463.377	867.4
463.79	888.6
464.182	893.2
464.595	882.8
465.008	897.2
465.421	891.4
465.813	885.2
466.226	899
466.64	877.6
467.053	934.8
467.445	902.2
467.859	899.2
468.272	902
468.686	901
469.078	894.8
469.492	878
469.906	898.8
470.298	903.8
470.712	882.8
471.126	936.2
471.54	889.4
471.933	880.4
472.347	878.6
472.761	891
473.175	879.6
473.568	883.8
473.982	867.8
474.397	880.4
474.79	878.6
475.204	879.6
475.619	864.8
476.033	877
476.426	874.4
476.841	870.4
477.256	895.6
477.649	866.6
478.064	866.6
478.479	864
478.872	862.2
479.287	858
479.702	847
480.118	860.8
480.511	851.4
480.927	868.2
481.342	853.6
481.736	856.2
482.151	853.6
482.566	861.6
482.96	855
483.376	860
483.792	842.4
484.186	848
484.602	851.8
485.017	851.4
485.412	852
485.827	857.2
486.243	837.4
486.638	870.2
487.054	851.2
487.47	863.2
487.865	832.4
488.281	824.8
488.697	825.8
489.092	829
489.508	830.6
489.925	828
490.32	829.6
490.736	835.6
491.153	825
491.548	835
491.964	832
492.381	815.4
492.776	818.8
493.193	817.2
493.61	830
494.006	821.8
494.422	818.2
494.84	806.6
495.235	819.6
495.652	806
496.069	800.8
496.465	787
496.883	796.8
497.3	811.2
497.696	811.4
498.113	794.4
498.509	788.6
498.927	782.4
499.344	785.8
499.741	792.2
500.158	792.6
500.576	806.4
500.973	781.2
501.39	779.8
501.787	765
502.205	772.6
502.623	764.6
503.02	769.2
503.438	777.2
503.856	770.6
504.253	780.2
504.671	773.6
505.068	766.8
505.486	762.4
505.905	788.8
506.302	754.8
506.72	779.2
507.118	752.2
507.536	754
507.955	755
508.352	757.8
508.771	761.4
509.169	760.6
509.587	741.4
510.006	744.4
510.404	740
510.823	729.4
511.221	738.8
511.64	745.2
512.038	751.8
512.457	738.6
512.877	737.4
513.275	739.8
513.694	729
514.092	724.8
514.512	733.6
514.91	735.8
515.33	728.2
515.749	731.4
516.148	726.2
516.568	724.2
516.966	709.6
517.386	718.8
517.785	711.4
518.205	713.4
518.603	705.2
519.024	705.2
519.444	722.6
519.843	718.4
520.263	715.6
520.662	710.2
521.082	707.4
521.481	711.8
521.902	703.2
522.301	707.6
522.722	709.8
523.121	688.8
523.542	689.6
523.963	687.2
524.362	693.8
524.783	694.6
525.183	694.6
525.604	694.8
526.003	685.6
526.425	680.6
526.824	690.8
527.246	695
527.646	694
528.067	686.2
528.467	694.4
528.888	681.2
529.289	675.4
529.71	676
530.11	677.6
530.532	669.2
530.932	656.8
531.354	668
531.755	699.6
532.176	685
532.577	679.2
532.999	662.6
533.4	671.8
533.822	671.8
534.223	685.4
534.645	662.4
535.046	658.2
535.468	660.6
535.869	675
536.292	657.4
536.693	687.6
537.115	664.2
537.516	658.6
537.939	660.2
538.34	685.6
538.742	672.8
539.165	665.4
539.566	655
539.989	651.2
540.391	656.4
540.814	665.8
541.216	662.8
541.639	657.8
542.041	660.4
542.464	656
542.866	649.2
543.268	639.8
543.691	658
544.093	656.4
544.517	668.4
544.919	645.4
545.343	672.8
545.745	638.8
546.147	643.4
546.571	639.2
546.974	644.2
547.398	636.6
547.8	655
548.224	637.4
548.627	641.8
549.03	647.6
549.454	633
549.857	627.2
550.281	645.6
550.684	631.8
551.087	646.8
551.512	641
551.915	644.8
552.34	647.6
552.743	631
553.146	641.2
553.571	631.4
553.975	650.2
554.399	620.8
554.803	666.6
555.207	621.6
555.632	621.8
556.036	646
556.461	628.2
556.865	630.2
557.268	632.6
557.694	630
558.098	633.8
558.502	640.2
558.927	620
559.332	628.6
559.736	625.4
560.162	630.6
560.566	620.6
560.992	629.6
561.396	623.8
561.801	623.4
562.227	627.4
562.631	618.6
563.036	615.4
563.462	631.4
563.867	617.4
564.272	611.4
564.698	624.4
565.103	605
565.508	637
565.935	607.2
566.34	623.4
566.745	630.8
567.172	616.2
567.577	632.4
567.982	619.6
568.409	617.2
568.815	604.2
569.22	622.4
569.626	616.8
570.053	601.4
570.459	622.2
570.865	624.8
571.292	620.6
571.698	622.8
572.104	602
572.531	618.6
572.937	623.6
573.343	613
573.75	598
574.177	613.2
574.583	609.6
574.99	607.6
575.396	619
575.824	606.2
576.231	614.4
576.637	602.8
577.065	626.8
577.472	598.4
577.879	606
578.286	615.4
578.714	594.4
579.121	600.6
579.528	604.8
579.935	613
580.364	595.2
580.771	593.2
581.178	602
581.585	615
582.014	604.8
582.421	601
582.829	605.6
583.236	614.8
583.644	602.4
584.073	596.2
584.481	604
584.889	601.4
585.296	606.4
585.726	604.2
586.134	595.2
586.542	602.2
586.95	618.2
587.358	589.8
587.787	599.4
588.196	609.2
588.604	598.8
589.012	599.2
589.421	585.4
589.851	588.6
590.259	607.6
590.668	594.8
591.076	642
591.485	587.6
591.894	606.8
592.324	607.6
592.733	610.2
593.142	589.8
593.551	595.2
593.96	631.2
594.369	587.4
594.8	596.4
595.209	598.2
595.618	588.4
596.028	595.2
596.437	584.2
596.847	595.2
597.256	600.8
597.687	593
598.097	592.2
598.507	584.4
598.917	601.4
599.327	594.4
599.736	600.6
600.146	593.6
600.556	596.8
600.988	599.4
601.398	585.6
601.808	603
602.219	586.6
602.629	590.6
603.039	582.2
603.45	618.8
603.86	590.4
604.271	608
604.703	592
605.114	596.8
605.525	593.6
605.935	600.8
606.346	604.6
606.757	598.8
607.168	587.4
607.579	586.8
607.99	600.4
608.402	589.6
608.813	593.8
609.224	594.2
609.636	579.2
610.047	586.8
610.48	587.2
610.892	593.8
611.303	598.4
611.715	588.6
612.127	588.2
612.539	590.2
612.95	595.4
613.362	585.2
613.774	585.8
614.186	588.2
614.599	587.2
615.011	600.2
615.423	591.8
615.835	584.6
616.248	583.4
616.66	592.2
617.073	589.6
617.485	591
617.898	585
618.311	591.8
618.723	589.4
619.136	611.8
619.549	594.2
619.962	611.4
620.375	590.6
620.788	591
621.201	580.4
621.614	602.4
622.028	592.6
622.441	595.4
622.854	602
623.268	583.8
623.681	591.6
624.095	591.2
624.509	600.8
624.922	598.4
625.336	578.4
625.728	596.8
626.142	593.6
626.556	600.4
626.97	586.6
627.384	584.2
627.799	586.2
628.213	596.6
628.627	585.4
629.041	581.8
629.456	579.6
629.87	584
630.285	600.2
630.699	584.6
631.093	588.8
631.507	585.4
631.922	596
632.337	597
632.752	576.8
633.167	584.6
633.582	583.6
633.997	582.6
634.412	585.4
634.806	589.8
635.221	577
635.637	594.4
636.052	577.8
636.468	585.4
636.883	599
637.299	583
637.715	572.8
638.109	588
638.525	575.2
638.941	596
639.357	588.6
639.773	594.6
640.189	583.8
640.584	591.6
641	584.2
641.416	577
641.832	583.2
642.249	584.8
642.665	584.6
643.06	586.8
643.477	589
643.894	568.8
644.31	585.8
644.727	581
645.123	581
645.54	579.8
645.957	584
646.374	600
646.77	580
647.187	603.8
647.604	581.8
648.021	574.6
648.439	579.4
648.835	585
649.252	587.8
649.67	579
650.088	589.8
650.484	592.4
650.902	587.8
651.32	591.8
651.738	580.8
652.134	589.2
652.552	608.4
652.971	588.2
653.389	576.6
653.786	592.2
654.204	599.4
654.622	573.2
655.019	577.8
655.438	579
655.857	588.2
656.275	583.4
656.673	582.4
657.091	596.8
657.51	590.6
657.908	591.8
658.327	591.2
658.746	571.8
659.144	580.2
659.563	597.4
659.982	575.8
660.38	577.2
660.8	577.4
661.219	584.8
661.617	583
662.037	575.8
662.457	586.6
662.855	571.6
663.275	606.8
663.695	589.8
664.094	576.6
664.514	577.4
664.934	580.4
665.333	578
665.753	573.4
666.152	576.2
666.572	574.2
666.993	595
667.392	575
667.812	572.6
668.212	571.4
668.632	592.2
669.053	578.2
669.453	571.4
669.874	576.8
670.273	578.4
670.694	575.8
671.116	590
671.515	581.2
671.937	573.4
672.337	572.8
672.758	578
673.158	588
673.58	565.4
673.98	571.2
674.402	584.8
674.824	579.8
675.224	568.2
675.646	570
676.047	573
676.469	571.6
676.869	584
677.292	582.2
677.693	571
678.115	573.6
678.516	577
678.939	586.2
679.34	572.8
679.762	588.8
680.164	580
680.586	572
680.988	581
681.411	603
681.812	569.8
682.236	582.2
682.637	571.4
683.061	567.8
683.462	577.8
683.864	571.8
684.288	586.8
684.69	574.8
685.114	587.2
685.516	589.6
685.94	572
686.342	583
686.766	569.6
687.168	575.8
687.571	588.4
687.995	583.6
688.398	576.4
688.822	580.8
689.225	592
689.628	598.2
690.052	581.8
690.456	584.8
690.88	577.4
691.284	572.8
691.687	593
692.112	573.6
692.515	569.6
692.919	582.6
693.344	581.6
693.747	571.2
694.173	574.2
694.577	589.8
694.98	574.2
695.406	578.8
695.81	587.2
696.214	581.6
696.64	586.8
697.044	575.4
697.448	585.4
697.874	581
698.279	577.6
698.684	567.8
699.11	579.6
699.514	575.2
699.919	578.8
700.324	575.4
700.75	577.2
701.156	572.6
701.561	578.4
701.987	580.2
702.393	584.6
702.798	579.2
703.203	577.4
703.63	574.8
704.036	578
704.442	579.4
704.847	577.8
705.274	581.2
705.68	581.6
706.086	582.8
706.492	570.6
706.92	580
707.326	587
707.732	578.2
708.139	568.2
708.545	571.2
708.973	574
709.38	584
709.786	566.4
710.193	592.2
710.6	573.4
711.028	562
711.435	579
711.842	568.6
712.249	571.2
712.656	574.8
713.064	583
713.492	572
713.9	577
714.307	580
714.715	571
715.123	574.2
715.53	578.8
715.938	585.4
716.367	577.8
716.775	563
717.184	569.6
717.592	572.4
718	584.8
718.408	607.8
718.816	613.8
719.225	580.8
719.633	576.8
720.042	562.2
720.472	571.6
720.881	595.2
721.29	584.6
721.699	569
722.108	581.8
722.517	575.2
722.926	574.8
723.335	589.4
723.744	567.8
724.154	568.4
724.563	576.4
724.973	577.6
725.382	577.2
725.792	564.8
726.202	564.8
726.612	595.8
727.022	574.6
727.432	563.8
779.813	572.8
780.223	613.4
780.634	573.8
781.044	572.4
781.454	581.6
781.865	583.8
782.276	565
782.686	586
783.097	572.2
783.508	577.4
783.919	572.8
784.33	587
784.741	599.6
785.152	571.6
785.563	562.8
785.974	569.8
786.386	577.8
786.776	566.8
787.188	574.2
787.599	566.8
788.011	583.2
788.423	579.2
788.835	567.6
789.247	560.4
789.659	571
790.071	564.2
790.483	615.4
790.874	574
791.286	578.2
791.699	567
792.111	574.8
792.524	572.8
792.937	576
793.349	561.8
793.741	567.4
794.154	570.4
794.567	595.8
794.98	570.4
795.393	568
795.785	579.6
796.198	569.8
796.612	580.8
797.026	571
797.439	559.2
797.831	565.8
798.245	569
798.659	569.2
799.073	571.8
799.487	574.4
799.88	577.8
800.294	573
800.708	581
801.123	572.8
801.516	589.8
801.93	563.8
802.345	562.8
802.76	570.4
803.153	587
803.568	592.6
803.983	584.8
804.377	579.2
804.792	567
805.207	559.2
805.601	571.2
806.016	601.6
806.432	561.6
806.826	595.6
807.242	580.8
807.658	576.8
808.052	564.4
808.468	576.2
808.884	569.4
809.279	565.8
809.695	579.2
810.111	598.8
810.506	576.4
810.922	574.8
811.339	568.4
811.734	578.6
812.151	564.6
812.546	572.6
812.963	567.2
813.38	568.6
813.776	570
814.193	593.4
814.589	563.4
815.006	571.4
815.402	571.4
815.82	571.2
816.237	570
816.633	577
817.051	559
817.448	575
817.866	561.2
818.262	586.2
818.68	569.2
819.077	561.8
819.495	573.4
819.892	605.8
820.311	559.2
820.708	560.2
821.127	559.8
821.524	578.8
821.943	569.6
822.34	589.4
822.759	560.2
823.157	576.2
823.576	578
823.974	577.8
824.393	594.2
824.791	571
825.189	566.8
825.609	573.2
826.007	566.6
826.427	564.2
826.826	562.2
827.246	573.8
827.644	566
828.043	579
828.463	573.6
828.862	583.8
829.261	576.8
829.682	568
830.081	586.2
830.502	565
830.901	574.8
831.301	589.8
831.722	570.4
832.121	563.6
832.521	557.2
832.943	573
833.342	569.4
833.742	566.8
834.164	567.6
834.564	566.8
834.965	568
835.386	567.6
835.787	565.2
836.188	572.4
836.588	574.4
837.01	564.8
837.411	575.6
837.812	575.8
838.213	579.4
838.636	571.4
839.037	639.2
839.438	570.4
839.84	572
840.263	580
840.664	569.8
841.066	574.2
841.468	574.8
841.891	563.8
842.293	583
842.695	584.6
843.098	578
843.5	569.2
843.902	580.8
844.326	571.6
844.729	572.4
845.131	585.2
845.534	574
845.937	584.8
846.34	582.2
846.764	566.6
847.167	570
847.571	568.6
847.974	571.8
848.377	570.4
848.781	615.4
849.184	581.8
849.588	570
849.992	565.4
850.396	573.4
850.821	590
851.225	582.4
851.63	572.8
852.034	583.8
852.438	568.6
852.843	640.4
853.247	567.8
853.652	566.4
854.057	591.8
854.462	575.4
854.867	577
855.272	594.4
855.677	577.2
856.082	565.6
856.487	567.4
856.893	570.4
