#lambda/nm	C1
208.295	532.8
208.67	478
209.045	441.8
209.419	443.2
209.794	605.4
210.169	591
210.544	705.4
210.919	611.8
211.295	598
211.67	611.4
212.045	605
212.421	602.2
212.796	642.2
213.172	602
213.547	598.8
213.923	604.2
214.299	609.4
214.675	614.4
215.051	614.2
215.427	614.8
215.803	622.8
216.179	615.8
216.555	598.8
216.932	622.6
217.308	611.8
217.684	617.6
218.061	616.2
218.438	611.6
218.814	598.2
219.191	603.8
219.568	601.6
219.945	605
220.322	612
220.699	611.6
221.076	618.2
221.453	616.6
221.83	604
222.208	601.4
222.585	606.6
222.962	607.6
223.34	615.6
223.717	609.4
224.095	607.4
224.473	608.4
224.851	607
225.229	599.6
225.607	624.2
225.985	596.8
226.363	607.4
226.741	611.6
227.119	599.2
227.497	612.2
227.876	603.6
228.254	613.6
228.633	618.4
229.011	614
229.39	608
229.769	613
230.148	615.8
230.527	625.4
230.905	601.8
231.284	611.8
231.664	601
232.043	618.6
232.422	616.2
232.801	609.4
233.181	614.8
233.56	603.4
233.94	612.6
234.319	592.2
234.699	606.8
235.079	647
235.458	646.4
235.838	622.6
236.218	601.6
236.598	596.4
236.978	600.8
237.358	606
237.738	600.6
238.119	616
238.499	601.4
238.88	607
239.26	619.2
239.641	599.6
240.021	601.2
240.402	608.4
240.783	610
241.163	604.4
241.544	609.2
241.925	604.2
242.306	620
242.687	617
243.069	614.6
243.45	618.4
243.831	605.8
244.212	607.8
244.594	637.8
244.975	618
245.357	612.2
245.739	598.6
246.12	609.2
246.502	620.8
246.884	600.6
247.266	604
247.648	615.6
248.03	628.6
248.412	620.6
248.794	612.4
249.176	601.6
249.559	617
249.941	599.8
250.323	602.8
250.706	602.8
251.089	598.6
251.471	609.6
251.854	603.6
252.237	601.4
252.62	615.6
253.002	605.4
253.385	614
253.769	615.6
254.152	607.8
254.535	608.8
254.918	598.6
255.301	598.8
255.685	604.4
256.068	598.8
256.452	620.6
256.835	622
257.219	606.4
257.603	620.6
257.986	597
258.37	615.6
258.754	600.8
259.138	603.2
259.522	613
259.906	597.2
260.29	603.2
260.675	601.6
261.059	603.4
261.443	602.6
261.828	617
262.212	612
262.597	600.4
262.981	595.4
263.366	613.4
263.751	604
264.136	598.2
264.521	601.4
264.906	597.6
265.291	608.6
265.676	597.6
266.061	616.4
266.446	613.2
266.831	599.8
267.217	623.4
267.602	606.2
267.987	603.8
268.373	597
268.759	608.6
269.144	609.4
269.53	602.6
269.916	603.4
270.302	601.2
270.688	607.2
271.074	609.2
271.46	626.6
271.846	635.4
272.232	605
272.618	599.8
273.004	610.6
273.391	620.4
273.777	619.2
274.164	621.8
274.55	626.8
274.937	619
275.324	603.8
275.71	611
276.097	615.6
276.484	601
276.871	607.2
277.258	621
277.645	599
278.032	612.4
278.419	603.8
278.807	613.6
279.194	599
279.581	599.2
279.969	609
280.356	611.8
280.744	606.8
281.131	630.4
281.519	614.2
281.907	604.4
282.295	603
282.682	624.2
283.07	613.2
283.458	607.8
283.846	620.8
284.235	619
284.623	615
285.011	602.2
285.399	605.8
285.788	609
286.176	602.6
286.565	615
286.953	597.2
287.342	610.2
287.731	603.4
288.119	602.2
288.508	607
288.897	608
289.286	594.8
289.675	604.6
290.064	616.6
290.453	608.2
290.821	604.6
291.21	628.2
291.599	597.6
291.989	603
292.378	610
292.768	623.8
293.157	619.2
293.547	619.2
293.936	607.8
294.326	596.2
294.716	613.6
295.106	608.2
295.496	611.6
295.886	612
296.276	615.4
296.666	606.8
297.056	600.8
297.446	597.2
297.836	629
298.227	603
298.617	610.6
299.008	623
299.398	609.8
299.789	600.4
300.179	617
300.57	623.4
300.961	606
301.352	607.8
301.742	620
302.133	605.6
302.524	606.6
302.915	611.8
303.307	604.4
303.698	617.8
304.089	614.8
304.48	608.2
304.872	613.8
305.263	603
305.655	603
306.046	618.2
306.438	607.6
306.829	601.6
307.221	623
307.613	608.6
308.005	619.6
308.397	623.6
308.789	632
309.181	634
309.573	624.8
309.965	619.4
310.357	606.2
310.749	622.4
311.142	608
311.534	601.8
311.926	612.8
312.319	606.4
312.711	601.6
313.104	625
313.497	608
313.889	645.6
314.282	624.2
314.675	622.6
315.068	605.6
315.461	612.2
315.854	637.8
316.247	615
316.64	605
317.033	610.4
317.405	621.4
317.798	610.6
318.192	613.2
318.585	600.2
318.979	618.2
319.372	605.2
319.766	599.4
320.16	612
320.553	625.2
320.947	628.4
321.341	614.4
321.735	612
322.129	596.4
322.523	649.6
322.917	608.8
323.311	617.2
323.705	615
324.099	612
324.494	616
324.888	624.8
325.282	606.2
325.677	619.2
326.071	619.6
326.466	623
326.861	610.2
327.255	622.8
327.65	620.2
328.045	621
328.44	619.6
328.835	612.2
329.23	605
329.625	634.4
330.02	607
330.415	631.4
330.81	619.2
331.206	621
331.601	610.2
331.996	613.4
332.37	626.2
332.766	605
333.161	636
333.557	606.4
333.953	609
334.348	907
334.744	608.2
335.14	606.4
335.536	606.2
335.932	611.8
336.328	604.6
336.724	625.6
337.12	605.2
337.516	611.2
337.913	615.4
338.309	620.6
338.705	612.8
339.102	622.2
339.498	605
339.895	628.2
340.291	606.4
340.688	611.8
341.085	603.2
341.481	601.4
341.878	598.2
342.275	615.8
342.672	597.4
343.069	604
343.466	594
343.842	616.2
344.239	601.2
344.636	600.4
345.033	591.8
345.431	594.4
345.828	609.2
346.225	602.6
346.623	640
347.02	601.2
347.418	612.8
347.816	628
348.213	595.2
348.611	611
349.009	607.2
349.407	618
349.805	595
350.203	596.4
350.601	620.4
350.999	605.8
351.397	656.8
351.795	610.2
352.193	613.4
352.57	622.8
352.969	611.4
353.367	598.8
353.766	603
354.164	597.4
354.563	607
354.961	609.4
355.36	597.4
355.759	600.4
356.158	598.6
356.557	589.2
356.956	596.4
357.355	591.4
357.754	611.8
358.153	610.6
358.552	622.8
358.951	595.8
359.35	617.2
359.75	598.2
360.149	597.2
360.527	588.6
360.926	604.2
361.326	601.6
361.726	600.8
362.125	592.6
362.525	609
362.925	599.6
363.325	595.8
363.724	598.6
364.124	600.2
364.524	594.6
364.924	601.6
365.324	606
365.725	582.8
366.125	608
366.525	604.4
366.904	593.6
367.304	594.6
367.705	610
368.105	608.8
368.506	600.4
368.906	604.6
369.307	596.6
369.708	610
370.108	593.4
370.509	615.6
370.91	587
371.311	605.4
371.712	605.2
372.113	601.2
372.514	588.4
372.894	600.2
373.295	598.6
373.696	608.2
374.097	608.6
374.499	631.6
374.9	603.6
375.301	597.8
375.703	600.4
376.105	594.2
376.506	607.6
376.908	598.8
377.309	595.4
377.711	601.8
378.113	595
378.493	603.8
378.895	600.2
379.297	605.8
379.699	589.4
380.102	595.8
380.504	602.2
380.906	601.4
381.308	619.8
381.71	599.6
382.113	599
382.515	602.2
382.918	598.4
383.299	603.2
383.701	616
384.104	599.8
384.507	582.2
384.909	606.2
385.312	590.2
385.715	586.6
386.118	600
386.521	588.2
386.924	607.6
387.327	602
387.709	585.6
388.112	584
388.515	603.8
388.918	606.8
389.322	614.2
389.725	591.8
390.129	619.8
390.532	602.2
390.936	604
391.339	594.6
391.743	591.8
392.125	599.6
392.529	609.6
392.933	616.2
393.337	598.8
393.74	601
394.144	606.8
394.548	599.6
394.953	600.4
395.357	609.6
395.761	600.4
396.144	603.8
396.548	605
396.952	606.2
397.357	599.4
397.761	598.4
398.166	600.6
398.57	595.4
398.975	591.4
399.379	602.6
399.763	649
400.168	599.8
400.572	606.2
400.977	602
401.382	616.8
401.787	603
402.192	613.6
402.597	614.2
403.002	592.6
403.386	612.4
403.791	610.8
404.197	598.4
404.602	600.6
405.007	596.6
405.413	594.4
405.818	603
406.224	602.6
406.608	592.4
407.014	590.8
407.42	621.2
407.825	587
408.231	612.8
408.637	597
409.043	617
409.449	595.8
409.834	599.8
410.24	606.4
410.646	613.2
411.052	610.4
411.458	612.6
411.865	615.6
412.271	613.2
412.677	598.8
413.062	603
413.469	592.2
413.875	622.6
414.282	613.2
414.689	605.8
415.095	609.4
415.502	603.6
415.888	598
416.294	597.2
416.701	643.4
417.108	592
417.515	601.6
417.923	599.6
418.33	619
418.715	611.4
419.123	607.4
419.53	602.4
419.937	597.8
420.345	618.4
420.752	604.8
421.16	619.4
421.546	603.4
421.953	611.2
422.361	593.6
422.769	608.6
423.177	596
423.585	628.8
423.992	616.8
424.379	615.4
424.787	603.4
425.195	622
425.603	607.2
426.011	616.6
426.419	623.2
426.806	617.8
427.214	612.2
427.623	614.4
428.031	619.4
428.44	600
428.848	614.4
429.235	616.4
429.644	609.4
430.053	600.8
430.461	620.2
430.87	633
431.279	629.8
431.666	608
432.075	618.6
432.484	631.2
432.893	618
433.302	634.6
433.711	663.2
434.099	628.6
434.508	626.6
434.918	625
435.327	646.8
435.737	647.2
436.125	652
436.534	646.2
436.944	648.4
437.353	666.4
437.763	688.2
438.173	659.2
438.561	677
438.971	668.8
439.381	670.6
439.791	683
440.201	655.6
440.589	683.6
440.999	692.8
441.409	698.8
441.819	680.4
442.23	707.2
442.619	705
443.029	711.4
443.439	703.8
443.85	722.2
444.26	730.8
444.649	719
445.06	710
445.471	711.6
445.881	716.2
446.292	728.4
446.682	745.6
447.092	722.8
447.503	767
447.914	736.4
448.325	733.6
448.715	737
449.126	731.8
449.537	742.2
449.948	738
450.338	743.4
450.75	732.2
451.161	734.2
451.572	748.8
451.984	734
452.374	734.4
452.786	740.6
453.197	752.8
453.609	748.2
453.999	723.6
454.411	738
454.823	757.4
455.235	758.2
455.647	741.6
456.037	754
456.449	737
456.862	741
457.274	745.4
457.665	737.2
458.077	756.6
458.489	774.8
458.902	751
459.293	746.6
459.705	752
460.118	758.2
460.53	752.4
460.921	749.2
461.334	750
461.747	745.4
462.16	749.2
462.551	751
462.964	759.4
463.377	744.8
463.79	748.6
464.182	754.2
464.595	739.8
465.008	760
465.421	753.2
465.813	750.8
466.226	760.6
466.64	750.4
467.053	791.6
467.445	753.4
467.859	774.4
468.272	751.2
468.686	767.4
469.078	754.2
469.492	744.8
469.906	760.2
470.298	754.6
470.712	748
471.126	796.6
471.54	745
471.933	741.8
472.347	748.2
472.761	732
473.175	744.8
473.568	749.2
473.982	737.6
474.397	753.2
474.79	743.8
475.204	746.8
475.619	741.8
476.033	752
476.426	747.2
476.841	735.4
477.256	771.4
477.649	741.4
478.064	736.8
478.479	738.8
478.872	740
479.287	727.4
479.702	729.8
480.118	740
480.511	741.4
480.927	744.8
481.342	733.2
481.736	741.4
482.151	728.8
482.566	752.8
482.96	738
483.376	751.6
483.792	727.2
484.186	734.6
484.602	730.6
485.017	733
485.412	731.6
485.827	730.4
486.243	733.6
486.638	749.4
487.054	740.8
487.47	743.8
487.865	724.2
488.281	714.4
488.697	716.4
489.092	729.2
489.508	717.8
489.925	735.8
490.32	718.6
490.736	727.6
491.153	722.6
491.548	717.6
491.964	732.2
492.381	707.4
492.776	724.4
493.193	713.4
493.61	713.8
494.006	717.4
494.422	714.8
494.84	709.2
495.235	713.2
495.652	715.6
496.069	717.8
496.465	705.8
496.883	713.8
497.3	734.4
497.696	705.2
498.113	710.2
498.509	693.4
498.927	696.6
499.344	691
499.741	692.4
500.158	714.8
500.576	708.4
500.973	707.2
501.39	699
501.787	681
502.205	702.8
502.623	685.2
503.02	678.2
503.438	681.8
503.856	684.2
504.253	702.4
504.671	694
505.068	675
505.486	679.6
505.905	700.2
506.302	686.2
506.72	692.8
507.118	673.4
507.536	678.8
507.955	687.2
508.352	691.4
508.771	688.6
509.169	681.4
509.587	665.4
510.006	675.8
510.404	672
510.823	664
511.221	681
511.64	673.2
512.038	687.2
512.457	676.2
512.877	676.8
513.275	664.8
513.694	668.2
514.092	669.8
514.512	670
514.91	678.8
515.33	676.8
515.749	660.4
516.148	668.4
516.568	663.2
516.966	664
517.386	656.6
517.785	665
518.205	661.6
518.603	651.2
519.024	651
519.444	659
519.843	664
520.263	662.8
520.662	666.8
521.082	659.4
521.481	661.6
521.902	659.2
522.301	662.6
522.722	665
523.121	652.8
523.542	660
523.963	653.6
524.362	653.4
524.783	650.4
525.183	643.8
525.604	645.6
526.003	648.4
526.425	650.4
526.824	653
527.246	649.2
527.646	656.8
528.067	645.2
528.467	648.2
528.888	651.6
529.289	644.6
529.71	640.6
530.11	640.8
530.532	645
530.932	636.8
531.354	636.6
531.755	667.8
532.176	649.8
532.577	643
532.999	637.8
533.4	642.6
533.822	642
534.223	647.6
534.645	628.4
535.046	633.4
535.468	637.6
535.869	645.4
536.292	636.6
536.693	670
537.115	633.2
537.516	635.6
537.939	628.4
538.34	659.6
538.742	641.6
539.165	627.2
539.566	633.6
539.989	625.2
540.391	629.6
540.814	620.6
541.216	634.4
541.639	634.6
542.041	634.6
542.464	631.8
542.866	622.8
543.268	617.6
543.691	632.4
544.093	624.8
544.517	638.6
544.919	623.6
545.343	656.6
545.745	617.4
546.147	624
546.571	613.6
546.974	612.4
547.398	619.4
547.8	633.8
548.224	621.4
548.627	614.8
549.03	622.4
549.454	612.6
549.857	612
550.281	610
550.684	613.2
551.087	627.8
551.512	633
551.915	634.2
552.34	614
552.743	618.8
553.146	617.6
553.571	617.4
553.975	628
554.399	611.6
554.803	657.8
555.207	620.4
555.632	615.2
556.036	614.2
556.461	611
556.865	616.2
557.268	609.6
557.694	617
558.098	621.6
558.502	613.6
558.927	608.4
559.332	620.6
559.736	610.4
560.162	613
560.566	605
560.992	616.2
561.396	611.6
561.801	612.6
562.227	610.2
562.631	611.2
563.036	602.8
563.462	611.8
563.867	611.2
564.272	595.4
564.698	616.8
565.103	599
565.508	625.6
565.935	614.4
566.34	608.8
566.745	620.6
567.172	610.4
567.577	627.2
567.982	614
568.409	609.6
568.815	598.6
569.22	604.8
569.626	611.8
570.053	596.8
570.459	607.8
570.865	610
571.292	607.2
571.698	603.8
572.104	587.2
572.531	601.4
572.937	625.4
573.343	609.4
573.75	605.4
574.177	597.8
574.583	608.4
574.99	598.6
575.396	610.4
575.824	602.2
576.231	613.2
576.637	588
577.065	627.4
577.472	596.6
577.879	602.6
578.286	618
578.714	599.2
579.121	597.4
579.528	603
579.935	609.2
580.364	601.6
580.771	588.2
581.178	591.6
581.585	595.2
582.014	607.2
582.421	594.6
582.829	601.8
583.236	602.6
583.644	585.8
584.073	602.6
584.481	595
584.889	594
585.296	599.6
585.726	600
586.134	584.2
586.542	595
586.95	611
587.358	593.6
587.787	603
588.196	608.8
588.604	590
589.012	603
589.421	591
589.851	587.4
590.259	596.8
590.668	590.2
591.076	627.6
591.485	599.4
591.894	593.8
592.324	610.8
592.733	614.2
593.142	589.8
593.551	595.8
593.96	600
594.369	582.8
594.8	592.4
595.209	591.6
595.618	586.2
596.028	593.4
596.437	595.4
596.847	582.6
597.256	590
597.687	595.2
598.097	590.2
598.507	582
598.917	600.6
599.327	597
599.736	596
600.146	610
600.556	594
600.988	606.8
601.398	589
601.808	604
602.219	584.8
602.629	598.6
603.039	598.4
603.45	616.8
603.86	586
604.271	601.4
604.703	592.8
605.114	582.6
605.525	596.6
605.935	597.6
606.346	609.8
606.757	601
607.168	592.2
607.579	585.4
607.99	606
608.402	592.8
608.813	606.6
609.224	589.8
609.636	583.2
610.047	593.8
610.48	591.6
610.892	598
611.303	599
611.715	592.2
612.127	589
612.539	592.4
612.95	600
613.362	586
613.774	579.6
614.186	591.4
614.599	589.2
615.011	595
615.423	589
615.835	590.8
616.248	579.2
616.66	591.2
617.073	585.6
617.485	592.2
617.898	595.4
618.311	599.2
618.723	589.2
619.136	613
619.549	603.6
619.962	611.4
620.375	582.8
620.788	588.4
621.201	582.6
621.614	595.4
622.028	589
622.441	589.2
622.854	608.6
623.268	581.4
623.681	586.4
624.095	593.2
624.509	602.2
624.922	592.2
625.336	578
625.728	585.8
626.142	598.4
626.556	601.4
626.97	594.8
627.384	590
627.799	588.8
628.213	597.2
628.627	588.6
629.041	593
629.456	587.4
629.87	591.8
630.285	594.8
630.699	597.4
631.093	585.4
631.507	594.4
631.922	592.2
632.337	595.2
632.752	575.2
633.167	588.4
633.582	588.4
633.997	585.8
634.412	587.4
634.806	594.4
635.221	577.8
635.637	596
636.052	570.2
636.468	586.2
636.883	600
637.299	587
637.715	574.2
638.109	583.4
638.525	570.6
638.941	593.6
639.357	589.6
639.773	595.8
640.189	584.6
640.584	580
641	586.6
641.416	583.2
641.832	588
642.249	577.6
642.665	585.2
643.06	587
643.477	601.6
643.894	569.4
644.31	579
644.727	583
645.123	585.6
645.54	571.2
645.957	582.8
646.374	586.2
646.77	585.2
647.187	607.8
647.604	585.2
648.021	571.4
648.439	582.4
648.835	586
649.252	582.6
649.67	582.8
650.088	586.6
650.484	589.4
650.902	579.2
651.32	594.8
651.738	581.6
652.134	586.2
652.552	598
652.971	595.8
653.389	586
653.786	600
654.204	610.2
654.622	571.4
655.019	576.8
655.438	583.4
655.857	584.8
656.275	579.8
656.673	575.2
657.091	583.6
657.51	575
657.908	593.2
658.327	592.2
658.746	571
659.144	582.4
659.563	591.6
659.982	588
660.38	581.8
660.8	596.4
661.219	593.2
661.617	585.8
662.037	574.4
662.457	594.2
662.855	571.8
663.275	612.6
663.695	574.6
664.094	580.4
664.514	579.6
664.934	576.6
665.333	585.2
665.753	575.2
666.152	574.4
666.572	573
666.993	589.4
667.392	575.6
667.812	581.4
668.212	576.4
668.632	587.2
669.053	583.6
669.453	586.6
669.874	587.4
670.273	587.8
670.694	575.4
671.116	591.2
671.515	584.6
671.937	577.8
672.337	580.2
672.758	579.4
673.158	590
673.58	568
673.98	582.4
674.402	596.8
674.824	578.8
675.224	574
675.646	576.2
676.047	579.8
676.469	590.4
676.869	582.4
677.292	583.8
677.693	581.8
678.115	577
678.516	593.4
678.939	591.6
679.34	586.6
679.762	593.4
680.164	593
680.586	573
680.988	586.8
681.411	600
681.812	577.2
682.236	580
682.637	578.2
683.061	580.2
683.462	586.2
683.864	579.6
684.288	593.6
684.69	576.6
685.114	594.8
685.516	593.2
685.94	580.6
686.342	591.4
686.766	576.6
687.168	577.6
687.571	596
687.995	579.4
688.398	566.6
688.822	580.8
689.225	594
689.628	595.8
690.052	589.6
690.456	587.8
690.88	582
691.284	576.2
691.687	582.6
692.112	578.6
692.515	573.8
692.919	587
693.344	582.4
693.747	579
694.173	572.2
694.577	592.2
694.98	581.8
695.406	574.4
695.81	582
696.214	578
696.64	580
697.044	588
697.448	591.8
697.874	584.2
698.279	587.4
698.684	573.2
699.11	571
699.514	582.2
699.919	579
700.324	571.4
700.75	579.2
701.156	580.2
701.561	586.2
701.987	589.2
702.393	590.6
702.798	597
703.203	586.6
703.63	571
704.036	580.2
704.442	592.8
704.847	574.2
705.274	580.2
705.68	592.4
706.086	594.4
706.492	574.6
706.92	578.2
707.326	596.4
707.732	573.2
708.139	574.2
708.545	575.8
708.973	578.8
709.38	575.6
709.786	565.2
710.193	607.8
710.6	585.6
711.028	573.2
711.435	580.8
711.842	581.8
712.249	579.6
712.656	582.8
713.064	593.2
713.492	580.6
713.9	580.2
714.307	587.6
714.715	576.8
715.123	588.4
715.53	574.6
715.938	587.2
716.367	580.8
716.775	581.2
717.184	578.8
717.592	577.6
718	592.4
718.408	615.4
718.816	618.2
719.225	583.6
719.633	577.2
720.042	575.6
720.472	568.8
720.881	595.8
721.29	584.8
721.699	565.4
722.108	577.2
722.517	586.2
722.926	582.4
723.335	589.4
723.744	577.2
724.154	586.8
724.563	584.2
724.973	584.6
725.382	583
725.792	573.6
726.202	572.4
726.612	600.6
727.022	582.8
727.432	578.2
779.813	581.4
780.223	616.8
780.634	580.2
781.044	574.4
781.454	582.2
781.865	599.8
782.276	572.6
782.686	588.4
783.097	577.8
783.508	585
783.919	577.4
784.33	592.6
784.741	589.2
785.152	571.4
785.563	568.2
785.974	579
786.386	583.8
786.776	577.4
787.188	575.2
787.599	571.2
788.011	582
788.423	583
788.835	570.8
789.247	573.6
789.659	576.2
790.071	572
790.483	614.6
790.874	578.2
791.286	580.2
791.699	571
792.111	582.6
792.524	584
792.937	573.6
793.349	568.6
793.741	568
794.154	579.6
794.567	595.4
794.98	574.8
795.393	562.8
795.785	592.8
796.198	579.4
796.612	583.6
797.026	575.4
797.439	566.4
797.831	573.8
798.245	567
798.659	579.4
799.073	572
799.487	572.8
799.88	577.4
800.294	581.8
800.708	581.4
801.123	585.2
801.516	595.2
801.93	568.2
802.345	560
802.76	575.4
803.153	594.6
803.568	581.8
803.983	581
804.377	584.2
804.792	563.6
805.207	567
805.601	574.2
806.016	597.8
806.432	569
806.826	606
807.242	593.2
807.658	580.8
808.052	577.4
808.468	564
808.884	574
809.279	583
809.695	587.8
810.111	596.6
810.506	573
810.922	592.6
811.339	565.4
811.734	582.4
812.151	574
812.546	567.4
812.963	567.8
813.38	583.6
813.776	581.6
814.193	590.8
814.589	572.2
815.006	572.4
815.402	575.4
815.82	566.4
816.237	572.8
816.633	577.2
817.051	567
817.448	571.8
817.866	564.2
818.262	599.2
818.68	581.2
819.077	577.4
819.495	577.4
819.892	618.2
820.311	567.6
820.708	573.2
821.127	579.6
821.524	586.8
821.943	581.4
822.34	587
822.759	578.4
823.157	578.6
823.576	587.6
823.974	586.8
824.393	600.6
824.791	570.2
825.189	572.2
825.609	582.2
826.007	573.6
826.427	567
826.826	582.6
827.246	583.8
827.644	565
828.043	591.6
828.463	565.4
828.862	590.4
829.261	582.2
829.682	565.6
830.081	576.4
830.502	571
830.901	578.6
831.301	590.8
831.722	572.6
832.121	579.8
832.521	571
832.943	580.4
833.342	582.6
833.742	570.6
834.164	572.4
834.564	569.6
834.965	575.6
835.386	568.8
835.787	571
836.188	574.2
836.588	578
837.01	570.8
837.411	562.8
837.812	576
838.213	577
838.636	577.6
839.037	646
839.438	584.4
839.84	579.2
840.263	582
840.664	579
841.066	573.6
841.468	582.2
841.891	571.2
842.293	582.6
842.695	588.2
843.098	580.2
843.5	581.6
843.902	578.8
844.326	585
844.729	581.2
845.131	587.4
845.534	577.6
845.937	592.6
846.34	595.2
846.764	570.6
847.167	579
847.571	568
847.974	576.4
848.377	568.8
848.781	613.6
849.184	590
849.588	570
849.992	575.8
850.396	569
850.821	592.8
851.225	582.8
851.63	577.4
852.034	595.6
852.438	575.8
852.843	648.2
853.247	573.2
853.652	577
854.057	588
854.462	572.8
854.867	583
855.272	605.8
855.677	582.4
856.082	567
856.487	566.8
856.893	580.6
