#lambda/nm	C1
208.295	557.4
208.67	491.2
209.045	460.4
209.419	455.6
209.794	596.4
210.169	592
210.544	680.2
210.919	604.6
211.295	586
211.67	594.2
212.045	596
212.421	590.2
212.796	620.2
213.172	587.8
213.547	595
213.923	596
214.299	589.4
214.675	609.8
215.051	592.8
215.427	601.4
215.803	605.4
216.179	593.8
216.555	584.4
216.932	598.2
217.308	591
217.684	593.4
218.061	599.6
218.438	596.8
218.814	583
219.191	597.6
219.568	584.2
219.945	592
220.322	596.4
220.699	606.8
221.076	594
221.453	590.2
221.83	590.6
222.208	589.2
222.585	596
222.962	593.2
223.34	589.2
223.717	599
224.095	584.8
224.473	590.8
224.851	591.2
225.229	587.8
225.607	600.2
225.985	585.4
226.363	594.4
226.741	596.8
227.119	597.2
227.497	600.2
227.876	581.2
228.254	592.8
228.633	594
229.011	593.8
229.39	589.4
229.769	590.2
230.148	596.6
230.527	601
230.905	588.8
231.284	596.6
231.664	589.2
232.043	599.6
232.422	600.8
232.801	590.4
233.181	596
233.56	594.8
233.94	591
234.319	585
234.699	588
235.079	616.4
235.458	621.4
235.838	608.2
236.218	585.8
236.598	586.2
236.978	594.2
237.358	583
237.738	584.2
238.119	598
238.499	585
238.88	587.6
239.26	600.8
239.641	581.6
240.021	588.6
240.402	600.6
240.783	586.6
241.163	586.4
241.544	589.4
241.925	589.8
242.306	604.4
242.687	593
243.069	593
243.45	600.4
243.831	587.2
244.212	588
244.594	621.4
244.975	601.8
245.357	590.8
245.739	581.4
246.12	589.6
246.502	610.6
246.884	589.4
247.266	597
247.648	594
248.03	605.8
248.412	598.2
248.794	596.4
249.176	586.8
249.559	600.4
249.941	590.2
250.323	576.8
250.706	591.8
251.089	587.8
251.471	591.4
251.854	584.2
252.237	581
252.62	598.8
253.002	597.2
253.385	588.4
253.769	608.6
254.152	589.8
254.535	596
254.918	583.2
255.301	587
255.685	588.6
256.068	576.8
256.452	605.6
256.835	598.8
257.219	593.4
257.603	594.6
257.986	589.2
258.37	594
258.754	577
259.138	593.6
259.522	599.2
259.906	583.6
260.29	595.6
260.675	588
261.059	591.2
261.443	581.8
261.828	591
262.212	585.8
262.597	579.4
262.981	588.8
263.366	597.2
263.751	590.8
264.136	588.4
264.521	584.4
264.906	585.2
265.291	591
265.676	588.4
266.061	596.4
266.446	602.2
266.831	589
267.217	613.2
267.602	593.4
267.987	595.8
268.373	594.6
268.759	605.6
269.144	598.8
269.53	591.6
269.916	595
270.302	590
270.688	597.6
271.074	587.6
271.46	602.4
271.846	611.4
272.232	592.8
272.618	583.8
273.004	580.8
273.391	597.4
273.777	600
274.164	590.2
274.55	605.4
274.937	593
275.324	587.4
275.71	591.2
276.097	596
276.484	585
276.871	594.8
277.258	595.8
277.645	582.2
278.032	584.4
278.419	590
278.807	593.8
279.194	581.2
279.581	587.2
279.969	591.8
280.356	596.2
280.744	594.4
281.131	614.6
281.519	604.6
281.907	588.2
282.295	597.4
282.682	598
283.07	601.2
283.458	610.8
283.846	603.8
284.235	603.4
284.623	595.4
285.011	585.8
285.399	594.6
285.788	601.6
286.176	584.6
286.565	595.8
286.953	589.6
287.342	586.2
287.731	587.8
288.119	587.4
288.508	588.2
288.897	595.6
289.286	586
289.675	590
290.064	598.4
290.453	591.2
290.821	591
291.21	602.8
291.599	591
291.989	597
292.378	596.6
292.768	609.6
293.157	604.8
293.547	592.4
293.936	587.8
294.326	589.2
294.716	593.8
295.106	591.8
295.496	603
295.886	597
296.276	590.6
296.666	587.4
297.056	584.2
297.446	588.2
297.836	603
298.227	580.6
298.617	600
299.008	606
299.398	583.4
299.789	583.8
300.179	596.4
300.57	603.4
300.961	578
301.352	590.2
301.742	599
302.133	588.8
302.524	587
302.915	584.6
303.307	588.4
303.698	602.8
304.089	596.8
304.48	596
304.872	599.2
305.263	589.4
305.655	581.6
306.046	593
306.438	589
306.829	588.6
307.221	604
307.613	588
308.005	592.6
308.397	612.4
308.789	607.4
309.181	608
309.573	609.4
309.965	605.6
310.357	593.6
310.749	601.6
311.142	579.8
311.534	597.2
311.926	600.6
312.319	589.4
312.711	586.6
313.104	609
313.497	594.8
313.889	627.8
314.282	600.2
314.675	610.8
315.068	593.2
315.461	590.6
315.854	616.4
316.247	593.8
316.64	600.8
317.033	597.6
317.405	596.2
317.798	592.8
318.192	595.4
318.585	586
318.979	593.8
319.372	585.6
319.766	589.8
320.16	600.6
320.553	609.6
320.947	606.6
321.341	589.6
321.735	592.8
322.129	586
322.523	605
322.917	587.8
323.311	609.2
323.705	592.2
324.099	599
324.494	605.4
324.888	604.4
325.282	592.6
325.677	597.4
326.071	596.6
326.466	602.2
326.861	596
327.255	600
327.65	608
328.045	601.6
328.44	596
328.835	594.4
329.23	584.4
329.625	607.8
330.02	586
330.415	612.2
330.81	599.2
331.206	604
331.601	585.2
331.996	599
332.37	609.2
332.766	581.4
333.161	615.8
333.557	587.4
333.953	586.8
334.348	911.8
334.744	589
335.14	589
335.536	586.8
335.932	606.2
336.328	591
336.724	600.2
337.12	588.2
337.516	589.2
337.913	595.6
338.309	604.8
338.705	587.6
339.102	598.8
339.498	581.4
339.895	603.2
340.291	595
340.688	600
341.085	581
341.481	588.2
341.878	593.2
342.275	605.2
342.672	587.6
343.069	593.4
343.466	582
343.842	606
344.239	591.2
344.636	591.2
345.033	584.8
345.431	582.2
345.828	597
346.225	587.4
346.623	623.4
347.02	592.6
347.418	604.2
347.816	606.6
348.213	584.6
348.611	597.2
349.009	585
349.407	613.4
349.805	585
350.203	579.8
350.601	598.4
350.999	580.4
351.397	634.4
351.795	586.6
352.193	597.6
352.57	595
352.969	599.2
353.367	581.4
353.766	579.8
354.164	585.8
354.563	592.8
354.961	592.8
355.36	586.8
355.759	581.2
356.158	576.4
356.557	585.6
356.956	574.6
357.355	575.2
357.754	590.8
358.153	590.6
358.552	599.8
358.951	577.2
359.35	603.4
359.75	585.4
360.149	587.8
360.527	573.4
360.926	572.2
361.326	591
361.726	585.8
362.125	581.4
362.525	588.6
362.925	588.2
363.325	584.8
363.724	591.4
364.124	583
364.524	578.4
364.924	592.8
365.324	598.6
365.725	577.6
366.125	588
366.525	586.4
366.904	577.6
367.304	570.4
367.705	601
368.105	597.4
368.506	583.4
368.906	594.8
369.307	583.6
369.708	591.4
370.108	581.8
370.509	598.8
370.91	583
371.311	586.4
371.712	588.2
372.113	579.8
372.514	577
372.894	587.8
373.295	576.4
373.696	592.8
374.097	600.2
374.499	608.4
374.9	590.8
375.301	582.6
375.703	578
376.105	584.6
376.506	591.2
376.908	593.8
377.309	586
377.711	588.6
378.113	579.4
378.493	590
378.895	578.2
379.297	589.4
379.699	578.2
380.102	592.8
380.504	585
380.906	583
381.308	600.2
381.71	586.2
382.113	587
382.515	583.8
382.918	591
383.299	580.8
383.701	591.4
384.104	589.2
384.507	577
384.909	587.4
385.312	573.8
385.715	575.4
386.118	584
386.521	573.6
386.924	596.6
387.327	572.4
387.709	579
388.112	578.4
388.515	587.2
388.918	585.6
389.322	584.8
389.725	576.8
390.129	604.2
390.532	587.4
390.936	580
391.339	582.2
391.743	587.4
392.125	584.8
392.529	593.2
392.933	589.8
393.337	581
393.74	577.8
394.144	586.8
394.548	584
394.953	586
395.357	586.4
395.761	579.8
396.144	578
396.548	581.4
396.952	588.6
397.357	582.8
397.761	586.4
398.166	580.6
398.57	577.8
398.975	579.2
399.379	589.6
399.763	625.4
400.168	581.6
400.572	581.2
400.977	581.8
401.382	596.6
401.787	597.6
402.192	599.8
402.597	595.4
403.002	572.4
403.386	595.8
403.791	600.2
404.197	581.6
404.602	591.6
405.007	585.8
405.413	587.4
405.818	589.4
406.224	577.2
406.608	586.6
407.014	576.6
407.42	600.2
407.825	578.4
408.231	593.6
408.637	591
409.043	595.8
409.449	583.4
409.834	581
410.24	586
410.646	593.4
411.052	592
411.458	588.2
411.865	591.2
412.271	591.6
412.677	592.2
413.062	590.4
413.469	575.6
413.875	606.4
414.282	589.4
414.689	583.2
415.095	593.8
415.502	586
415.888	591.2
416.294	572.2
416.701	626.2
417.108	583.8
417.515	593
417.923	585
418.33	596.8
418.715	591
419.123	588.2
419.53	577.2
419.937	589.6
420.345	604.6
420.752	583
421.16	597
421.546	588.8
421.953	600.6
422.361	576
422.769	579.6
423.177	579.4
423.585	599.4
423.992	608.6
424.379	591.8
424.787	585
425.195	600
425.603	585
426.011	595.2
426.419	601.2
426.806	591.8
427.214	591.8
427.623	597.2
428.031	610.2
428.44	589.6
428.848	605
429.235	603.8
429.644	593
430.053	598.4
430.461	609.6
430.87	614.8
431.279	608.6
431.666	602
432.075	615
432.484	619.4
432.893	609.6
433.302	643
433.711	659.8
434.099	637.2
434.508	637
434.918	630
435.327	650.4
435.737	654.8
436.125	654
436.534	666
436.944	672.2
437.353	674.8
437.763	697
438.173	685.6
438.561	704.4
438.971	680.4
439.381	701.6
439.791	712.8
440.201	704
440.589	715
440.999	720.8
441.409	729.6
441.819	725.8
442.23	750.2
442.619	754.2
443.029	750.4
443.439	753.4
443.85	760.2
444.26	773.8
444.649	776
445.06	762.6
445.471	758
445.881	766.4
446.292	785.2
446.682	788.2
447.092	758.8
447.503	818.6
447.914	784.2
448.325	777.6
448.715	801.2
449.126	775.2
449.537	785.8
449.948	791
450.338	788.4
450.75	795
451.161	790.4
451.572	804.2
451.984	790.2
452.374	782.6
452.786	795
453.197	804.2
453.609	808.2
453.999	789.4
454.411	793.6
454.823	804.8
455.235	805
455.647	801.8
456.037	804.2
456.449	792.6
456.862	801.4
457.274	811.2
457.665	786.2
458.077	817.2
458.489	839.8
458.902	806
459.293	811
459.705	811
460.118	808
460.53	810.8
460.921	813.8
461.334	812
461.747	810.8
462.16	825.6
462.551	826.4
462.964	819.4
463.377	799.6
463.79	818
464.182	820.2
464.595	814
465.008	814.6
465.421	808.6
465.813	810.8
466.226	824
466.64	810.6
467.053	848
467.445	808.6
467.859	827
468.272	811.2
468.686	826.8
469.078	804.4
469.492	796.2
469.906	817.8
470.298	824.8
470.712	799.8
471.126	845
471.54	793.6
471.933	794.6
472.347	813.4
472.761	796
473.175	810.2
473.568	799.8
473.982	796.4
474.397	809.2
474.79	805.8
475.204	812.2
475.619	805.8
476.033	802.4
476.426	801.2
476.841	795.8
477.256	816
477.649	788.8
478.064	787.6
478.479	790
478.872	793.6
479.287	785.8
479.702	785
480.118	784.2
480.511	788.6
480.927	797.8
481.342	783
481.736	793.4
482.151	781.4
482.566	800.4
482.96	788.8
483.376	797.8
483.792	786.4
484.186	789.6
484.602	772.6
485.017	781.4
485.412	779
485.827	782.4
486.243	785.8
486.638	796.8
487.054	787.4
487.47	784
487.865	780.4
488.281	763.8
488.697	761.8
489.092	766.8
489.508	765
489.925	781.6
490.32	761
490.736	771.6
491.153	765.8
491.548	762
491.964	761.4
492.381	745.8
492.776	765.8
493.193	754.4
493.61	764
494.006	761
494.422	761.8
494.84	740.8
495.235	758.6
495.652	757.6
496.069	751.8
496.465	737
496.883	743.8
497.3	765
497.696	741.8
498.113	746.2
498.509	737
498.927	724.2
499.344	737.6
499.741	724.6
500.158	748.8
500.576	742.2
500.973	738
501.39	723.6
501.787	714.8
502.205	727.4
502.623	714.2
503.02	718.2
503.438	716
503.856	718.6
504.253	723
504.671	722.8
505.068	712.8
505.486	712
505.905	737.4
506.302	713.2
506.72	724
507.118	706.2
507.536	705
507.955	700.8
508.352	707.4
508.771	710.6
509.169	706.6
509.587	697.2
510.006	700.4
510.404	689.8
510.823	694.2
511.221	689.6
511.64	690
512.038	710.6
512.457	698.8
512.877	696.8
513.275	688.6
513.694	691.8
514.092	686
514.512	692.2
514.91	692.8
515.33	676.2
515.749	684
516.148	677.8
516.568	685.2
516.966	681.6
517.386	669.6
517.785	677.8
518.205	676.2
518.603	673.4
519.024	669.2
519.444	678.2
519.843	678.2
520.263	679
520.662	684
521.082	662.4
521.481	664.4
521.902	669.6
522.301	664.8
522.722	662.2
523.121	670.4
523.542	659.4
523.963	656.2
524.362	666.8
524.783	665.4
525.183	659.8
525.604	668.4
526.003	649.4
526.425	653.2
526.824	656
527.246	662.2
527.646	662.8
528.067	653.4
528.467	655
528.888	657.4
529.289	646.8
529.71	651.8
530.11	649.4
530.532	644.2
530.932	640.6
531.354	643.4
531.755	674.4
532.176	645.4
532.577	640.6
532.999	650.4
533.4	631.2
533.822	648.8
534.223	648.2
534.645	643.4
535.046	637.6
535.468	640.8
535.869	653.4
536.292	627.8
536.693	659.8
537.115	639.8
537.516	632.2
537.939	636.6
538.34	648.6
538.742	642
539.165	640.4
539.566	640.2
539.989	624.6
540.391	628
540.814	632.4
541.216	636.6
541.639	632.8
542.041	643
542.464	628.2
542.866	629.4
543.268	624
543.691	635.2
544.093	635.2
544.517	640.6
544.919	616.6
545.343	650.4
545.745	621.8
546.147	630.6
546.571	624.6
546.974	608.2
547.398	620.8
547.8	635
548.224	616.8
548.627	606.4
549.03	622.4
549.454	619.8
549.857	614.4
550.281	616.2
550.684	605.4
551.087	623
551.512	617.4
551.915	622.8
552.34	619.2
552.743	609.8
553.146	617.2
553.571	612.4
553.975	626.2
554.399	611.8
554.803	652.8
555.207	605.6
555.632	604
556.036	610.6
556.461	606.6
556.865	613.2
557.268	605
557.694	613.2
558.098	613.8
558.502	612.6
558.927	606
559.332	603.4
559.736	600.8
560.162	613.8
560.566	609.2
560.992	618.2
561.396	610
561.801	600
562.227	608.2
562.631	610.2
563.036	604
563.462	616
563.867	599.4
564.272	595.2
564.698	609.4
565.103	595.8
565.508	617.2
565.935	605.4
566.34	593.8
566.745	615.6
567.172	599.8
567.577	607.6
567.982	605.2
568.409	606.6
568.815	590
569.22	602.4
569.626	605.6
570.053	591.8
570.459	599.6
570.865	592.8
571.292	603.6
571.698	599.2
572.104	589.8
572.531	591.4
572.937	608.8
573.343	600.4
573.75	587.6
574.177	587.6
574.583	600.6
574.99	593.6
575.396	604.6
575.824	591.8
576.231	599.4
576.637	593.6
577.065	620.2
577.472	592
577.879	593.4
578.286	607
578.714	593
579.121	594.8
579.528	596.8
579.935	599.6
580.364	588.6
580.771	573.2
581.178	580.2
581.585	586.8
582.014	597
582.421	584.6
582.829	591.4
583.236	589.6
583.644	588
584.073	588.4
584.481	591
584.889	583.8
585.296	598.8
585.726	590.6
586.134	579.6
586.542	582.8
586.95	601.6
587.358	583
587.787	588.8
588.196	597.4
588.604	572
589.012	590
589.421	583.6
589.851	576
590.259	588.4
590.668	576
591.076	618.2
591.485	579.4
591.894	580.6
592.324	597.6
592.733	592.6
593.142	566.2
593.551	589.4
593.96	581.6
594.369	579.8
594.8	577.6
595.209	580.2
595.618	567.4
596.028	578.2
596.437	575.4
596.847	585.2
597.256	583.6
597.687	586.2
598.097	579.4
598.507	577.2
598.917	586.6
599.327	587
599.736	576.6
600.146	585
600.556	580.6
600.988	597
601.398	577.6
601.808	580
602.219	568.6
602.629	578.8
603.039	582.8
603.45	599.6
603.86	588.8
604.271	588.6
604.703	577.8
605.114	575
605.525	587.4
605.935	588.8
606.346	599
606.757	588.2
607.168	583.8
607.579	572.4
607.99	590.6
608.402	575.4
608.813	576.6
609.224	572.8
609.636	575
610.047	578.8
610.48	582.2
610.892	575.8
611.303	591.4
611.715	576.8
612.127	571.6
612.539	573.8
612.95	575
613.362	571.4
613.774	567.4
614.186	568.6
614.599	571.6
615.011	585.4
615.423	575.8
615.835	579.4
616.248	575.6
616.66	587.6
617.073	564
617.485	577
617.898	578.8
618.311	569.8
618.723	575.6
619.136	601.2
619.549	589.6
619.962	590.8
620.375	570.4
620.788	581.4
621.201	568.6
621.614	581
622.028	572.4
622.441	585.2
622.854	581.8
623.268	575.4
623.681	575.6
624.095	574.2
624.509	589.4
624.922	584.8
625.336	575.4
625.728	575.4
626.142	587.4
626.556	596.4
626.97	584.4
627.384	573.4
627.799	577.6
628.213	585.6
628.627	567.6
629.041	568.4
629.456	567
629.87	579.6
630.285	583
630.699	582.2
631.093	572.2
631.507	585.2
631.922	572.8
632.337	588.2
632.752	570.2
633.167	573.4
633.582	572.4
633.997	575.4
634.412	572.6
634.806	576.6
635.221	568.2
635.637	588.6
636.052	563
636.468	577.8
636.883	589.8
637.299	574.4
637.715	562.6
638.109	570.2
638.525	572.4
638.941	584.4
639.357	573
639.773	585
640.189	569.4
640.584	571.6
641	569
641.416	571.6
641.832	568.6
642.249	569.6
642.665	579.2
643.06	579.4
643.477	574.2
643.894	558.8
644.31	566.2
644.727	568.8
645.123	573.4
645.54	556.6
645.957	571.2
646.374	575.4
646.77	575.6
647.187	592.8
647.604	573.4
648.021	563.2
648.439	565.8
648.835	574.6
649.252	570.2
649.67	563
650.088	571.2
650.484	574.6
650.902	569
651.32	579.6
651.738	556.6
652.134	566.4
652.552	578.2
652.971	570.6
653.389	568.4
653.786	583.4
654.204	588
654.622	569.8
655.019	582.2
655.438	568.2
655.857	574
656.275	568
656.673	564.6
657.091	570.6
657.51	572.8
657.908	571
658.327	585.4
658.746	564.6
659.144	569.2
659.563	586.6
659.982	576.4
660.38	559.8
660.8	566.2
661.219	578.2
661.617	570.4
662.037	573.8
662.457	577.8
662.855	554.6
663.275	596.2
663.695	567.2
664.094	563.8
664.514	580
664.934	566.2
665.333	576.4
665.753	564
666.152	562.8
666.572	561.8
666.993	575.8
667.392	575.6
667.812	573.4
668.212	566.6
668.632	575.8
669.053	566.2
669.453	577
669.874	571.8
670.273	575.6
670.694	560
671.116	579.6
671.515	570.4
671.937	552.2
672.337	563.4
672.758	562.2
673.158	576.6
673.58	563.8
673.98	573.8
674.402	573.8
674.824	568.8
675.224	564.6
675.646	562.6
676.047	564.8
676.469	561.2
676.869	571.8
677.292	578.4
677.693	570.2
678.115	571.8
678.516	578.8
678.939	582.4
679.34	568
679.762	578.6
680.164	577.6
680.586	564
680.988	576
681.411	587.8
681.812	567
682.236	565.2
682.637	558.6
683.061	565.8
683.462	570.4
683.864	572.2
684.288	572.2
684.69	560.4
685.114	567.8
685.516	576.4
685.94	557.6
686.342	570.6
686.766	562.6
687.168	559.8
687.571	571.6
687.995	567.2
688.398	563.8
688.822	564.2
689.225	581.4
689.628	581.6
690.052	571.6
690.456	572.6
690.88	570.2
691.284	563.2
691.687	574.2
692.112	558.8
692.515	564
692.919	573
693.344	571.4
693.747	563.2
694.173	556.2
694.577	572.6
694.98	571.4
695.406	561.4
695.81	569.6
696.214	572.8
696.64	564.2
697.044	569.4
697.448	572.4
697.874	569.6
698.279	568.4
698.684	565
699.11	562.6
699.514	567
699.919	568.4
700.324	567
700.75	568.8
701.156	570.8
701.561	577
701.987	566.4
702.393	578
702.798	578.6
703.203	561.4
703.63	568.6
704.036	561.2
704.442	563.6
704.847	559.2
705.274	563.6
705.68	572.4
706.086	571.4
706.492	553.2
706.92	568
707.326	578.6
707.732	570.6
708.139	560.6
708.545	557.2
708.973	558.6
709.38	567.2
709.786	560.8
710.193	576.2
710.6	566.4
711.028	555
711.435	565.2
711.842	570.8
712.249	561.2
712.656	562.8
713.064	572.2
713.492	560.6
713.9	564
714.307	565.4
714.715	558.8
715.123	563.4
715.53	562.4
715.938	571.8
716.367	571.4
716.775	564.4
717.184	558.2
717.592	557.6
718	569.6
718.408	592
718.816	601
719.225	565.8
719.633	569.4
720.042	562.6
720.472	567.2
720.881	579
721.29	564.8
721.699	560.8
722.108	568.2
722.517	564.6
722.926	564
723.335	566.4
723.744	559.6
724.154	564
724.563	560.8
724.973	560
725.382	570
725.792	564
726.202	558.2
726.612	591.4
727.022	565.8
727.432	556
779.813	558.2
780.223	598.8
780.634	566.8
781.044	559.4
781.454	555.2
781.865	577.2
782.276	559
782.686	577.8
783.097	558.2
783.508	563
783.919	568
784.33	576.4
784.741	574
785.152	558.8
785.563	555
785.974	559.8
786.386	573.4
786.776	558.8
787.188	575.8
787.599	556.2
788.011	574.2
788.423	558.2
788.835	568.4
789.247	560.2
789.659	559.6
790.071	564
790.483	607.2
790.874	563.6
791.286	574.6
791.699	563.4
792.111	554.8
792.524	566
792.937	565
793.349	558
793.741	561.6
794.154	555.8
794.567	577.2
794.98	558
795.393	552.8
795.785	575.6
796.198	559.4
796.612	553.6
797.026	555.8
797.439	556.4
797.831	559
798.245	556.6
798.659	553.8
799.073	553.4
799.487	551.8
799.88	560
800.294	566.4
800.708	565.8
801.123	561.8
801.516	583.6
801.93	551.8
802.345	550.4
802.76	563.4
803.153	581.6
803.568	569.8
803.983	571.8
804.377	564.8
804.792	557.4
805.207	554
805.601	566.4
806.016	592.4
806.432	562.8
806.826	589.2
807.242	584.8
807.658	562.8
808.052	555.6
808.468	566.4
808.884	559.2
809.279	561.8
809.695	570.8
810.111	587
810.506	562.6
810.922	577.8
811.339	556.6
811.734	566.8
812.151	558.8
812.546	558.6
812.963	553.4
813.38	560.6
813.776	571.6
814.193	576.6
814.589	554.2
815.006	562.6
815.402	558.8
815.82	564.4
816.237	564.4
816.633	568
817.051	552.8
817.448	563.4
817.866	555.8
818.262	573
818.68	562
819.077	561.6
819.495	564.4
819.892	602.6
820.311	563.4
820.708	562.2
821.127	562.6
821.524	573.4
821.943	558
822.34	578.2
822.759	565.6
823.157	562.2
823.576	583.6
823.974	571.6
824.393	573
824.791	556.4
825.189	554
825.609	559.8
826.007	569
826.427	557.6
826.826	562.4
827.246	565.8
827.644	552.2
828.043	572.8
828.463	558.4
828.862	571.6
829.261	570.6
829.682	554.2
830.081	573
830.502	565
830.901	560.6
831.301	575
831.722	556.4
832.121	566
832.521	553.6
832.943	562.4
833.342	559.4
833.742	554.8
834.164	558
834.564	541.4
834.965	560.6
835.386	563
835.787	558.8
836.188	550.4
836.588	557.4
837.01	560
837.411	549.8
837.812	564.2
838.213	561.4
838.636	558
839.037	617
839.438	556.6
839.84	563.8
840.263	572.8
840.664	569.2
841.066	556.6
841.468	565.6
841.891	559.4
842.293	569
842.695	567
843.098	571.8
843.5	555.6
843.902	562.8
844.326	570.8
844.729	560.2
845.131	572
845.534	569.4
845.937	575.2
846.34	570.6
846.764	559
847.167	568
847.571	556.2
847.974	558.2
848.377	567
848.781	603
849.184	575
849.588	553.8
849.992	558
850.396	561.8
850.821	579
851.225	565
851.63	556.6
852.034	572.6
852.438	564.4
852.843	631.4
853.247	560.8
853.652	558
854.057	579.4
854.462	565
854.867	565
855.272	581.4
855.677	569.2
856.082	557
856.487	543.4
856.893	562.6
