#lambda/nm	C1
208.295	540.2
208.67	486.4
209.045	453.8
209.419	445.4
209.794	608.4
210.169	589.8
210.544	693
210.919	613
211.295	599.4
211.67	606
212.045	602
212.421	594.8
212.796	641.6
213.172	600
213.547	597
213.923	601.8
214.299	597.8
214.675	607.4
215.051	606.2
215.427	603.8
215.803	617.2
216.179	608
216.555	592.4
216.932	604.8
217.308	604.4
217.684	607
218.061	603.4
218.438	606.4
218.814	601.8
219.191	607.6
219.568	594.2
219.945	599.4
220.322	601.4
220.699	604.2
221.076	608
221.453	603.8
221.83	596
222.208	597.2
222.585	600.2
222.962	607.4
223.34	606.4
223.717	599.8
224.095	601
224.473	599.6
224.851	588.6
225.229	588.2
225.607	618.8
225.985	590.6
226.363	605.4
226.741	606.2
227.119	606.8
227.497	612
227.876	594.8
228.254	611.2
228.633	594.4
229.011	601.6
229.39	598.6
229.769	604.8
230.148	611.8
230.527	621.6
230.905	600.2
231.284	605.4
231.664	603.2
232.043	610
232.422	607.2
232.801	596.8
233.181	610.6
233.56	597.4
233.94	604
234.319	593
234.699	595.2
235.079	632.8
235.458	634.6
235.838	609.4
236.218	588
236.598	587.6
236.978	598.4
237.358	599
237.738	596.8
238.119	608.8
238.499	586.4
238.88	605.6
239.26	607
239.641	584
240.021	594.2
240.402	598
240.783	594.8
241.163	602.4
241.544	607.6
241.925	603.6
242.306	612
242.687	605.4
243.069	603.8
243.45	607.8
243.831	590.6
244.212	601.6
244.594	634.6
244.975	613
245.357	600.8
245.739	587.4
246.12	604.6
246.502	623.4
246.884	602
247.266	602
247.648	606
248.03	619.6
248.412	604
248.794	614.8
249.176	597.2
249.559	610.4
249.941	594.2
250.323	592.4
250.706	594.4
251.089	604.4
251.471	611.6
251.854	606.2
252.237	607
252.62	610.8
253.002	593.4
253.385	597.6
253.769	624
254.152	604.8
254.535	614
254.918	596.8
255.301	598
255.685	593.2
256.068	592.6
256.452	624.8
256.835	618.4
257.219	611.2
257.603	613
257.986	594.6
258.37	608.6
258.754	592
259.138	605.6
259.522	613.8
259.906	600.6
260.29	602.6
260.675	597.2
261.059	603.4
261.443	589.2
261.828	606.4
262.212	600
262.597	588.8
262.981	594
263.366	610.4
263.751	598.6
264.136	592.2
264.521	602.6
264.906	592
265.291	603.4
265.676	598.2
266.061	600.2
266.446	622.4
266.831	596.6
267.217	620.6
267.602	608.4
267.987	607.2
268.373	603
268.759	613.8
269.144	608.2
269.53	600.8
269.916	596.4
270.302	603.2
270.688	598.4
271.074	604
271.46	612.6
271.846	626.8
272.232	604.8
272.618	596.6
273.004	593.4
273.391	616.6
273.777	618.2
274.164	607.8
274.55	613.4
274.937	608.6
275.324	601
275.71	605.6
276.097	600.6
276.484	598.4
276.871	604
277.258	607.6
277.645	592.2
278.032	597.6
278.419	601
278.807	605.8
279.194	593.2
279.581	597.4
279.969	607.8
280.356	599.2
280.744	605.2
281.131	630.4
281.519	616.4
281.907	597
282.295	596.2
282.682	609.8
283.07	601.2
283.458	614
283.846	618.4
284.235	614.4
284.623	603.4
285.011	591
285.399	607.6
285.788	598.4
286.176	588.4
286.565	607.2
286.953	593
287.342	593.4
287.731	595.8
288.119	590.2
288.508	593.4
288.897	597.2
289.286	592.4
289.675	603.6
290.064	607.2
290.453	596.6
290.821	602.4
291.21	621.6
291.599	596
291.989	597.2
292.378	604.6
292.768	619.8
293.157	599
293.547	602.2
293.936	598.2
294.326	595.2
294.716	605.2
295.106	605
295.496	603.8
295.886	603
296.276	598.8
296.666	592.8
297.056	597
297.446	584
297.836	617
298.227	598.6
298.617	602.4
299.008	621.4
299.398	598.2
299.789	604.8
300.179	605.6
300.57	618.4
300.961	602.2
301.352	590
301.742	605
302.133	602.8
302.524	602
302.915	605.8
303.307	589.2
303.698	617
304.089	610.2
304.48	604.4
304.872	595.6
305.263	607
305.655	604.2
306.046	610.6
306.438	602.4
306.829	597.8
307.221	620.2
307.613	613.4
308.005	618
308.397	619.4
308.789	621.4
309.181	613.2
309.573	614.6
309.965	617
310.357	595.6
310.749	606.6
311.142	595.6
311.534	594.4
311.926	603.6
312.319	599
312.711	600.8
313.104	617.2
313.497	596.6
313.889	638.6
314.282	611.2
314.675	624.6
315.068	599.6
315.461	605.2
315.854	635.2
316.247	608.4
316.64	606.4
317.033	599.4
317.405	612.8
317.798	599.8
318.192	610.4
318.585	595.4
318.979	604.4
319.372	605.2
319.766	593.6
320.16	610
320.553	612
320.947	617
321.341	599.2
321.735	602.4
322.129	581.6
322.523	627.4
322.917	588.6
323.311	617.4
323.705	606.2
324.099	606.6
324.494	621.6
324.888	603
325.282	602.4
325.677	613.4
326.071	607
326.466	615.8
326.861	597.2
327.255	616.8
327.65	611.4
328.045	606.8
328.44	609.6
328.835	608.6
329.23	601.2
329.625	619
330.02	599.6
330.415	624.8
330.81	604.4
331.206	598.6
331.601	603
331.996	610
332.37	623.2
332.766	599.4
333.161	623.6
333.557	598.2
333.953	601
334.348	937
334.744	607.6
335.14	601.6
335.536	596
335.932	614.2
336.328	603.4
336.724	607.6
337.12	598.2
337.516	599.6
337.913	609
338.309	614.6
338.705	602.8
339.102	612
339.498	602.2
339.895	614.2
340.291	604.6
340.688	609.2
341.085	593.6
341.481	600.6
341.878	598.2
342.275	607.2
342.672	598.6
343.069	608
343.466	591.6
343.842	608.6
344.239	595.8
344.636	601.2
345.033	591
345.431	594.4
345.828	607.4
346.225	592.4
346.623	626.4
347.02	597.6
347.418	599.6
347.816	613
348.213	592.4
348.611	604
349.009	600.6
349.407	609.4
349.805	590.4
350.203	591
350.601	608.8
350.999	591
351.397	657
351.795	611.2
352.193	614.6
352.57	613
352.969	615.4
353.367	595.2
353.766	592
354.164	597.2
354.563	614.2
354.961	602.2
355.36	591.6
355.759	594
356.158	588.6
356.557	597
356.956	593.8
357.355	589.8
357.754	596
358.153	604
358.552	621.8
358.951	599.4
359.35	602.6
359.75	596
360.149	589.2
360.527	590.8
360.926	589.4
361.326	595.8
361.726	596.4
362.125	590.2
362.525	607.2
362.925	595.2
363.325	599.6
363.724	601.4
364.124	594.2
364.524	591.4
364.924	597
365.324	602
365.725	581.6
366.125	602.6
366.525	596.6
366.904	591
367.304	583
367.705	609.2
368.105	610.6
368.506	593
368.906	595.6
369.307	596
369.708	605
370.108	586.2
370.509	603.4
370.91	591.2
371.311	597.4
371.712	588
372.113	600.6
372.514	586
372.894	589.4
373.295	598.8
373.696	604.6
374.097	610
374.499	622.8
374.9	597.8
375.301	594.2
375.703	598.4
376.105	592.4
376.506	599
376.908	598.6
377.309	601.6
377.711	599.2
378.113	595.2
378.493	594.2
378.895	598.8
379.297	604.2
379.699	585.6
380.102	592.8
380.504	596.8
380.906	590.2
381.308	621.8
381.71	588.2
382.113	604.6
382.515	589.6
382.918	595.2
383.299	591.6
383.701	603.6
384.104	600.2
384.507	577.6
384.909	592.6
385.312	585.2
385.715	588.2
386.118	589.2
386.521	581
386.924	600.4
387.327	585.2
387.709	585
388.112	579.8
388.515	591.6
388.918	590.8
389.322	602.4
389.725	592.6
390.129	620.8
390.532	599.4
390.936	592.4
391.339	586.6
391.743	600.2
392.125	587.4
392.529	601.2
392.933	606.4
393.337	593
393.74	593.6
394.144	593.4
394.548	582.4
394.953	593.2
395.357	597
395.761	591.6
396.144	592.2
396.548	588.2
396.952	583.4
397.357	596.8
397.761	592.2
398.166	586.6
398.57	588.2
398.975	579.8
399.379	590
399.763	631.4
400.168	593.2
400.572	598.4
400.977	602.4
401.382	611.4
401.787	602
402.192	612
402.597	604.2
403.002	579.4
403.386	610.6
403.791	612.4
404.197	593
404.602	594.4
405.007	597.2
405.413	591.2
405.818	598.6
406.224	588
406.608	594
407.014	589.4
407.42	603.4
407.825	598
408.231	601.4
408.637	596
409.043	605
409.449	586.8
409.834	589.6
410.24	591.4
410.646	603.8
411.052	593.4
411.458	598.6
411.865	601.8
412.271	600.4
412.677	599
413.062	602.2
413.469	590
413.875	616.8
414.282	609
414.689	600.4
415.095	602.2
415.502	587.4
415.888	591
416.294	581
416.701	632.2
417.108	591.2
417.515	600
417.923	592.2
418.33	609.6
418.715	601.2
419.123	590.2
419.53	588.2
419.937	589.6
420.345	606.4
420.752	590.4
421.16	608.6
421.546	603
421.953	596.4
422.361	593.8
422.769	598.6
423.177	591
423.585	614
423.992	624
424.379	608.6
424.787	604.8
425.195	615.2
425.603	602.8
426.011	607
426.419	611.8
426.806	602.6
427.214	601
427.623	618.4
428.031	613.8
428.44	605.4
428.848	614
429.235	617
429.644	606
430.053	608.4
430.461	628.4
430.87	640
431.279	623.2
431.666	618.4
432.075	634.8
432.484	628.4
432.893	637.6
433.302	669
433.711	687
434.099	652.6
434.508	656.8
434.918	660.6
435.327	686.4
435.737	690
436.125	699
436.534	700.4
436.944	701.6
437.353	725.2
437.763	741.8
438.173	724.8
438.561	752.6
438.971	727.8
439.381	751.2
439.791	769
440.201	749.6
440.589	786.6
440.999	789.6
441.409	793.2
441.819	789.4
442.23	811.6
442.619	809.8
443.029	817.2
443.439	813.6
443.85	827
444.26	848.4
444.649	840
445.06	840.4
445.471	836.6
445.881	833.8
446.292	859.4
446.682	862.8
447.092	838.8
447.503	903.6
447.914	856
448.325	864.4
448.715	862.6
449.126	860.8
449.537	853.4
449.948	865.6
450.338	865.8
450.75	879
451.161	882.4
451.572	877.2
451.984	872
452.374	865
452.786	882
453.197	877.4
453.609	881.4
453.999	872.6
454.411	875.2
454.823	899.8
455.235	894.4
455.647	886
456.037	895
456.449	874.4
456.862	889.2
457.274	894
457.665	886.6
458.077	885.8
458.489	917
458.902	889.6
459.293	897.6
459.705	898
460.118	888.8
460.53	903.8
460.921	897.4
461.334	889.4
461.747	900
462.16	907.8
462.551	915.4
462.964	895.2
463.377	889.6
463.79	888.6
464.182	910.4
464.595	893.8
465.008	903.4
465.421	907.6
465.813	911.8
466.226	909.8
466.64	901.2
467.053	938.2
467.445	909.8
467.859	923.8
468.272	895
468.686	909.4
469.078	917
469.492	887.2
469.906	892.8
470.298	903.6
470.712	901.6
471.126	943.2
471.54	889
471.933	896.2
472.347	897.2
472.761	892.2
473.175	895.6
473.568	891
473.982	881.8
474.397	885.4
474.79	895.8
475.204	903.2
475.619	888.8
476.033	878.2
476.426	883.4
476.841	868.8
477.256	897
477.649	874.2
478.064	867
478.479	877.4
478.872	869
479.287	867.4
479.702	863.8
480.118	862.6
480.511	871
480.927	865.8
481.342	859.4
481.736	870.6
482.151	851.6
482.566	872.6
482.96	858.8
483.376	862.4
483.792	853.6
484.186	858.6
484.602	842
485.017	855.6
485.412	848.2
485.827	849.8
486.243	855.2
486.638	863.8
487.054	848.8
487.47	858.6
487.865	845.4
488.281	840.4
488.697	828.2
489.092	824.6
489.508	827.8
489.925	835.8
490.32	827
490.736	827.6
491.153	839.6
491.548	821.2
491.964	835.2
492.381	813.4
492.776	821
493.193	819.8
493.61	820.2
494.006	808.6
494.422	827
494.84	815.2
495.235	818.4
495.652	809.6
496.069	809.4
496.465	796.8
496.883	798.2
497.3	831.8
497.696	795.6
498.113	805.2
498.509	778.8
498.927	788.2
499.344	796.4
499.741	784.8
500.158	804.4
500.576	788.6
500.973	787.4
501.39	772.4
501.787	773.6
502.205	778.2
502.623	781.2
503.02	778
503.438	770
503.856	774.6
504.253	772.6
504.671	769.4
505.068	754.4
505.486	769.8
505.905	785.2
506.302	772
506.72	766.6
507.118	752.2
507.536	760.2
507.955	749.2
508.352	756
508.771	751
509.169	759.6
509.587	746
510.006	747
510.404	739.8
510.823	741.4
511.221	740.8
511.64	732.2
512.038	745.2
512.457	744.8
512.877	732
513.275	715
513.694	727
514.092	731.8
514.512	724
514.91	729.6
515.33	723.4
515.749	734
516.148	729.8
516.568	718
516.966	709.8
517.386	710.6
517.785	716.8
518.205	714.6
518.603	708.4
519.024	703
519.444	717.2
519.843	719.6
520.263	711.6
520.662	718.2
521.082	703.4
521.481	702.4
521.902	707.2
522.301	706.4
522.722	706
523.121	697.8
523.542	694.8
523.963	704.4
524.362	688.2
524.783	698.8
525.183	697.4
525.604	702.6
526.003	683.6
526.425	692.4
526.824	694
527.246	694.6
527.646	693.4
528.067	676
528.467	685.4
528.888	692.6
529.289	681.2
529.71	678
530.11	675
530.532	673
530.932	664.8
531.354	662.2
531.755	704.8
532.176	682.2
532.577	677.6
532.999	675.8
533.4	666
533.822	681
534.223	679
534.645	666
535.046	664
535.468	670.6
535.869	671.6
536.292	661.2
536.693	697
537.115	671.8
537.516	663.8
537.939	671.4
538.34	679
538.742	673.2
539.165	663
539.566	658
539.989	650.8
540.391	657.6
540.814	659.6
541.216	658
541.639	659
542.041	665.8
542.464	650.2
542.866	654.2
543.268	650.4
543.691	653.2
544.093	655
544.517	666.8
544.919	652
545.343	670.6
545.745	641.8
546.147	647.2
546.571	656.8
546.974	639.8
547.398	649
547.8	660.6
548.224	643.2
548.627	636.6
549.03	646.8
549.454	639.2
549.857	628.8
550.281	635.8
550.684	642
551.087	648.4
551.512	646.2
551.915	639.8
552.34	647.6
552.743	626.2
553.146	644.6
553.571	637
553.975	649
554.399	618.6
554.803	676
555.207	626.8
555.632	628.4
556.036	634.8
556.461	624.4
556.865	625.8
557.268	617.8
557.694	624.2
558.098	628.6
558.502	622.8
558.927	626.8
559.332	630.2
559.736	621.8
560.162	629.8
560.566	620.4
560.992	628.2
561.396	622.8
561.801	618.8
562.227	625.2
562.631	621.4
563.036	609.8
563.462	633.2
563.867	629.8
564.272	610.4
564.698	619.6
565.103	607.2
565.508	641.2
565.935	620.2
566.34	617.8
566.745	632
567.172	620.2
567.577	639
567.982	630
568.409	612.4
568.815	609
569.22	620.4
569.626	632.2
570.053	605.2
570.459	625.4
570.865	622.2
571.292	616.6
571.698	614.4
572.104	593.4
572.531	613
572.937	624.8
573.343	609.2
573.75	608.2
574.177	618.4
574.583	613
574.99	608.2
575.396	618.4
575.824	614.6
576.231	617.4
576.637	608.6
577.065	640.8
577.472	608.2
577.879	605.8
578.286	610.2
578.714	606.8
579.121	591.8
579.528	613.8
579.935	612.4
580.364	604.6
580.771	594.2
581.178	597.8
581.585	611
582.014	618.2
582.421	593.8
582.829	602.2
583.236	612.4
583.644	604.2
584.073	604.4
584.481	604.6
584.889	601.4
585.296	615
585.726	596.8
586.134	593.2
586.542	596
586.95	623
587.358	593.2
587.787	597.2
588.196	602.2
588.604	601.2
589.012	591.6
589.421	593.2
589.851	584.4
590.259	608.2
590.668	589.4
591.076	631.8
591.485	591.4
591.894	603.4
592.324	602
592.733	601.4
593.142	591.2
593.551	588.6
593.96	622.8
594.369	586.4
594.8	588.8
595.209	599.4
595.618	587.2
596.028	590
596.437	591.6
596.847	596.6
597.256	596.2
597.687	600.2
598.097	601.4
598.507	583.4
598.917	596
599.327	601.8
599.736	596.6
600.146	597.6
600.556	599.6
600.988	608.4
601.398	593.6
601.808	597.6
602.219	573.2
602.629	594.4
603.039	594.4
603.45	613.6
603.86	596.4
604.271	602.6
604.703	590.8
605.114	590.8
605.525	586.8
605.935	593.2
606.346	616
606.757	602
607.168	595.4
607.579	588.6
607.99	600.2
608.402	588.8
608.813	593.2
609.224	582.2
609.636	579.6
610.047	592.4
610.48	584.4
610.892	593
611.303	599.6
611.715	592
612.127	579.4
612.539	580
612.95	595.6
613.362	577.2
613.774	582.2
614.186	581.4
614.599	589.2
615.011	590.8
615.423	587.8
615.835	581.4
616.248	580.4
616.66	599.6
617.073	581.4
617.485	586.2
617.898	596
618.311	587.8
618.723	593.4
619.136	614
619.549	611.2
619.962	613.2
620.375	588.4
620.788	582.2
621.201	586
621.614	597.2
622.028	586.4
622.441	597.8
622.854	603.6
623.268	581.4
623.681	593.8
624.095	589.6
624.509	586.2
624.922	601.2
625.336	578
625.728	584.6
626.142	594
626.556	599.8
626.97	594.8
627.384	576.8
627.799	590.2
628.213	600.2
628.627	583.2
629.041	587.8
629.456	580.4
629.87	588
630.285	597.4
630.699	591.4
631.093	583
631.507	587
631.922	595
632.337	599.8
632.752	589
633.167	594.8
633.582	591.6
633.997	576.2
634.412	585.2
634.806	592.4
635.221	581.6
635.637	600.4
636.052	579.6
636.468	586.2
636.883	603.6
637.299	585.8
637.715	566.4
638.109	586
638.525	575
638.941	604.8
639.357	591.4
639.773	600.2
640.189	574
640.584	589
641	585
641.416	580.6
641.832	583
642.249	583.2
642.665	591.2
643.06	592.2
643.477	597.4
643.894	571.4
644.31	586.4
644.727	589.2
645.123	577.2
645.54	574.2
645.957	587.6
646.374	589.4
646.77	590.6
647.187	614.8
647.604	577.2
648.021	572.8
648.439	571.8
648.835	587
649.252	583
649.67	574
650.088	576.4
650.484	576.2
650.902	593
651.32	585
651.738	575.8
652.134	586.2
652.552	600
652.971	583.8
653.389	586.6
653.786	597.6
654.204	597.2
654.622	576.8
655.019	592.6
655.438	584.6
655.857	576.4
656.275	577.6
656.673	585.6
657.091	589.4
657.51	570.6
657.908	586.6
658.327	596.4
658.746	565.6
659.144	582
659.563	593.8
659.982	577.2
660.38	570
660.8	579.6
661.219	588.2
661.617	589.2
662.037	586.2
662.457	593.6
662.855	570.4
663.275	605.8
663.695	578
664.094	579.6
664.514	589.8
664.934	577.2
665.333	595
665.753	576.6
666.152	565.4
666.572	567.2
666.993	591.6
667.392	578.6
667.812	581.6
668.212	580.2
668.632	580.2
669.053	574
669.453	586.8
669.874	587.4
670.273	583
670.694	570.4
671.116	592
671.515	583.4
671.937	580.4
672.337	572.8
672.758	580
673.158	585.2
673.58	570.2
673.98	579.8
674.402	584.4
674.824	577.6
675.224	583.2
675.646	570.4
676.047	575.6
676.469	582
676.869	576.2
677.292	577.2
677.693	572
678.115	573.8
678.516	586
678.939	584.8
679.34	574.2
679.762	589.2
680.164	581.6
680.586	568.4
680.988	585.6
681.411	594.6
681.812	571.2
682.236	579.6
682.637	568
683.061	571.6
683.462	584.6
683.864	573.8
684.288	582
684.69	571.8
685.114	580.4
685.516	578.2
685.94	572.8
686.342	573.4
686.766	567.8
687.168	570.2
687.571	594.4
687.995	578.8
688.398	561
688.822	575.8
689.225	590.6
689.628	594.4
690.052	578.4
690.456	585.4
690.88	588.2
691.284	576.2
691.687	584.4
692.112	569.8
692.515	565.2
692.919	572.4
693.344	576.2
693.747	575
694.173	571.4
694.577	577.8
694.98	569.6
695.406	577.4
695.81	577.4
696.214	577.4
696.64	581.6
697.044	585.4
697.448	585.6
697.874	574.6
698.279	574.8
698.684	573.4
699.11	570.8
699.514	576.2
699.919	570.2
700.324	563.6
700.75	577.8
701.156	569.8
701.561	591.8
701.987	589.4
702.393	588.4
702.798	585.2
703.203	574.2
703.63	573.2
704.036	567.8
704.442	570.8
704.847	568.8
705.274	569.4
705.68	583.6
706.086	576.4
706.492	567
706.92	572.6
707.326	591.4
707.732	563.4
708.139	570
708.545	567
708.973	568.2
709.38	574.2
709.786	559.8
710.193	586
710.6	574.4
711.028	561.8
711.435	575.6
711.842	568
712.249	567
712.656	571.6
713.064	581.4
713.492	565.4
713.9	572.8
714.307	587.4
714.715	572
715.123	577.6
715.53	579.6
715.938	578.8
716.367	579.2
716.775	573
717.184	569.8
717.592	580
718	579
718.408	604.6
718.816	610.2
719.225	579.2
719.633	576.2
720.042	567.8
720.472	580.2
720.881	590.2
721.29	586.4
721.699	563.8
722.108	578.8
722.517	575
722.926	563.4
723.335	581.6
723.744	573
724.154	570.2
724.563	578.2
724.973	577.2
725.382	577.2
725.792	572.8
726.202	570
726.612	592.4
727.022	579.4
727.432	570.6
779.813	570.2
780.223	617.2
780.634	568.6
781.044	564.8
781.454	579.8
781.865	593.4
782.276	569
782.686	580.2
783.097	568.2
783.508	573.2
783.919	578.6
784.33	585.8
784.741	585.2
785.152	570
785.563	568.4
785.974	566.8
786.386	582
786.776	572.2
787.188	573.4
787.599	567
788.011	583.6
788.423	576.4
788.835	567.6
789.247	573
789.659	572.6
790.071	573.6
790.483	604
790.874	565.2
791.286	577.6
791.699	565.6
792.111	582.2
792.524	582.2
792.937	578.6
793.349	566.4
793.741	574.6
794.154	563.4
794.567	581
794.98	572.8
795.393	569.8
795.785	583.2
796.198	567
796.612	570
797.026	577.2
797.439	559.2
797.831	572.4
798.245	562.4
798.659	573.8
799.073	570
799.487	566.8
799.88	564.4
800.294	567.2
800.708	573
801.123	574
801.516	591.4
801.93	565.2
802.345	559.6
802.76	571.4
803.153	583.2
803.568	574.8
803.983	578.4
804.377	570.4
804.792	559.6
805.207	550.4
805.601	576
806.016	600.4
806.432	571.8
806.826	594.2
807.242	581.2
807.658	575.4
808.052	568.8
808.468	571.4
808.884	570.8
809.279	577.2
809.695	582.8
810.111	596.8
810.506	572.6
810.922	589.8
811.339	566.8
811.734	576.2
812.151	569
812.546	568.8
812.963	572
813.38	582.6
813.776	576.2
814.193	587.6
814.589	560.6
815.006	581.4
815.402	568
815.82	569.4
816.237	571.4
816.633	573.6
817.051	565.8
817.448	573.6
817.866	561.2
818.262	589.8
818.68	561.4
819.077	569.2
819.495	566.2
819.892	608.8
820.311	556.6
820.708	557.8
821.127	565.4
821.524	585
821.943	574.2
822.34	584.8
822.759	573.4
823.157	574
823.576	575.2
823.974	582.2
824.393	618.2
824.791	564.2
825.189	562.4
825.609	567.8
826.007	575.2
826.427	557.2
826.826	564.6
827.246	577.4
827.644	560.2
828.043	577.6
828.463	564
828.862	579
829.261	580.4
829.682	563.6
830.081	579.6
830.502	562.4
830.901	565.2
831.301	588.8
831.722	566.8
832.121	566.8
832.521	559.2
832.943	565.4
833.342	561.8
833.742	563.8
834.164	576.6
834.564	555.6
834.965	568
835.386	560.6
835.787	563.2
836.188	569.2
836.588	573.2
837.01	564.8
837.411	559
837.812	588
838.213	573.2
838.636	576.2
839.037	642.2
839.438	569.8
839.84	571
840.263	580.6
840.664	566.6
841.066	573.6
841.468	569.6
841.891	563.8
842.293	584.8
842.695	572.6
843.098	580.6
843.5	565.6
843.902	571.2
844.326	577.8
844.729	573.6
845.131	579.8
845.534	562.4
845.937	585.6
846.34	591.2
846.764	562.6
847.167	574.4
847.571	570.8
847.974	572.6
848.377	580.6
848.781	620.6
849.184	580.6
849.588	565.6
849.992	565
850.396	578.4
850.821	590
851.225	574
851.63	569.8
852.034	584
852.438	569.8
852.843	598.8
853.247	571.4
853.652	567.4
854.057	585.8
854.462	577.2
854.867	584.8
855.272	597
855.677	573.6
856.082	565.4
856.487	554.8
