#lambda/nm	C1
208.295	538
208.67	484
209.045	446.4
209.419	449.4
209.794	608.6
210.169	589.8
210.544	707.8
210.919	610.8
211.295	601
211.67	612.4
212.045	599.8
212.421	602.6
212.796	634.2
213.172	602.2
213.547	601.8
213.923	606.2
214.299	603.8
214.675	610.4
215.051	602.4
215.427	610.6
215.803	624.2
216.179	611.4
216.555	605.2
216.932	602.2
217.308	604.4
217.684	602.4
218.061	614
218.438	610.6
218.814	600.4
219.191	608.8
219.568	598
219.945	605.2
220.322	604.2
220.699	611.4
221.076	611
221.453	608.2
221.83	596
222.208	597
222.585	603
222.962	611
223.34	606.2
223.717	602.6
224.095	602.2
224.473	607.8
224.851	598.4
225.229	594.8
225.607	622.4
225.985	587.8
226.363	602
226.741	610.4
227.119	605.6
227.497	620.6
227.876	593
228.254	617.4
228.633	607.6
229.011	610.6
229.39	611
229.769	607.6
230.148	615.8
230.527	623.2
230.905	605.8
231.284	613.4
231.664	603.4
232.043	619
232.422	613.2
232.801	591
233.181	615.4
233.56	597.2
233.94	611.8
234.319	593.2
234.699	604.8
235.079	637.8
235.458	639.4
235.838	618.2
236.218	606.8
236.598	598.8
236.978	593.4
237.358	588.8
237.738	600.4
238.119	607.8
238.499	592.4
238.88	604.4
239.26	617.6
239.641	596.4
240.021	594
240.402	600
240.783	601.4
241.163	600.2
241.544	609.2
241.925	608.2
242.306	616
242.687	612.8
243.069	604.8
243.45	616.2
243.831	590.6
244.212	609.8
244.594	633
244.975	612.2
245.357	613.2
245.739	600
246.12	606.6
246.502	620.4
246.884	605.6
247.266	604.8
247.648	600.4
248.03	623.8
248.412	611.6
248.794	607
249.176	600.2
249.559	612.8
249.941	600.2
250.323	598.4
250.706	604.8
251.089	602.6
251.471	603.2
251.854	605.6
252.237	596.6
252.62	611.8
253.002	601.2
253.385	612.6
253.769	608.4
254.152	606.4
254.535	609.2
254.918	596.8
255.301	598.4
255.685	592.4
256.068	586.6
256.452	630
256.835	610.2
257.219	604.6
257.603	619.6
257.986	595.8
258.37	608.6
258.754	599.4
259.138	609
259.522	612.6
259.906	606
260.29	604.4
260.675	603.2
261.059	610.8
261.443	598.4
261.828	611
262.212	613.2
262.597	603.8
262.981	611.6
263.366	612.6
263.751	601.6
264.136	604
264.521	596.6
264.906	598.4
265.291	620.4
265.676	605.4
266.061	607.8
266.446	617
266.831	601.8
267.217	623.8
267.602	609.8
267.987	606.4
268.373	600
268.759	615.4
269.144	602.2
269.53	608.4
269.916	603.2
270.302	606.2
270.688	612
271.074	607.8
271.46	618.4
271.846	641.4
272.232	608
272.618	603.2
273.004	611
273.391	609.4
273.777	619.4
274.164	606.8
274.55	619.4
274.937	605.4
275.324	606.2
275.71	601.2
276.097	613.2
276.484	598
276.871	607.4
277.258	611.8
277.645	599.2
278.032	606.8
278.419	596
278.807	607.6
279.194	600.2
279.581	606.6
279.969	609.6
280.356	611.8
280.744	608.2
281.131	626.4
281.519	611.8
281.907	602
282.295	603.6
282.682	624.4
283.07	609.4
283.458	612
283.846	616
284.235	612.8
284.623	613.4
285.011	600
285.399	603.4
285.788	608.8
286.176	599.2
286.565	623.2
286.953	602
287.342	604.4
287.731	600.6
288.119	601.6
288.508	611
288.897	604.4
289.286	590.6
289.675	606.8
290.064	604.4
290.453	605.4
290.821	613.6
291.21	623.4
291.599	602.2
291.989	609
292.378	617.4
292.768	619.6
293.157	619.2
293.547	611.2
293.936	600.4
294.326	601.8
294.716	605
295.106	607
295.496	606.4
295.886	613
296.276	599.2
296.666	594
297.056	601
297.446	592.4
297.836	616
298.227	602
298.617	605.2
299.008	608.2
299.398	598.2
299.789	600.6
300.179	608
300.57	610.2
300.961	603.4
301.352	603.6
301.742	613.4
302.133	600.4
302.524	606.2
302.915	609.8
303.307	606.4
303.698	614.8
304.089	612.4
304.48	603.6
304.872	612.6
305.263	602.2
305.655	604.6
306.046	608.6
306.438	614.4
306.829	598
307.221	617
307.613	612
308.005	620.4
308.397	614.4
308.789	631.6
309.181	626.4
309.573	617.2
309.965	624.4
310.357	608.6
310.749	614.2
311.142	595.4
311.534	595.8
311.926	609.4
312.319	606.4
312.711	603.4
313.104	616.2
313.497	614.2
313.889	642.6
314.282	621.6
314.675	632
315.068	617
315.461	612.4
315.854	633.8
316.247	614.2
316.64	608.4
317.033	613
317.405	614.4
317.798	612.4
318.192	601.6
318.585	601.8
318.979	618
319.372	594
319.766	601.4
320.16	616.4
320.553	620.2
320.947	620.6
321.341	605.2
321.735	608.6
322.129	593.2
322.523	629.2
322.917	602.4
323.311	611.8
323.705	603.6
324.099	604.2
324.494	617.2
324.888	614.4
325.282	597.8
325.677	618.8
326.071	624.6
326.466	625.6
326.861	614.6
327.255	616.6
327.65	622.8
328.045	618
328.44	605.2
328.835	606.8
329.23	603.6
329.625	628.2
330.02	597.8
330.415	630.4
330.81	606.4
331.206	606.4
331.601	595.4
331.996	612.2
332.37	628.8
332.766	586.6
333.161	626.8
333.557	593
333.953	600.4
334.348	940.6
334.744	599
335.14	604.6
335.536	601.4
335.932	616.2
336.328	599.6
336.724	610.6
337.12	611
337.516	606.6
337.913	606.4
338.309	623.2
338.705	599
339.102	614.2
339.498	601.8
339.895	617
340.291	599.8
340.688	607
341.085	605.8
341.481	597.2
341.878	599.6
342.275	623.6
342.672	600.4
343.069	598.2
343.466	595
343.842	624.2
344.239	598.4
344.636	605.2
345.033	601.4
345.431	598.8
345.828	603.4
346.225	601.6
346.623	637.8
347.02	607.4
347.418	612.8
347.816	618.2
348.213	602.2
348.611	604.4
349.009	601.4
349.407	614.2
349.805	588.6
350.203	592.4
350.601	613.6
350.999	593.4
351.397	649.4
351.795	604
352.193	611.4
352.57	607.6
352.969	612.6
353.367	600.6
353.766	596.4
354.164	598.8
354.563	612.4
354.961	609.8
355.36	601.2
355.759	601.8
356.158	595.6
356.557	597.2
356.956	587.8
357.355	590.4
357.754	601
358.153	608
358.552	620.8
358.951	601.4
359.35	606.2
359.75	592.4
360.149	592.8
360.527	586.8
360.926	599.4
361.326	601.8
361.726	600.6
362.125	596
362.525	610.2
362.925	594.4
363.325	608.8
363.724	607.4
364.124	597.4
364.524	599.8
364.924	602.4
365.324	614.8
365.725	594
366.125	612.2
366.525	599.6
366.904	594.8
367.304	590.8
367.705	617.4
368.105	617
368.506	600.8
368.906	605.2
369.307	605.6
369.708	600
370.108	587
370.509	611.4
370.91	598.6
371.311	602.2
371.712	602.8
372.113	590.4
372.514	597.2
372.894	601.2
373.295	594
373.696	608.8
374.097	611.6
374.499	622.6
374.9	601.6
375.301	596.4
375.703	600.6
376.105	593.2
376.506	610.6
376.908	604.6
377.309	590.8
377.711	601.6
378.113	595.8
378.493	598.4
378.895	590.2
379.297	598
379.699	585.2
380.102	606.6
380.504	590.4
380.906	595
381.308	625
381.71	589
382.113	606
382.515	598.2
382.918	601.8
383.299	601.8
383.701	614.8
384.104	599
384.507	586.2
384.909	602
385.312	591
385.715	591.8
386.118	604.2
386.521	592.2
386.924	615.6
387.327	593.8
387.709	585.8
388.112	590.4
388.515	598.8
388.918	591.8
389.322	605
389.725	597.8
390.129	623.2
390.532	599.4
390.936	596.6
391.339	587.8
391.743	602.8
392.125	594.8
392.529	607.2
392.933	604.8
393.337	600
393.74	593
394.144	591
394.548	585.4
394.953	586
395.357	594.4
395.761	598.4
396.144	597.4
396.548	595
396.952	591.8
397.357	601
397.761	589
398.166	595.2
398.57	592.8
398.975	587.6
399.379	599.8
399.763	639.2
400.168	595.2
400.572	599.4
400.977	590.8
401.382	617.8
401.787	602.8
402.192	616
402.597	613.6
403.002	584.4
403.386	619.8
403.791	621.6
404.197	588
404.602	597.8
405.007	600.2
405.413	590.6
405.818	605.2
406.224	588.8
406.608	589.4
407.014	590.2
407.42	616.8
407.825	602
408.231	597.2
408.637	604.6
409.043	617.6
409.449	600.2
409.834	589.8
410.24	593.6
410.646	605.6
411.052	606.4
411.458	611
411.865	606.8
412.271	604.4
412.677	604.2
413.062	609
413.469	598
413.875	618.2
414.282	610.4
414.689	609.6
415.095	608.8
415.502	594.2
415.888	593
416.294	588
416.701	637.8
417.108	602.2
417.515	602.6
417.923	597.4
418.33	612.8
418.715	610.4
419.123	598.6
419.53	598.2
419.937	608
420.345	619.2
420.752	601.6
421.16	612
421.546	599.6
421.953	606.8
422.361	581.8
422.769	595
423.177	594.6
423.585	622
423.992	611.8
424.379	607.2
424.787	614
425.195	616.6
425.603	593.2
426.011	612.4
426.419	608.2
426.806	597
427.214	603.6
427.623	604.8
428.031	609.2
428.44	608
428.848	614.4
429.235	615
429.644	616.6
430.053	612
430.461	620
430.87	636.4
431.279	629
431.666	606.6
432.075	629.6
432.484	637.8
432.893	631.6
433.302	655.6
433.711	676.8
434.099	654.6
434.508	661.2
434.918	655
435.327	675.8
435.737	683.6
436.125	684.2
436.534	692.8
436.944	705.8
437.353	711.8
437.763	735.4
438.173	718.8
438.561	742.2
438.971	721.8
439.381	748
439.791	754.2
440.201	736
440.589	768.6
440.999	782.8
441.409	781
441.819	773.8
442.23	796.6
442.619	801.2
443.029	805
443.439	794
443.85	808.6
444.26	826.2
444.649	817.8
445.06	835.8
445.471	817.8
445.881	835
446.292	844.2
446.682	858
447.092	817.4
447.503	883
447.914	844
448.325	832.6
448.715	849.6
449.126	842.4
449.537	852.4
449.948	849.4
450.338	853
450.75	862
451.161	855.6
451.572	878
451.984	853
452.374	841
452.786	861.2
453.197	862
453.609	876.4
453.999	854.4
454.411	868
454.823	883.4
455.235	870.4
455.647	867.8
456.037	868.4
456.449	866.6
456.862	868
457.274	876.6
457.665	867.4
458.077	881.4
458.489	897.6
458.902	863
459.293	882.8
459.705	880.4
460.118	875.4
460.53	874.6
460.921	885.4
461.334	886
461.747	872.8
462.16	883.8
462.551	882.8
462.964	878.8
463.377	874
463.79	877.4
464.182	885.4
464.595	877.4
465.008	893.8
465.421	877.2
465.813	882
466.226	887
466.64	880.8
467.053	927.8
467.445	888.2
467.859	897
468.272	882.8
468.686	887.4
469.078	887.2
469.492	873.6
469.906	872.6
470.298	879.2
470.712	873.6
471.126	921.4
471.54	868.6
471.933	874.8
472.347	877.6
472.761	879
473.175	864.4
473.568	869.8
473.982	855
474.397	865.2
474.79	863.4
475.204	877.4
475.619	863.6
476.033	871.4
476.426	859.6
476.841	863.8
477.256	881.4
477.649	867.4
478.064	854
478.479	850.2
478.872	849
479.287	848.6
479.702	852
480.118	844.8
480.511	849
480.927	853.6
481.342	843.6
481.736	850.6
482.151	843.4
482.566	849.8
482.96	847.6
483.376	852
483.792	843
484.186	840
484.602	839.4
485.017	833.4
485.412	835.4
485.827	842.6
486.243	832
486.638	860
487.054	838.4
487.47	837.6
487.865	823.2
488.281	824.8
488.697	816.6
489.092	815
489.508	810.6
489.925	828.8
490.32	809
490.736	828.2
491.153	815
491.548	822.4
491.964	820.8
492.381	794.6
492.776	817.4
493.193	819.8
493.61	809.2
494.006	803.6
494.422	808.6
494.84	795.4
495.235	800
495.652	801.2
496.069	803.8
496.465	789
496.883	789.6
497.3	800
497.696	792.2
498.113	793
498.509	776.2
498.927	770
499.344	786.2
499.741	778.4
500.158	784.8
500.576	780
500.973	773
501.39	781.6
501.787	768.2
502.205	772.6
502.623	771.4
503.02	760
503.438	766.8
503.856	770.4
504.253	763.2
504.671	762
505.068	754.4
505.486	748.6
505.905	775.6
506.302	759.4
506.72	759.4
507.118	742.4
507.536	745.4
507.955	746.2
508.352	753.6
508.771	757.4
509.169	750
509.587	739.2
510.006	743.8
510.404	740.8
510.823	733.4
511.221	739.8
511.64	729.2
512.038	747.8
512.457	726.8
512.877	730.6
513.275	732.6
513.694	725.8
514.092	725.4
514.512	726.8
514.91	728.2
515.33	717.4
515.749	728
516.148	716.2
516.568	720
516.966	717.6
517.386	715
517.785	706
518.205	711.4
518.603	700.4
519.024	700
519.444	715.8
519.843	716.8
520.263	701.2
520.662	708.8
521.082	710.6
521.481	704.8
521.902	699.4
522.301	698
522.722	700.8
523.121	695
523.542	682.4
523.963	696.8
524.362	694
524.783	698.8
525.183	694.2
525.604	694.8
526.003	684.2
526.425	683.4
526.824	693
527.246	693
527.646	691.8
528.067	688.8
528.467	685.4
528.888	685.4
529.289	679.8
529.71	674.6
530.11	668.2
530.532	677.8
530.932	670
531.354	663.6
531.755	708
532.176	686.4
532.577	671.2
532.999	668.8
533.4	668.6
533.822	682.2
534.223	672.6
534.645	664
535.046	659
535.468	667.8
535.869	681.4
536.292	660.2
536.693	689.2
537.115	671
537.516	662.6
537.939	663.2
538.34	675.2
538.742	672.6
539.165	665.2
539.566	666.4
539.989	649.4
540.391	664.4
540.814	656.4
541.216	657.4
541.639	660
542.041	665.4
542.464	655.4
542.866	648
543.268	647
543.691	659.6
544.093	659.6
544.517	666.4
544.919	643.4
545.343	669.2
545.745	652.8
546.147	646
546.571	645.4
546.974	637.6
547.398	649.4
547.8	660
548.224	635.8
548.627	640.2
549.03	649.8
549.454	631.6
549.857	634
550.281	627.8
550.684	636.2
551.087	653
551.512	647.6
551.915	647.8
552.34	641.6
552.743	637.8
553.146	629.4
553.571	629
553.975	650.4
554.399	628.2
554.803	686
555.207	627.2
555.632	625.4
556.036	641.8
556.461	619.8
556.865	634
557.268	625
557.694	628.8
558.098	639.8
558.502	638.2
558.927	623.2
559.332	627.4
559.736	632.2
560.162	630
560.566	625
560.992	628
561.396	621.8
561.801	626.6
562.227	627
562.631	623.2
563.036	619.6
563.462	634.8
563.867	626.2
564.272	617.6
564.698	627.8
565.103	615.6
565.508	643.2
565.935	625
566.34	620.4
566.745	636.2
567.172	623.6
567.577	642.2
567.982	629.2
568.409	615.8
568.815	615.8
569.22	616.2
569.626	622
570.053	600.4
570.459	617
570.865	627.2
571.292	623.8
571.698	621
572.104	615.6
572.531	606.6
572.937	627.6
573.343	617
573.75	603.6
574.177	614.6
574.583	614.2
574.99	603.8
575.396	617.8
575.824	616.2
576.231	625
576.637	608.4
577.065	632.6
577.472	610.2
577.879	618.2
578.286	613.8
578.714	609.6
579.121	605.4
579.528	605
579.935	616.8
580.364	610.2
580.771	595.6
581.178	607
581.585	607.4
582.014	610.8
582.421	606.8
582.829	606
583.236	609
583.644	603
584.073	596.8
584.481	610.4
584.889	600.4
585.296	604.6
585.726	603.2
586.134	598
586.542	597.2
586.95	620
587.358	589
587.787	602.4
588.196	610.6
588.604	605.2
589.012	607.6
589.421	595.4
589.851	586.6
590.259	597.6
590.668	598
591.076	638
591.485	590
591.894	598.6
592.324	610.6
592.733	609.4
593.142	591.4
593.551	601.4
593.96	621.8
594.369	586.8
594.8	593.4
595.209	600.6
595.618	583
596.028	587.2
596.437	592
596.847	588.2
597.256	603.2
597.687	598.2
598.097	597.4
598.507	583.6
598.917	601.6
599.327	601
599.736	591.8
600.146	603.6
600.556	597.6
600.988	613
601.398	592.4
601.808	609.6
602.219	583
602.629	598.2
603.039	602.8
603.45	610.6
603.86	598.6
604.271	612.2
604.703	595.6
605.114	591.6
605.525	586.6
605.935	597.6
606.346	619
606.757	597.2
607.168	589.4
607.579	589
607.99	604.6
608.402	602.6
608.813	597.4
609.224	593.6
609.636	591.4
610.047	592
610.48	594.2
610.892	591.6
611.303	601.2
611.715	589.4
612.127	589.4
612.539	586.8
612.95	591.4
613.362	571.8
613.774	586.4
614.186	587
614.599	588
615.011	597.4
615.423	590.8
615.835	588.4
616.248	585.8
616.66	585.4
617.073	581.4
617.485	582.4
617.898	595
618.311	594
618.723	588.4
619.136	610.8
619.549	607.2
619.962	612.6
620.375	579.8
620.788	584.4
621.201	588
621.614	594.2
622.028	587.2
622.441	589
622.854	593.8
623.268	582.6
623.681	589.4
624.095	591
624.509	594.6
624.922	598
625.336	584.6
625.728	595.6
626.142	600.8
626.556	603.6
626.97	593.8
627.384	590.6
627.799	587.4
628.213	602
628.627	582.4
629.041	589.6
629.456	589.2
629.87	589.8
630.285	597.6
630.699	598
631.093	584
631.507	588
631.922	583.4
632.337	607.6
632.752	575.6
633.167	597.4
633.582	584.8
633.997	578.8
634.412	581.4
634.806	585.2
635.221	585.6
635.637	600.4
636.052	581.2
636.468	595.2
636.883	596.6
637.299	579.4
637.715	580.6
638.109	583.4
638.525	575.4
638.941	592
639.357	580
639.773	591
640.189	581.2
640.584	581.6
641	586.8
641.416	578.2
641.832	588
642.249	581.2
642.665	582
643.06	598.2
643.477	590.6
643.894	567.6
644.31	583.8
644.727	586.8
645.123	583.6
645.54	587.4
645.957	590.4
646.374	599.6
646.77	585.4
647.187	608.8
647.604	582.6
648.021	576.2
648.439	579.4
648.835	595.8
649.252	590.4
649.67	586.4
650.088	583.4
650.484	590.4
650.902	592.4
651.32	594
651.738	575.8
652.134	590.8
652.552	599.4
652.971	587.6
653.389	578
653.786	593.6
654.204	604.2
654.622	578.8
655.019	590.2
655.438	582.6
655.857	581.2
656.275	590.4
656.673	581
657.091	588.6
657.51	585.6
657.908	592
658.327	594.4
658.746	572.6
659.144	581.6
659.563	589.4
659.982	593.4
660.38	582.8
660.8	582.4
661.219	596.6
661.617	598.8
662.037	584.2
662.457	592.6
662.855	583.4
663.275	618.2
663.695	582.4
664.094	585.4
664.514	585.6
664.934	575.2
665.333	582.6
665.753	576.4
666.152	576.6
666.572	582.2
666.993	592.8
667.392	578
667.812	579.2
668.212	580.4
668.632	586.8
669.053	579.4
669.453	582.4
669.874	589
670.273	579.8
670.694	579.8
671.116	590
671.515	599.4
671.937	581.4
672.337	577.8
672.758	591.4
673.158	593.2
673.58	578.8
673.98	584.8
674.402	589
674.824	582.8
675.224	578.8
675.646	577.2
676.047	586.4
676.469	581.8
676.869	588.6
677.292	582.8
677.693	579.2
678.115	576.2
678.516	580
678.939	586.2
679.34	585.4
679.762	592.6
680.164	582.2
680.586	577.8
680.988	581.2
681.411	607.2
681.812	587
682.236	570.6
682.637	568.6
683.061	579.2
683.462	584.4
683.864	573.8
684.288	580
684.69	576.4
685.114	586.4
685.516	599.6
685.94	572
686.342	580.4
686.766	575.8
687.168	575
687.571	590
687.995	579.4
688.398	576.2
688.822	572.8
689.225	588.8
689.628	592.8
690.052	572.6
690.456	580
690.88	577.2
691.284	577.2
691.687	591
692.112	571.6
692.515	570
692.919	571.4
693.344	586.4
693.747	581
694.173	568.8
694.577	593
694.98	582.4
695.406	573.2
695.81	588.2
696.214	585.2
696.64	582
697.044	580.8
697.448	583
697.874	583.2
698.279	577
698.684	576.8
699.11	579.4
699.514	571.8
699.919	575.8
700.324	566.2
700.75	577.6
701.156	579.8
701.561	591.2
701.987	582.6
702.393	593.2
702.798	596.6
703.203	582.6
703.63	570.4
704.036	578.2
704.442	584.2
704.847	575
705.274	577.2
705.68	583
706.086	583.6
706.492	579.4
706.92	583.4
707.326	595
707.732	572.2
708.139	569.2
708.545	572.6
708.973	574.4
709.38	582.4
709.786	562.2
710.193	587
710.6	578.6
711.028	568.6
711.435	579.6
711.842	584
712.249	570
712.656	583.2
713.064	579.4
713.492	575.6
713.9	577.6
714.307	582.8
714.715	570.2
715.123	575.2
715.53	577.4
715.938	586.8
716.367	575.4
716.775	575.2
717.184	570.6
717.592	575
718	581.2
718.408	601.8
718.816	627.6
719.225	579.8
719.633	574.6
720.042	571
720.472	580.8
720.881	594.6
721.29	574.8
721.699	567.4
722.108	579.8
722.517	578.4
722.926	575
723.335	579.4
723.744	576
724.154	585.2
724.563	571.2
724.973	580
725.382	578
725.792	582.4
726.202	564.8
726.612	595.4
727.022	576.6
727.432	568.8
779.813	576.6
780.223	614.4
780.634	573
781.044	578.6
781.454	578.4
781.865	586.6
782.276	570.4
782.686	587
783.097	581.8
783.508	577.4
783.919	589
784.33	591.6
784.741	585.4
785.152	568.8
785.563	570.2
785.974	572.4
786.386	590.6
786.776	576.4
787.188	578.6
787.599	569.2
788.011	575.8
788.423	573.2
788.835	573
789.247	564.2
789.659	573
790.071	572
790.483	605.6
790.874	568.6
791.286	581.8
791.699	569.2
792.111	572.2
792.524	584.4
792.937	572.6
793.349	569.8
793.741	569.2
794.154	570.6
794.567	594.8
794.98	570.2
795.393	578.2
795.785	587.2
796.198	579
796.612	582.6
797.026	568
797.439	567.2
797.831	575
798.245	567
798.659	573.4
799.073	573.4
799.487	571.8
799.88	582
800.294	574.2
800.708	579.2
801.123	573
801.516	597
801.93	567.6
802.345	564.8
802.76	568.6
803.153	592.8
803.568	592.8
803.983	589.8
804.377	578.2
804.792	571
805.207	563
805.601	569.8
806.016	613.2
806.432	566.6
806.826	604.8
807.242	589.6
807.658	584
808.052	569.8
808.468	576.8
808.884	572.8
809.279	580
809.695	588.8
810.111	601.4
810.506	584.8
810.922	593.2
811.339	565.6
811.734	583.4
812.151	575.6
812.546	574
812.963	582.8
813.38	585.2
813.776	577.4
814.193	594.4
814.589	576.2
815.006	572.4
815.402	570.2
815.82	576.2
816.237	579.2
816.633	567.4
817.051	570
817.448	576.6
817.866	571
818.262	589.6
818.68	563
819.077	575.4
819.495	575.8
819.892	619.8
820.311	573.6
820.708	572.6
821.127	570.2
821.524	584
821.943	575.2
822.34	593.6
822.759	577.6
823.157	579.2
823.576	588.8
823.974	585
824.393	611.8
824.791	573
825.189	572.6
825.609	569
826.007	569.2
826.427	569.4
826.826	576
827.246	574.6
827.644	563.8
828.043	581.6
828.463	570.2
828.862	577.6
829.261	572.8
829.682	566.2
830.081	578.2
830.502	565.2
830.901	573.2
831.301	584.6
831.722	557.6
832.121	566.4
832.521	566.2
832.943	574
833.342	574.4
833.742	565.2
834.164	570.6
834.564	564.6
834.965	572.4
835.386	569.8
835.787	565.8
836.188	576.4
836.588	575.6
837.01	576.8
837.411	568.6
837.812	582.6
838.213	573.6
838.636	569.8
839.037	632.6
839.438	570
839.84	573.6
840.263	583.6
840.664	578.8
841.066	575.2
841.468	575
841.891	569.8
842.293	586.6
842.695	577.4
843.098	582.4
843.5	568
843.902	580.6
844.326	572.4
844.729	583.4
845.131	577.4
845.534	574
845.937	592
846.34	585.6
846.764	574
847.167	579.6
847.571	562
847.974	573.8
848.377	572.6
848.781	616.4
849.184	587.6
849.588	579.6
849.992	570.4
850.396	576.8
850.821	591.6
851.225	583.8
851.63	575
852.034	587
852.438	576.2
852.843	603.4
853.247	571.2
853.652	574.8
854.057	596.2
854.462	577.6
854.867	572.2
855.272	596.4
855.677	578.8
856.082	573
856.487	567
856.893	575
