#lambda/nm	C1
208.295	549.2
208.67	492
209.045	454
209.419	455.4
209.794	607.4
210.169	586.8
210.544	691.2
210.919	610.6
211.295	590
211.67	598
212.045	597.2
212.421	591.8
212.796	630
213.172	582.4
213.547	601.2
213.923	596.6
214.299	594.8
214.675	601.2
215.051	603.8
215.427	601.6
215.803	618.6
216.179	598.4
216.555	593.2
216.932	600.4
217.308	605.4
217.684	595.8
218.061	601.8
218.438	612
218.814	598.8
219.191	608
219.568	594
219.945	601.6
220.322	609.6
220.699	607.2
221.076	606.4
221.453	600
221.83	595.4
222.208	595.2
222.585	599.8
222.962	601
223.34	592.8
223.717	591.6
224.095	598.6
224.473	588
224.851	588.2
225.229	589.6
225.607	607.4
225.985	586.6
226.363	595
226.741	599.6
227.119	599.2
227.497	607.8
227.876	594.8
228.254	599.4
228.633	600
229.011	603.6
229.39	602.4
229.769	592.4
230.148	596
230.527	622.8
230.905	599.6
231.284	598
231.664	600
232.043	614.8
232.422	604.4
232.801	591.2
233.181	604.8
233.56	590.8
233.94	597
234.319	587.4
234.699	589.8
235.079	634.8
235.458	640.4
235.838	613.2
236.218	584.4
236.598	579.2
236.978	590
237.358	596
237.738	594.4
238.119	603.8
238.499	589.4
238.88	601
239.26	614.8
239.641	590.2
240.021	592.8
240.402	596.4
240.783	590.4
241.163	600.2
241.544	597
241.925	603.4
242.306	614.2
242.687	601
243.069	599
243.45	596.4
243.831	593.6
244.212	602.6
244.594	626.2
244.975	612
245.357	596
245.739	593.8
246.12	598.2
246.502	610.6
246.884	595
247.266	595.8
247.648	596.4
248.03	617
248.412	598.4
248.794	604.4
249.176	593.8
249.559	610.8
249.941	598.4
250.323	602.6
250.706	590.6
251.089	599
251.471	600
251.854	594.6
252.237	601.4
252.62	605.2
253.002	603.8
253.385	598.2
253.769	606.2
254.152	596.6
254.535	603
254.918	589
255.301	596.2
255.685	590.6
256.068	584.4
256.452	622.6
256.835	610.2
257.219	606
257.603	605.2
257.986	587
258.37	604
258.754	584.8
259.138	597.8
259.522	606.4
259.906	597.6
260.29	602.8
260.675	586.4
261.059	592.6
261.443	586.6
261.828	597.4
262.212	595
262.597	588
262.981	589.4
263.366	592.4
263.751	591.8
264.136	585.4
264.521	591
264.906	579.4
265.291	594.8
265.676	585.2
266.061	601
266.446	604.8
266.831	592.8
267.217	611.6
267.602	598.8
267.987	596.4
268.373	593
268.759	603.8
269.144	593
269.53	595.8
269.916	598.8
270.302	589.8
270.688	592.6
271.074	597.6
271.46	608.2
271.846	623
272.232	603.2
272.618	594.4
273.004	598.4
273.391	605.8
273.777	609.4
274.164	600.2
274.55	611.4
274.937	597.4
275.324	590.8
275.71	601.8
276.097	605
276.484	591.4
276.871	596.2
277.258	603.2
277.645	583
278.032	599.8
278.419	593.4
278.807	601
279.194	588.2
279.581	587.4
279.969	609.2
280.356	603.8
280.744	598.6
281.131	623.6
281.519	604.6
281.907	589.6
282.295	590.2
282.682	608.8
283.07	599.4
283.458	606.4
283.846	607
284.235	611.6
284.623	599.8
285.011	589.4
285.399	609.6
285.788	600.4
286.176	584.4
286.565	606
286.953	590.6
287.342	603.4
287.731	594
288.119	601.4
288.508	600.2
288.897	588.6
289.286	594.6
289.675	601.4
290.064	608.8
290.453	591.4
290.821	590.6
291.21	609.4
291.599	591.2
291.989	592
292.378	609
292.768	607.8
293.157	594.8
293.547	605
293.936	595.8
294.326	591.6
294.716	596.4
295.106	590.4
295.496	603.8
295.886	608.8
296.276	601.4
296.666	588.4
297.056	594.4
297.446	587.6
297.836	606.4
298.227	590.2
298.617	595.6
299.008	609.6
299.398	596.2
299.789	591.8
300.179	599.4
300.57	605.8
300.961	595.2
301.352	587.6
301.742	603.4
302.133	591.2
302.524	597.2
302.915	597.2
303.307	591
303.698	594.8
304.089	603.8
304.48	595
304.872	606.4
305.263	589.8
305.655	588.6
306.046	601.2
306.438	598
306.829	595.6
307.221	610.4
307.613	600.8
308.005	604
308.397	609.2
308.789	611
309.181	616.8
309.573	616.8
309.965	613.2
310.357	595.2
310.749	610.6
311.142	594
311.534	590.8
311.926	600.8
312.319	601.6
312.711	590
313.104	614.8
313.497	594.8
313.889	627.4
314.282	606.4
314.675	623.4
315.068	604.8
315.461	605.4
315.854	618
316.247	602.2
316.64	593
317.033	598.4
317.405	604.4
317.798	601.4
318.192	600
318.585	585.6
318.979	597.4
319.372	596.2
319.766	595.6
320.16	599
320.553	606.4
320.947	607.6
321.341	597.4
321.735	595.8
322.129	579.2
322.523	616.6
322.917	587.4
323.311	614.2
323.705	590.2
324.099	600
324.494	610.8
324.888	613
325.282	592.4
325.677	608.6
326.071	606.4
326.466	608.4
326.861	600.8
327.255	605.4
327.65	607.4
328.045	608.8
328.44	601.2
328.835	605.2
329.23	590.8
329.625	614.8
330.02	599
330.415	611.8
330.81	602.4
331.206	606.6
331.601	595
331.996	610.2
332.37	619.6
332.766	594.2
333.161	624.2
333.557	594.8
333.953	599.6
334.348	840.2
334.744	595.8
335.14	598
335.536	598.2
335.932	599.8
336.328	596.6
336.724	603.8
337.12	599.2
337.516	602.6
337.913	593.8
338.309	601.6
338.705	596.8
339.102	607.2
339.498	598
339.895	601.8
340.291	600.8
340.688	609.8
341.085	596
341.481	606.4
341.878	592.2
342.275	617
342.672	593
343.069	591.2
343.466	594
343.842	616.6
344.239	592.2
344.636	599
345.033	589.6
345.431	588.8
345.828	604.4
346.225	596
346.623	628.4
347.02	588
347.418	597.2
347.816	612
348.213	587.4
348.611	598.2
349.009	589.4
349.407	608.2
349.805	590.4
350.203	584.6
350.601	603.6
350.999	587
351.397	647.8
351.795	593
352.193	602.2
352.57	600.4
352.969	609.6
353.367	589.2
353.766	588.4
354.164	588.8
354.563	605.8
354.961	598
355.36	596.4
355.759	596.6
356.158	587.4
356.557	585.6
356.956	590.6
357.355	583.4
357.754	592.4
358.153	597.6
358.552	611.8
358.951	588.6
359.35	599.6
359.75	587.2
360.149	579.8
360.527	581.8
360.926	588
361.326	584.8
361.726	589.2
362.125	583
362.525	594.4
362.925	582.8
363.325	589.8
363.724	587.2
364.124	586.4
364.524	579.6
364.924	586.2
365.324	595.4
365.725	581.8
366.125	591
366.525	588.8
366.904	576.2
367.304	574.8
367.705	603
368.105	603.4
368.506	596.8
368.906	589
369.307	584.6
369.708	600.6
370.108	577.8
370.509	593
370.91	581.2
371.311	592.2
371.712	593
372.113	588.8
372.514	581.6
372.894	588
373.295	585.6
373.696	607.2
374.097	595.2
374.499	617.2
374.9	592.4
375.301	586.8
375.703	600.8
376.105	583.2
376.506	595.2
376.908	591.4
377.309	592.4
377.711	594.6
378.113	583.4
378.493	592.2
378.895	588.8
379.297	596.4
379.699	575.4
380.102	605.2
380.504	592.8
380.906	587.8
381.308	618.4
381.71	589
382.113	595.4
382.515	583
382.918	601.2
383.299	588.8
383.701	594.6
384.104	591.4
384.507	578
384.909	594
385.312	580
385.715	582.8
386.118	590.2
386.521	576.2
386.924	599.4
387.327	594.2
387.709	577.8
388.112	584
388.515	595.2
388.918	584.8
389.322	593.6
389.725	589
390.129	609.4
390.532	592.4
390.936	590.4
391.339	584.4
391.743	592.6
392.125	578
392.529	595.4
392.933	603.8
393.337	590.2
393.74	588.4
394.144	594.6
394.548	583
394.953	583.4
395.357	595.8
395.761	585.8
396.144	593.2
396.548	589
396.952	601.6
397.357	594.6
397.761	591
398.166	587.4
398.57	584.4
398.975	576.4
399.379	590.4
399.763	637.8
400.168	591.8
400.572	579
400.977	583.8
401.382	599.6
401.787	599
402.192	603.8
402.597	601
403.002	580.2
403.386	597.8
403.791	598.6
404.197	586.6
404.602	599
405.007	594
405.413	583.8
405.818	591
406.224	581.2
406.608	587.2
407.014	590.8
407.42	598.8
407.825	577.2
408.231	602
408.637	602.8
409.043	596.6
409.449	586.6
409.834	587.4
410.24	583
410.646	597.4
411.052	607.6
411.458	581.2
411.865	597.8
412.271	599.2
412.677	593
413.062	599.8
413.469	587.2
413.875	611.6
414.282	604.4
414.689	597.6
415.095	601.6
415.502	586.6
415.888	586.2
416.294	571.4
416.701	622
417.108	579.4
417.515	595.8
417.923	597.2
418.33	604.6
418.715	595
419.123	589.8
419.53	584.8
419.937	592
420.345	602.4
420.752	585.6
421.16	601.8
421.546	589.4
421.953	592
422.361	582.4
422.769	591.2
423.177	585.4
423.585	612.4
423.992	599.8
424.379	605.4
424.787	604
425.195	614.4
425.603	596.6
426.011	602.6
426.419	598.4
426.806	595.2
427.214	596.4
427.623	599.4
428.031	620.6
428.44	599
428.848	612.2
429.235	617.6
429.644	605.4
430.053	601
430.461	619.8
430.87	629
431.279	624.6
431.666	612.6
432.075	620.2
432.484	630.8
432.893	630.4
433.302	655.6
433.711	676
434.099	662.4
434.508	654.6
434.918	652
435.327	678.6
435.737	681.6
436.125	688.6
436.534	700
436.944	713.8
437.353	718.2
437.763	734.4
438.173	722.2
438.561	738.8
438.971	732
439.381	746.8
439.791	762.6
440.201	750.6
440.589	776
440.999	776.8
441.409	792.2
441.819	782.4
442.23	797.8
442.619	799.6
443.029	796
443.439	809.6
443.85	820.6
444.26	827.4
444.649	819.8
445.06	817
445.471	820
445.881	834.6
446.292	838.8
446.682	848.6
447.092	828.2
447.503	891.8
447.914	856.2
448.325	848.2
448.715	850.4
449.126	850.6
449.537	854.6
449.948	854.8
450.338	861.8
450.75	867.2
451.161	862.8
451.572	870.8
451.984	869
452.374	851.6
452.786	865.4
453.197	863.6
453.609	872.6
453.999	857.2
454.411	858.8
454.823	873.4
455.235	866.2
455.647	865.6
456.037	876.4
456.449	866.8
456.862	876.8
457.274	878.8
457.665	874
458.077	896.4
458.489	902.6
458.902	874.8
459.293	889.6
459.705	869.4
460.118	875.8
460.53	880.6
460.921	873.8
461.334	877.6
461.747	874.8
462.16	893.4
462.551	895
462.964	891.4
463.377	877
463.79	880.8
464.182	892.6
464.595	881.2
465.008	875.6
465.421	880.6
465.813	872.6
466.226	899.4
466.64	882
467.053	898.4
467.445	886.8
467.859	899
468.272	883.8
468.686	890.6
469.078	897.6
469.492	878.2
469.906	889.4
470.298	895
470.712	864.6
471.126	920.8
471.54	857.6
471.933	879
472.347	866.2
472.761	870.6
473.175	862.2
473.568	876
473.982	869
474.397	870.2
474.79	867.2
475.204	874.2
475.619	867.8
476.033	874
476.426	872.2
476.841	867.8
477.256	877.2
477.649	866.6
478.064	856
478.479	859
478.872	855.2
479.287	851
479.702	847
480.118	859.8
480.511	857.2
480.927	841.8
481.342	853
481.736	852.4
482.151	843.8
482.566	858.2
482.96	842.4
483.376	861.4
483.792	844.4
484.186	862.6
484.602	837.4
485.017	829
485.412	832.8
485.827	842.6
486.243	834.4
486.638	855.6
487.054	835.4
487.47	849.4
487.865	827.2
488.281	824.2
488.697	815.2
489.092	828
489.508	816.6
489.925	833
490.32	817
490.736	827.6
491.153	810.8
491.548	809.6
491.964	816.8
492.381	802.8
492.776	811
493.193	805.4
493.61	811.4
494.006	803.8
494.422	809
494.84	787.2
495.235	811.8
495.652	797.6
496.069	787.6
496.465	782.4
496.883	787.6
497.3	818.2
497.696	775.4
498.113	788.8
498.509	776.8
498.927	783.8
499.344	778.6
499.741	770.8
500.158	790.6
500.576	783
500.973	780.8
501.39	770.8
501.787	759.8
502.205	777.6
502.623	759.2
503.02	750.2
503.438	751.4
503.856	760.8
504.253	760
504.671	758.8
505.068	751.6
505.486	752
505.905	768
506.302	754.8
506.72	759.8
507.118	749
507.536	745.6
507.955	746.8
508.352	748.8
508.771	751.8
509.169	743.2
509.587	738.6
510.006	754.2
510.404	723
510.823	726
511.221	731.2
511.64	723.4
512.038	741.4
512.457	733.8
512.877	721.4
513.275	716.2
513.694	715.6
514.092	720
514.512	727.8
514.91	729.4
515.33	714.4
515.749	713
516.148	712.6
516.568	712
516.966	714.2
517.386	705
517.785	707.8
518.205	707.6
518.603	701.2
519.024	709.8
519.444	704.8
519.843	711.6
520.263	711.2
520.662	704.4
521.082	701.4
521.481	695.8
521.902	692.2
522.301	698.4
522.722	695.6
523.121	692
523.542	690.6
523.963	689
524.362	696
524.783	688.4
525.183	686.8
525.604	687.4
526.003	671.6
526.425	675.8
526.824	685
527.246	691.6
527.646	695
528.067	679.2
528.467	676.6
528.888	675
529.289	669.2
529.71	678
530.11	676.4
530.532	670.2
530.932	662.4
531.354	670
531.755	697.6
532.176	677.8
532.577	671.6
532.999	665
533.4	663.4
533.822	675.4
534.223	673
534.645	670.6
535.046	662.2
535.468	661
535.869	668.6
536.292	659.2
536.693	689
537.115	661.6
537.516	658.6
537.939	653.4
538.34	672.6
538.742	669.6
539.165	655.6
539.566	652.8
539.989	647.6
540.391	646.4
540.814	655.2
541.216	644.8
541.639	655.4
542.041	663.6
542.464	647
542.866	647.6
543.268	645.2
543.691	652.4
544.093	646
544.517	663.2
544.919	638
545.343	660.4
545.745	645.2
546.147	645.2
546.571	636.4
546.974	636.8
547.398	639.4
547.8	649.8
548.224	642.2
548.627	625.4
549.03	640.4
549.454	635
549.857	630.4
550.281	625.4
550.684	629.4
551.087	644.4
551.512	641.4
551.915	643.8
552.34	634.4
552.743	625
553.146	637.2
553.571	634.4
553.975	642.8
554.399	618.4
554.803	666.2
555.207	626.4
555.632	621.4
556.036	630
556.461	610.4
556.865	630.8
557.268	622.4
557.694	622.4
558.098	629.4
558.502	624.4
558.927	614.6
559.332	610
559.736	624.4
560.162	622.2
560.566	616.2
560.992	621.6
561.396	614
561.801	613.8
562.227	621.4
562.631	612.4
563.036	608.8
563.462	629.2
563.867	612
564.272	604.4
564.698	612.8
565.103	601.8
565.508	636.8
565.935	614.4
566.34	610.6
566.745	628.8
567.172	611.4
567.577	624
567.982	622.8
568.409	626.4
568.815	605
569.22	614.6
569.626	614.6
570.053	598.2
570.459	615.2
570.865	612.2
571.292	622.2
571.698	608.4
572.104	595.8
572.531	605.4
572.937	617.4
573.343	608
573.75	603.2
574.177	610.6
574.583	608.2
574.99	608.4
575.396	606.2
575.824	604.8
576.231	615
576.637	611.2
577.065	624.8
577.472	602.2
577.879	607.2
578.286	605.8
578.714	600
579.121	599
579.528	604.2
579.935	600.2
580.364	600.8
580.771	597.4
581.178	602.2
581.585	606
582.014	596.6
582.421	595.2
582.829	602
583.236	592.4
583.644	591.2
584.073	593.6
584.481	595.2
584.889	593.4
585.296	602
585.726	594
586.134	586.4
586.542	592
586.95	618.8
587.358	581.6
587.787	593.4
588.196	609.6
588.604	592.6
589.012	589
589.421	583.6
589.851	592
590.259	596
590.668	593
591.076	625.6
591.485	589.6
591.894	598.4
592.324	608.6
592.733	608.2
593.142	580.8
593.551	587.8
593.96	592.6
594.369	576
594.8	578
595.209	593.6
595.618	583.6
596.028	591
596.437	586
596.847	588
597.256	589.8
597.687	584
598.097	582.4
598.507	577.6
598.917	588.8
599.327	597
599.736	593.4
600.146	592.8
600.556	593.4
600.988	599.8
601.398	587
601.808	595.6
602.219	573.4
602.629	583.4
603.039	589.4
603.45	608.2
603.86	590.8
604.271	600.2
604.703	589.8
605.114	586
605.525	587.4
605.935	595.2
606.346	607.8
606.757	586.6
607.168	589.4
607.579	582.4
607.99	597.2
608.402	586
608.813	586.6
609.224	593.4
609.636	579.8
610.047	576.6
610.48	580.4
610.892	592.4
611.303	589.8
611.715	579.6
612.127	578.2
612.539	579.8
612.95	585.6
613.362	572.2
613.774	583.8
614.186	582.2
614.599	584.6
615.011	591.4
615.423	586.4
615.835	583
616.248	579.4
616.66	585.4
617.073	582.6
617.485	588
617.898	594
618.311	588
618.723	587.2
619.136	613
619.549	598.4
619.962	604
620.375	582
620.788	590.8
621.201	587.2
621.614	594.8
622.028	589.2
622.441	595.2
622.854	605
623.268	583.8
623.681	599.4
624.095	591
624.509	603
624.922	599.4
625.336	585.8
625.728	586.2
626.142	591.6
626.556	600.8
626.97	595
627.384	577.8
627.799	594.2
628.213	588.8
628.627	586
629.041	583.8
629.456	585.4
629.87	582.2
630.285	595
630.699	595
631.093	586.6
631.507	587.8
631.922	583.8
632.337	597.4
632.752	577.8
633.167	580.8
633.582	583.4
633.997	585
634.412	582.2
634.806	589.6
635.221	575.4
635.637	595.2
636.052	575.4
636.468	589.6
636.883	610.2
637.299	581.6
637.715	580.6
638.109	588
638.525	577.6
638.941	598.2
639.357	580
639.773	597.4
640.189	581
640.584	586.6
641	590
641.416	574.8
641.832	582.4
642.249	585.6
642.665	582
643.06	594
643.477	591.2
643.894	573.2
644.31	586.2
644.727	580.6
645.123	579.6
645.54	569.8
645.957	587.4
646.374	590.6
646.77	583.2
647.187	608.2
647.604	577.8
648.021	575.2
648.439	578.2
648.835	595.6
649.252	577
649.67	578.4
650.088	582.2
650.484	582.8
650.902	589.2
651.32	584.4
651.738	577.6
652.134	574
652.552	587.8
652.971	581.2
653.389	572.4
653.786	593
654.204	598.2
654.622	575.4
655.019	566.4
655.438	576.6
655.857	576.6
656.275	583.4
656.673	572.8
657.091	593.2
657.51	573.6
657.908	586.2
658.327	584.4
658.746	570.2
659.144	577.6
659.563	591
659.982	575.6
660.38	572.8
660.8	579.4
661.219	588.4
661.617	579.8
662.037	576.6
662.457	591
662.855	571.2
663.275	606.8
663.695	578.8
664.094	572.2
664.514	578.8
664.934	574.8
665.333	577.8
665.753	571
666.152	577.2
666.572	566.6
666.993	590.2
667.392	572.4
667.812	576.2
668.212	569.8
668.632	584.6
669.053	579.6
669.453	579.2
669.874	576.6
670.273	576.2
670.694	565
671.116	583.2
671.515	583
671.937	573.2
672.337	566.6
672.758	575.4
673.158	578
673.58	559.4
673.98	572
674.402	586.8
674.824	574.6
675.224	577.8
675.646	567
676.047	568.8
676.469	572
676.869	573.4
677.292	580.4
677.693	576.4
678.115	571.6
678.516	588.4
678.939	574.8
679.34	570.2
679.762	572.6
680.164	570.6
680.586	566.2
680.988	573.8
681.411	594.2
681.812	567
682.236	562.8
682.637	562.8
683.061	564
683.462	566.4
683.864	567.2
684.288	576.8
684.69	560.6
685.114	587.8
685.516	581.8
685.94	562.6
686.342	584
686.766	570
687.168	575.6
687.571	592.8
687.995	570
688.398	567.2
688.822	571.2
689.225	577.2
689.628	588.2
690.052	567.8
690.456	574.6
690.88	574
691.284	565.6
691.687	579
692.112	567.8
692.515	564.8
692.919	576.8
693.344	568
693.747	570.2
694.173	565
694.577	584
694.98	572.2
695.406	573.6
695.81	572.4
696.214	570
696.64	570.8
697.044	571.4
697.448	586.4
697.874	574.6
698.279	569.4
698.684	556.6
699.11	574.4
699.514	566.2
699.919	569.6
700.324	567
700.75	570.2
701.156	568
701.561	577
701.987	567.8
702.393	573.2
702.798	585
703.203	579.6
703.63	568.6
704.036	569.4
704.442	575.2
704.847	563.4
705.274	573.6
705.68	573
706.086	577.4
706.492	566.2
706.92	565.6
707.326	569.8
707.732	569.4
708.139	563.2
708.545	563.4
708.973	566.4
709.38	564.8
709.786	563.6
710.193	579.6
710.6	572.2
711.028	571.8
711.435	571.6
711.842	572.6
712.249	563.4
712.656	572
713.064	583.8
713.492	563.8
713.9	572.6
714.307	572.8
714.715	569.6
715.123	572.4
715.53	571.6
715.938	580
716.367	571.2
716.775	568.2
717.184	569.6
717.592	570.4
718	579.6
718.408	607.6
718.816	606
719.225	579
719.633	569.8
720.042	558.6
720.472	568.4
720.881	592.4
721.29	578.4
721.699	563
722.108	575
722.517	570.6
722.926	572.2
723.335	580
723.744	574.6
724.154	568
724.563	567
724.973	576.6
725.382	571.6
725.792	568.8
726.202	563.8
726.612	586.4
727.022	570.4
727.432	566.6
779.813	568.4
780.223	602.4
780.634	565.6
781.044	570.2
781.454	559.6
781.865	580.4
782.276	570.6
782.686	582.6
783.097	570
783.508	559.8
783.919	571.6
784.33	576.2
784.741	577.8
785.152	563.8
785.563	558.6
785.974	567.2
786.386	578.4
786.776	567.4
787.188	578.4
787.599	562.2
788.011	572.2
788.423	572
788.835	563.4
789.247	561
789.659	570
790.071	561
790.483	603.8
790.874	570.8
791.286	570.2
791.699	569.4
792.111	571
792.524	572.8
792.937	563.6
793.349	561.6
793.741	565.4
794.154	557.8
794.567	584.2
794.98	570
795.393	564.6
795.785	572.2
796.198	570.4
796.612	571.6
797.026	572.6
797.439	561.6
797.831	573.2
798.245	557.8
798.659	560.8
799.073	562.8
799.487	559.6
799.88	569
800.294	571.2
800.708	563.8
801.123	558.8
801.516	588.6
801.93	555.8
802.345	557
802.76	570.4
803.153	579.6
803.568	579.4
803.983	570.6
804.377	569.6
804.792	554
805.207	555.6
805.601	564.8
806.016	599.4
806.432	562.4
806.826	594.8
807.242	581.8
807.658	573.4
808.052	567.6
808.468	564.8
808.884	565
809.279	564
809.695	571.4
810.111	591.8
810.506	567.6
810.922	580.6
811.339	566.8
811.734	568.8
812.151	565.4
812.546	565.8
812.963	568.8
813.38	568.4
813.776	571
814.193	588.8
814.589	561.4
815.006	568.4
815.402	561.6
815.82	570.4
816.237	566.8
816.633	568.8
817.051	562.8
817.448	575
817.866	559.6
818.262	584.6
818.68	563.6
819.077	572.4
819.495	570.8
819.892	609.6
820.311	565.4
820.708	569
821.127	558.4
821.524	579.2
821.943	572.2
822.34	579.6
822.759	566
823.157	570.6
823.576	587.6
823.974	580.2
824.393	587
824.791	564
825.189	565.2
825.609	560.6
826.007	567.4
826.427	557.4
826.826	568.4
827.246	572
827.644	560.8
828.043	572.2
828.463	563.6
828.862	571.8
829.261	569.4
829.682	559.8
830.081	566.2
830.502	556.6
830.901	573.6
831.301	579.2
831.722	566
832.121	569.6
832.521	563
832.943	560
833.342	563.8
833.742	560
834.164	566.2
834.564	560.4
834.965	570.8
835.386	557.2
835.787	562
836.188	556.8
836.588	557.2
837.01	562.8
837.411	559.2
837.812	570.2
838.213	573
838.636	567
839.037	618.2
839.438	559.8
839.84	569.2
840.263	572.4
840.664	571.2
841.066	561.6
841.468	567.2
841.891	572.6
842.293	574.2
842.695	576.8
843.098	578.8
843.5	566
843.902	575.6
844.326	567.6
844.729	562.2
845.131	578.8
845.534	565
845.937	580.6
846.34	577.4
846.764	561.8
847.167	573.6
847.571	558.2
847.974	559
848.377	563.4
848.781	607
849.184	563.8
849.588	565
849.992	566.8
850.396	569
850.821	581
851.225	572
851.63	560.6
852.034	578.4
852.438	568.2
852.843	629.6
853.247	560.4
853.652	565.6
854.057	572.8
854.462	562.8
854.867	565.6
855.272	590.2
855.677	569.6
856.082	560.6
856.487	556.8
