#lambda/nm	C1
208.295	557.6
208.67	499
209.045	457.2
209.419	458.6
209.794	586.4
210.169	580.2
210.544	683.2
210.919	599.6
211.295	578.2
211.67	596
212.045	593.6
212.421	580.4
212.796	618
213.172	586.8
213.547	584.6
213.923	587.6
214.299	586.8
214.675	595.2
215.051	588.4
215.427	597.2
215.803	605
216.179	592.8
216.555	589.2
216.932	593
217.308	594.8
217.684	591.2
218.061	592
218.438	591.2
218.814	589.4
219.191	596.4
219.568	583.2
219.945	585.8
220.322	593.2
220.699	581.8
221.076	588.8
221.453	591.2
221.83	573
222.208	582.8
222.585	591.8
222.962	589
223.34	592.4
223.717	582.2
224.095	586.6
224.473	583.6
224.851	588.4
225.229	574.8
225.607	597.6
225.985	583
226.363	593.2
226.741	587.4
227.119	582.2
227.497	592
227.876	577.8
228.254	594.4
228.633	593.2
229.011	593.2
229.39	596.4
229.769	596.4
230.148	594.8
230.527	603.8
230.905	590
231.284	592
231.664	584
232.043	601.2
232.422	598.8
232.801	586.8
233.181	592
233.56	588.4
233.94	582
234.319	575.4
234.699	582
235.079	617.8
235.458	622.6
235.838	597.2
236.218	581.8
236.598	577.6
236.978	576
237.358	582.8
237.738	577
238.119	588.6
238.499	570
238.88	585.8
239.26	604
239.641	577.2
240.021	581
240.402	587
240.783	579.6
241.163	585.2
241.544	580.8
241.925	592
242.306	598.4
242.687	589.2
243.069	590
243.45	590.4
243.831	583.6
244.212	579.2
244.594	621.2
244.975	597.8
245.357	591.4
245.739	578.8
246.12	589.8
246.502	604
246.884	592.6
247.266	590.6
247.648	593
248.03	600.6
248.412	586.8
248.794	590
249.176	581.4
249.559	604.4
249.941	585.6
250.323	586.6
250.706	581.8
251.089	589.4
251.471	587.2
251.854	595.6
252.237	584
252.62	592.2
253.002	581.2
253.385	595
253.769	600.8
254.152	592.2
254.535	598
254.918	575.4
255.301	585.8
255.685	587.6
256.068	570.6
256.452	610.8
256.835	595.4
257.219	590.6
257.603	600
257.986	586.2
258.37	589.2
258.754	569.8
259.138	589.2
259.522	587
259.906	591
260.29	589.4
260.675	584.4
261.059	583.8
261.443	570.4
261.828	597.8
262.212	590.6
262.597	570.2
262.981	584
263.366	595.6
263.751	580.8
264.136	572
264.521	586.6
264.906	571.8
265.291	589.8
265.676	589
266.061	592.4
266.446	596.4
266.831	586.2
267.217	603.8
267.602	590
267.987	588.2
268.373	585.8
268.759	594.8
269.144	592.6
269.53	586.4
269.916	582.6
270.302	586.4
270.688	591.8
271.074	589.6
271.46	593.6
271.846	611
272.232	588
272.618	586
273.004	586.6
273.391	595
273.777	601.2
274.164	591.8
274.55	600.2
274.937	585.2
275.324	576.8
275.71	590.4
276.097	599.2
276.484	586.2
276.871	586.4
277.258	581.4
277.645	581.6
278.032	587.6
278.419	591.4
278.807	593.4
279.194	579.4
279.581	583.8
279.969	593.2
280.356	597
280.744	592
281.131	610.4
281.519	594.2
281.907	587.4
282.295	583.2
282.682	599.2
283.07	591.4
283.458	594.8
283.846	599
284.235	594.8
284.623	596
285.011	575.2
285.399	595.2
285.788	584.2
286.176	579.6
286.565	589.4
286.953	585.4
287.342	586.8
287.731	585.6
288.119	585.2
288.508	582.4
288.897	588.8
289.286	581.2
289.675	589.8
290.064	592.6
290.453	582
290.821	588.4
291.21	595
291.599	585.8
291.989	588.6
292.378	587.8
292.768	599.2
293.157	594.8
293.547	592.6
293.936	585.4
294.326	576.4
294.716	589.4
295.106	582.4
295.496	589
295.886	600
296.276	591.2
296.666	577.2
297.056	589
297.446	582.4
297.836	595
298.227	588.6
298.617	592.8
299.008	599.8
299.398	583
299.789	583.2
300.179	590.2
300.57	596.4
300.961	582.8
301.352	583
301.742	594.6
302.133	585.4
302.524	586.6
302.915	587.2
303.307	581.6
303.698	594.4
304.089	593.6
304.48	590.4
304.872	596
305.263	592.8
305.655	583
306.046	594.4
306.438	589.4
306.829	582.2
307.221	594.6
307.613	594.2
308.005	600.6
308.397	590.8
308.789	602.6
309.181	605.2
309.573	604.6
309.965	591.2
310.357	580
310.749	592.4
311.142	585.6
311.534	581.4
311.926	599.2
312.319	584.4
312.711	586.2
313.104	590
313.497	586
313.889	624.4
314.282	602.6
314.675	607.4
315.068	587.6
315.461	596
315.854	612.6
316.247	592.6
316.64	581.2
317.033	585.4
317.405	593.4
317.798	580
318.192	594.6
318.585	575.8
318.979	582.6
319.372	584.6
319.766	585.8
320.16	589.6
320.553	596.2
320.947	598.8
321.341	581
321.735	591.4
322.129	575
322.523	602.6
322.917	586.2
323.311	602
323.705	588.8
324.099	590.2
324.494	596
324.888	593.2
325.282	587.2
325.677	595.8
326.071	593
326.466	600
326.861	599.4
327.255	602.2
327.65	598.8
328.045	596
328.44	589.6
328.835	592
329.23	583.6
329.625	604.4
330.02	586.6
330.415	599.6
330.81	588.4
331.206	586.8
331.601	588.8
331.996	589.2
332.37	595.6
332.766	581
333.161	606.2
333.557	589.4
333.953	590.6
334.348	816
334.744	580.8
335.14	578
335.536	582.8
335.932	595.6
336.328	578.4
336.724	594.8
337.12	586.2
337.516	586
337.913	588.8
338.309	598.8
338.705	587.8
339.102	588
339.498	588.6
339.895	603.4
340.291	586.2
340.688	598.2
341.085	588.4
341.481	595.4
341.878	584.8
342.275	603.8
342.672	586
343.069	590.4
343.466	577.8
343.842	602.4
344.239	580.2
344.636	587.6
345.033	586.8
345.431	574.2
345.828	592.2
346.225	579.4
346.623	609.4
347.02	592
347.418	594
347.816	599.4
348.213	577.2
348.611	593
349.009	580.8
349.407	592.8
349.805	578.4
350.203	583
350.601	599.2
350.999	590.2
351.397	639
351.795	586.2
352.193	596
352.57	586
352.969	593.2
353.367	576.8
353.766	577.2
354.164	575.6
354.563	590.8
354.961	589
355.36	594
355.759	578.4
356.158	574.6
356.557	580.8
356.956	580.2
357.355	568.8
357.754	586.2
358.153	588.4
358.552	595.4
358.951	578
359.35	584.4
359.75	580.4
360.149	580
360.527	576.4
360.926	577
361.326	588.2
361.726	578
362.125	576.6
362.525	585.8
362.925	577.8
363.325	581
363.724	579.2
364.124	576
364.524	573
364.924	582.4
365.324	595
365.725	562
366.125	586.6
366.525	582.2
366.904	574.8
367.304	564.4
367.705	598.2
368.105	593.8
368.506	575.8
368.906	581.4
369.307	582.6
369.708	585.6
370.108	576.4
370.509	592.2
370.91	574.8
371.311	577.2
371.712	579.6
372.113	579.2
372.514	565
372.894	584.4
373.295	579.4
373.696	597.4
374.097	589
374.499	611.2
374.9	579
375.301	572.4
375.703	586.8
376.105	574.2
376.506	580.4
376.908	581.4
377.309	586.2
377.711	567.4
378.113	575.8
378.493	581.2
378.895	572.2
379.297	583.6
379.699	572
380.102	578
380.504	582.2
380.906	576.6
381.308	602.8
381.71	588.6
382.113	585.4
382.515	575
382.918	584.6
383.299	578.8
383.701	592.2
384.104	585
384.507	564.2
384.909	577.6
385.312	572.2
385.715	575
386.118	585
386.521	573
386.924	592.6
387.327	573.6
387.709	572.2
388.112	565
388.515	580.2
388.918	573.6
389.322	585.2
389.725	580.2
390.129	598
390.532	583.6
390.936	581.6
391.339	572.6
391.743	586.4
392.125	574
392.529	591.4
392.933	587.2
393.337	583
393.74	572.2
394.144	576.6
394.548	573.6
394.953	577.8
395.357	581.2
395.761	577.4
396.144	576.2
396.548	579.6
396.952	582.6
397.357	579.8
397.761	578.2
398.166	582.2
398.57	572.8
398.975	575.2
399.379	578.2
399.763	618.2
400.168	572
400.572	586.8
400.977	590
401.382	593.8
401.787	586.8
402.192	600.4
402.597	583
403.002	574
403.386	582.2
403.791	594.2
404.197	571.2
404.602	580
405.007	577
405.413	577
405.818	572.4
406.224	575.8
406.608	573.2
407.014	569
407.42	593.4
407.825	578
408.231	587.8
408.637	580.6
409.043	593.2
409.449	574.2
409.834	570.2
410.24	580.4
410.646	587.4
411.052	585.8
411.458	583.8
411.865	590.6
412.271	584.2
412.677	579.2
413.062	579.2
413.469	576.8
413.875	602
414.282	594.2
414.689	583.2
415.095	586.2
415.502	573.8
415.888	580.4
416.294	571.8
416.701	613.4
417.108	570.6
417.515	586.4
417.923	587.6
418.33	601.4
418.715	591.6
419.123	576.6
419.53	575.4
419.937	577.2
420.345	594.2
420.752	578
421.16	584
421.546	574.2
421.953	579.4
422.361	574.6
422.769	584
423.177	576.8
423.585	598
423.992	609.6
424.379	590.6
424.787	592.8
425.195	595.8
425.603	587.4
426.011	591.2
426.419	594.4
426.806	591.2
427.214	582.8
427.623	599.4
428.031	600
428.44	592.6
428.848	597
429.235	604.6
429.644	593.8
430.053	586.6
430.461	605.6
430.87	613.2
431.279	603
431.666	600.6
432.075	612.2
432.484	616.2
432.893	616.8
433.302	644
433.711	664
434.099	645.6
434.508	642
434.918	648.8
435.327	661.8
435.737	674.8
436.125	674.6
436.534	694.8
436.944	697.4
437.353	695.8
437.763	727.8
438.173	706.2
438.561	734.2
438.971	712.2
439.381	723.2
439.791	748.8
440.201	738
440.589	754.6
440.999	763.6
441.409	771
441.819	761.4
442.23	791.4
442.619	788.6
443.029	789.2
443.439	787.4
443.85	799.8
444.26	812.2
444.649	812.4
445.06	817
445.471	800.2
445.881	815.4
446.292	832.2
446.682	835.8
447.092	814.6
447.503	871
447.914	829
448.325	842.4
448.715	840.4
449.126	839.4
449.537	852.6
449.948	844.2
450.338	854.8
450.75	853.4
451.161	851.6
451.572	858
451.984	844.6
452.374	843.8
452.786	855.2
453.197	840.4
453.609	855.6
453.999	840.4
454.411	846.2
454.823	859.6
455.235	868.8
455.647	853
456.037	864.6
456.449	847.8
456.862	859
457.274	865.4
457.665	854
458.077	861.2
458.489	885.2
458.902	857.2
459.293	859
459.705	861.8
460.118	859.2
460.53	871.6
460.921	850.4
461.334	865
461.747	868.8
462.16	877
462.551	876
462.964	873.8
463.377	858
463.79	867
464.182	875.4
464.595	870.4
465.008	887.8
465.421	873.8
465.813	877.6
466.226	876.6
466.64	866.2
467.053	899.2
467.445	874
467.859	886.8
468.272	874.6
468.686	876.6
469.078	866.8
469.492	855.2
469.906	863.4
470.298	868.4
470.712	860
471.126	912.2
471.54	857.2
471.933	846
472.347	862.8
472.761	859
473.175	863.2
473.568	855.6
473.982	846.4
474.397	861
474.79	858.4
475.204	849.2
475.619	860.2
476.033	853.6
476.426	852.6
476.841	856.6
477.256	874.8
477.649	843.2
478.064	843.2
478.479	844.8
478.872	845.4
479.287	821.8
479.702	839.2
480.118	840.8
480.511	831.6
480.927	839.6
481.342	830.2
481.736	847.4
482.151	833.8
482.566	850.4
482.96	846
483.376	841
483.792	825.8
484.186	839.8
484.602	825.4
485.017	832.8
485.412	817
485.827	823
486.243	837.4
486.638	838.2
487.054	827.4
487.47	829.6
487.865	811.4
488.281	812.6
488.697	806
489.092	803.8
489.508	801.6
489.925	810.2
490.32	795.4
490.736	806
491.153	808.2
491.548	803
491.964	803.6
492.381	782.4
492.776	796.2
493.193	789.6
493.61	802.8
494.006	791.2
494.422	802.2
494.84	775.6
495.235	801.4
495.652	787
496.069	787.6
496.465	777.4
496.883	777
497.3	802.6
497.696	776
498.113	785.2
498.509	769.6
498.927	757.2
499.344	760.8
499.741	766.6
500.158	767
500.576	772
500.973	763.2
501.39	757.4
501.787	753.6
502.205	763.4
502.623	748
503.02	750.2
503.438	747.4
503.856	746
504.253	751
504.671	754.2
505.068	742.8
505.486	737.8
505.905	757.6
506.302	739
506.72	747.8
507.118	731
507.536	730
507.955	728.2
508.352	744.2
508.771	733.2
509.169	738
509.587	733.4
510.006	733.8
510.404	714
510.823	717.8
511.221	724.8
511.64	725.6
512.038	725.2
512.457	716
512.877	722.6
513.275	712.2
513.694	701
514.092	700.8
514.512	710
514.91	718.6
515.33	710.4
515.749	697.8
516.148	704
516.568	712.8
516.966	704.6
517.386	696.6
517.785	701.6
518.205	694
518.603	695
519.024	686.6
519.444	696.4
519.843	698.2
520.263	687.8
520.662	693.8
521.082	685.6
521.481	691.4
521.902	683.4
522.301	681
522.722	690.8
523.121	678.8
523.542	671.8
523.963	678.8
524.362	686.6
524.783	681.8
525.183	672.6
525.604	674.8
526.003	668.8
526.425	670.2
526.824	670.2
527.246	675.6
527.646	680
528.067	660.4
528.467	660.6
528.888	663.4
529.289	663.2
529.71	664.4
530.11	656
530.532	651.4
530.932	654
531.354	655
531.755	689.8
532.176	664
532.577	656.6
532.999	652.6
533.4	654
533.822	653.6
534.223	653.8
534.645	650.8
535.046	646.8
535.468	655.8
535.869	661.2
536.292	637.2
536.693	675
537.115	652.2
537.516	650
537.939	649.6
538.34	656.8
538.742	657.6
539.165	644.4
539.566	647.6
539.989	637.6
540.391	642
540.814	641.2
541.216	641
541.639	636.6
542.041	646
542.464	642.6
542.866	634.2
543.268	636.2
543.691	639.4
544.093	641.6
544.517	650.2
544.919	634.4
545.343	652.8
545.745	621.4
546.147	638.4
546.571	620.2
546.974	637.2
547.398	641
547.8	644.4
548.224	638.4
548.627	626.2
549.03	620.8
549.454	617.8
549.857	617.6
550.281	616.4
550.684	610.4
551.087	628.6
551.512	628.6
551.915	621.8
552.34	617.6
552.743	618.2
553.146	625.8
553.571	618.8
553.975	633.4
554.399	617.4
554.803	656.2
555.207	618.6
555.632	609.8
556.036	619
556.461	606
556.865	620.8
557.268	603.2
557.694	611.8
558.098	620.8
558.502	611.6
558.927	603.4
559.332	615.2
559.736	606.2
560.162	608.8
560.566	606
560.992	614.6
561.396	608.4
561.801	611.8
562.227	616.6
562.631	612.2
563.036	600
563.462	614
563.867	601.6
564.272	597.4
564.698	609.6
565.103	595
565.508	619.2
565.935	610.8
566.34	593.4
566.745	620.8
567.172	605.8
567.577	628.2
567.982	610.8
568.409	610.4
568.815	598.6
569.22	603.8
569.626	602
570.053	592.6
570.459	604
570.865	600.8
571.292	599.4
571.698	603
572.104	583.6
572.531	592.4
572.937	601
573.343	600.2
573.75	596
574.177	597
574.583	605.6
574.99	599.6
575.396	601.8
575.824	591
576.231	599.4
576.637	592.8
577.065	619.6
577.472	596.2
577.879	585.4
578.286	603.2
578.714	591.6
579.121	590
579.528	594.8
579.935	601.4
580.364	583.6
580.771	581
581.178	579.6
581.585	583.2
582.014	597.6
582.421	587
582.829	586.2
583.236	593.8
583.644	584.2
584.073	589.6
584.481	589.6
584.889	581.6
585.296	588.2
585.726	589.2
586.134	581.8
586.542	578.4
586.95	605.2
587.358	574.4
587.787	591.4
588.196	600.4
588.604	589.2
589.012	588.6
589.421	581
589.851	574.6
590.259	586.4
590.668	578.8
591.076	611.2
591.485	578.2
591.894	587.4
592.324	599
592.733	593.2
593.142	572.6
593.551	579.2
593.96	584.6
594.369	576
594.8	573.6
595.209	581
595.618	564.2
596.028	574.2
596.437	572.2
596.847	583
597.256	576.4
597.687	576.2
598.097	583
598.507	567.4
598.917	581.4
599.327	584.2
599.736	577
600.146	586
600.556	580.2
600.988	591.6
601.398	569.6
601.808	583.8
602.219	566.6
602.629	581.6
603.039	571.6
603.45	601
603.86	573.2
604.271	593.2
604.703	581.2
605.114	574.4
605.525	580.6
605.935	581.2
606.346	592.2
606.757	584.2
607.168	571.6
607.579	569.6
607.99	584.8
608.402	581.6
608.813	577.8
609.224	574.2
609.636	569.2
610.047	564.4
610.48	571.6
610.892	575.8
611.303	579.2
611.715	572.4
612.127	570.2
612.539	572.8
612.95	571.6
613.362	561
613.774	560.4
614.186	568.6
614.599	554.8
615.011	579.8
615.423	575.8
615.835	567
616.248	559
616.66	579.8
617.073	568.6
617.485	570.2
617.898	570.8
618.311	580.8
618.723	571.4
619.136	594.6
619.549	581.6
619.962	586.8
620.375	571.2
620.788	579
621.201	566.8
621.614	578.4
622.028	569
622.441	581
622.854	578
623.268	567.6
623.681	576
624.095	568
624.509	583.6
624.922	579.2
625.336	565.2
625.728	574.6
626.142	582.4
626.556	588.8
626.97	578
627.384	566.6
627.799	576.4
628.213	578
628.627	568
629.041	563.4
629.456	567.4
629.87	564.4
630.285	570.8
630.699	572.8
631.093	571.4
631.507	571.2
631.922	573.8
632.337	584
632.752	563.2
633.167	570.6
633.582	565.4
633.997	567
634.412	565.6
634.806	572
635.221	562.2
635.637	575.2
636.052	562.8
636.468	571.2
636.883	582.6
637.299	580.2
637.715	558
638.109	573
638.525	557.2
638.941	574.2
639.357	574.4
639.773	578.2
640.189	566.6
640.584	567.6
641	567.6
641.416	557.4
641.832	569.2
642.249	560
642.665	566.8
643.06	570
643.477	583.8
643.894	561.8
644.31	566.6
644.727	564
645.123	565
645.54	562.4
645.957	570.6
646.374	580
646.77	568.6
647.187	584.8
647.604	566.2
648.021	555.2
648.439	559.8
648.835	573.4
649.252	572.8
649.67	564.4
650.088	562.4
650.484	572.8
650.902	568.4
651.32	574.6
651.738	570.4
652.134	568.8
652.552	587
652.971	572.2
653.389	562.4
653.786	573.8
654.204	587.6
654.622	558.2
655.019	562.8
655.438	572.6
655.857	554.2
656.275	563
656.673	561.4
657.091	567.6
657.51	565.4
657.908	574.2
658.327	575.4
658.746	560.8
659.144	562.2
659.563	575.8
659.982	566
660.38	560.2
660.8	566.6
661.219	580.4
661.617	572.4
662.037	567.4
662.457	572.6
662.855	559.4
663.275	586.2
663.695	574.2
664.094	564.4
664.514	566.8
664.934	560.2
665.333	567.8
665.753	562.2
666.152	563.4
666.572	556.6
666.993	576.8
667.392	568.8
667.812	564
668.212	566.6
668.632	568.4
669.053	562.4
669.453	568.2
669.874	573.8
670.273	565.8
670.694	563.4
671.116	581
671.515	564.2
671.937	569.2
672.337	568.8
672.758	564.6
673.158	567.2
673.58	557.2
673.98	571.8
674.402	580.6
674.824	564.6
675.224	571
675.646	557
676.047	560
676.469	571.8
676.869	572.4
677.292	566.8
677.693	558.6
678.115	559
678.516	571.8
678.939	572
679.34	565
679.762	566.4
680.164	569.2
680.586	557.8
680.988	569.4
681.411	590.2
681.812	557.4
682.236	565
682.637	558.2
683.061	552.4
683.462	560.2
683.864	554.6
684.288	566.6
684.69	546.6
685.114	569.4
685.516	565
685.94	557.6
686.342	567
686.766	554.4
687.168	560.4
687.571	568.8
687.995	564
688.398	550.6
688.822	563.6
689.225	581.8
689.628	585.6
690.052	559.4
690.456	566
690.88	568
691.284	558.4
691.687	561
692.112	554.2
692.515	558.6
692.919	569.2
693.344	569.8
693.747	559.6
694.173	556.4
694.577	574.2
694.98	573.8
695.406	559.4
695.81	568
696.214	559
696.64	561.2
697.044	567.8
697.448	571.2
697.874	560.6
698.279	559.8
698.684	559
699.11	553.6
699.514	558.2
699.919	558.2
700.324	551.8
700.75	563.4
701.156	563.2
701.561	575.8
701.987	568.2
702.393	566
702.798	572.6
703.203	564.4
703.63	552.8
704.036	559.4
704.442	563
704.847	554
705.274	567.4
705.68	558.8
706.086	570.6
706.492	555.4
706.92	563.4
707.326	570.2
707.732	554.6
708.139	561.2
708.545	556.2
708.973	556.2
709.38	554.8
709.786	549.8
710.193	570
710.6	564
711.028	558.6
711.435	565.4
711.842	559.8
712.249	556.4
712.656	563.4
713.064	577
713.492	551.6
713.9	560
714.307	568.8
714.715	558.4
715.123	567
715.53	562.4
715.938	570.2
716.367	564.4
716.775	569
717.184	555.8
717.592	557.2
718	569.6
718.408	591.2
718.816	600.6
719.225	561.6
719.633	566
720.042	556.2
720.472	561
720.881	573.2
721.29	564.6
721.699	555
722.108	559.8
722.517	561.6
722.926	556.6
723.335	575.4
723.744	562.8
724.154	568.4
724.563	561.8
724.973	566.6
725.382	560
725.792	552.4
726.202	545.8
726.612	575.6
727.022	554.4
727.432	546.8
779.813	558.6
780.223	600.4
780.634	552.6
781.044	550.8
781.454	562
781.865	573.4
782.276	545.8
782.686	564.8
783.097	564
783.508	560
783.919	561.4
784.33	568.2
784.741	572.6
785.152	565.4
785.563	547.6
785.974	559.6
786.386	567
786.776	560.4
787.188	563.2
787.599	556.2
788.011	566.4
788.423	559
788.835	555.4
789.247	548.2
789.659	551.6
790.071	558.6
790.483	590.2
790.874	560.2
791.286	563
791.699	559.2
792.111	561
792.524	560.2
792.937	559.2
793.349	552
793.741	560.4
794.154	554.6
794.567	580.2
794.98	558.6
795.393	549.8
795.785	568.4
796.198	556.6
796.612	557.8
797.026	556
797.439	548.4
797.831	552
798.245	545.4
798.659	559
799.073	554.2
799.487	549.8
799.88	554.4
800.294	561
800.708	562.6
801.123	553
801.516	577.8
801.93	546
802.345	549.2
802.76	560.8
803.153	565.6
803.568	562
803.983	567.2
804.377	560
804.792	551.4
805.207	546.6
805.601	562.2
806.016	589.8
806.432	555.8
806.826	583.8
807.242	569.4
807.658	555
808.052	555
808.468	559.8
808.884	559.8
809.279	555
809.695	570.8
810.111	579.8
810.506	569.6
810.922	574.6
811.339	558
811.734	565
812.151	556.2
812.546	556.6
812.963	551
813.38	559.6
813.776	563.6
814.193	572.6
814.589	567.2
815.006	555.4
815.402	552.8
815.82	552.2
816.237	553.8
816.633	569.4
817.051	552.6
817.448	552.8
817.866	553.6
818.262	574.2
818.68	557.6
819.077	553.4
819.495	556.6
819.892	591.6
820.311	549.6
820.708	554.6
821.127	550.8
821.524	564.4
821.943	562.2
822.34	573.4
822.759	555
823.157	564.4
823.576	565.4
823.974	566
824.393	598.2
824.791	562.2
825.189	556
825.609	556
826.007	558.6
826.427	556.4
826.826	554
827.246	557.4
827.644	546.2
828.043	571.4
828.463	558.8
828.862	556
829.261	559.8
829.682	540
830.081	573.4
830.502	545.6
830.901	558.4
831.301	570
831.722	549.4
832.121	554.8
832.521	551.2
832.943	563
833.342	554.4
833.742	546.2
834.164	558.4
834.564	552.6
834.965	552
835.386	553.6
835.787	558.6
836.188	555.8
836.588	556.8
837.01	560.8
837.411	548.4
837.812	562.8
838.213	559.4
838.636	556.8
839.037	612
839.438	563.2
839.84	559.8
840.263	556.6
840.664	558
841.066	553
841.468	554
841.891	549.2
842.293	565.2
842.695	557.4
843.098	568.2
843.5	562.4
843.902	556.8
844.326	568.8
844.729	560
845.131	572.6
845.534	551.4
845.937	568.6
846.34	571.6
846.764	559.8
847.167	560.4
847.571	547
847.974	558
848.377	556.4
848.781	589.8
849.184	558.4
849.588	553.2
849.992	554.4
850.396	553
850.821	573.4
851.225	563.2
851.63	548
852.034	565
852.438	559.6
852.843	614.6
853.247	553.8
853.652	550
854.057	572.2
854.462	562
854.867	568
855.272	579.4
855.677	550.2
856.082	550.8
856.487	545.6
856.893	558.2
857.298	552
857.704	549
