#lambda/nm	C1
208.295	533.6
208.67	483.2
209.045	442.8
209.419	444.6
209.794	607.6
210.169	593.8
210.544	706.6
210.919	615.8
211.295	603
211.67	608.6
212.045	608.4
212.421	599.6
212.796	638
213.172	603.6
213.547	595
213.923	608
214.299	601.4
214.675	614.4
215.051	611.6
215.427	618.8
215.803	628
216.179	604.4
216.555	600.8
216.932	610.6
217.308	607.6
217.684	606.4
218.061	610.4
218.438	612
218.814	608.4
219.191	613.6
219.568	596.4
219.945	601
220.322	612.8
220.699	615.4
221.076	610.2
221.453	615
221.83	605.8
222.208	595.8
222.585	604.4
222.962	615.8
223.34	598.2
223.717	603.4
224.095	599.6
224.473	598.8
224.851	601.2
225.229	598.4
225.607	612.6
225.985	597.6
226.363	603.6
226.741	605
227.119	606.4
227.497	619.8
227.876	595
228.254	611.2
228.633	611.6
229.011	609.2
229.39	610.6
229.769	615
230.148	607.4
230.527	620.8
230.905	609.4
231.284	610.8
231.664	602
232.043	612.6
232.422	615
232.801	602
233.181	606.4
233.56	602.2
233.94	609
234.319	600
234.699	597.4
235.079	645.6
235.458	644.2
235.838	622.2
236.218	599
236.598	594.8
236.978	603.8
237.358	598.8
237.738	599.6
238.119	607
238.499	593.2
238.88	601.2
239.26	622.4
239.641	584
240.021	600
240.402	602
240.783	595.2
241.163	603.2
241.544	602
241.925	605.6
242.306	612.6
242.687	605
243.069	606.8
243.45	613.2
243.831	601.2
244.212	607
244.594	633.6
244.975	615.6
245.357	604.2
245.739	596.2
246.12	611.6
246.502	609.2
246.884	603.6
247.266	600.8
247.648	602
248.03	616.2
248.412	612.8
248.794	606.8
249.176	606
249.559	615.6
249.941	600.8
250.323	600.4
250.706	597.6
251.089	606.6
251.471	605.6
251.854	603.8
252.237	604.4
252.62	611.8
253.002	612.6
253.385	602.6
253.769	616
254.152	605.8
254.535	609.8
254.918	599
255.301	609.6
255.685	604
256.068	594.2
256.452	623.8
256.835	617.4
257.219	611.6
257.603	613.8
257.986	605.6
258.37	610
258.754	594.2
259.138	617.2
259.522	620.2
259.906	608.2
260.29	608.6
260.675	606.8
261.059	607.8
261.443	606.6
261.828	612.8
262.212	608
262.597	591.4
262.981	601
263.366	612.8
263.751	612.2
264.136	604.6
264.521	608.4
264.906	605.6
265.291	615.2
265.676	600.2
266.061	611.6
266.446	621.6
266.831	601.8
267.217	631.2
267.602	614.4
267.987	605.2
268.373	598.2
268.759	621.8
269.144	614.4
269.53	605.8
269.916	603
270.302	604.2
270.688	614.2
271.074	606
271.46	618.6
271.846	630.8
272.232	604
272.618	605.8
273.004	604.2
273.391	612.4
273.777	626
274.164	609.6
274.55	617.8
274.937	608.2
275.324	603.8
275.71	612.2
276.097	611.4
276.484	604.6
276.871	616.8
277.258	606.2
277.645	594.4
278.032	604
278.419	598.8
278.807	613.4
279.194	599.6
279.581	608.8
279.969	612.8
280.356	603.2
280.744	605
281.131	629.4
281.519	614.6
281.907	598.6
282.295	605
282.682	611.6
283.07	611.2
283.458	619.6
283.846	612.2
284.235	620.8
284.623	616.4
285.011	603.8
285.399	607.6
285.788	602.8
286.176	589.2
286.565	615.6
286.953	603.2
287.342	610
287.731	605
288.119	599.4
288.508	594.8
288.897	597.4
289.286	598.2
289.675	605.4
290.064	621
290.453	601.4
290.821	602.4
291.21	617.6
291.599	595.4
291.989	606.4
292.378	612.2
292.768	617.4
293.157	611.4
293.547	612
293.936	596
294.326	601
294.716	611.2
295.106	603.8
295.496	608
295.886	616.2
296.276	604.6
296.666	591
297.056	598.6
297.446	584.2
297.836	620
298.227	613.8
298.617	609.2
299.008	620.4
299.398	601.2
299.789	591.2
300.179	607
300.57	618.6
300.961	606.2
301.352	595.8
301.742	606
302.133	610.4
302.524	593.4
302.915	606
303.307	593.8
303.698	621.8
304.089	607.6
304.48	605.2
304.872	616.6
305.263	612.4
305.655	599.8
306.046	617.2
306.438	605.2
306.829	604.2
307.221	620.6
307.613	614
308.005	615.2
308.397	622.2
308.789	621
309.181	631.4
309.573	611.6
309.965	622.6
310.357	602.2
310.749	619
311.142	598.8
311.534	606.2
311.926	605.6
312.319	597.8
312.711	604.4
313.104	614.6
313.497	603.6
313.889	647.2
314.282	616.4
314.675	622.4
315.068	612.2
315.461	618
315.854	636.8
316.247	616.2
316.64	611.2
317.033	595.8
317.405	613.4
317.798	603.2
318.192	607.4
318.585	600.2
318.979	614
319.372	606
319.766	605.2
320.16	617.8
320.553	621
320.947	616
321.341	600.2
321.735	606.6
322.129	590.2
322.523	631.6
322.917	601.6
323.311	612.4
323.705	612.6
324.099	618.2
324.494	619
324.888	616.8
325.282	604
325.677	612.8
326.071	623
326.466	623.8
326.861	611.4
327.255	615
327.65	622.8
328.045	621
328.44	609.2
328.835	608.2
329.23	608.4
329.625	632.8
330.02	610.4
330.415	625.8
330.81	610.6
331.206	611.8
331.601	604.6
331.996	614.8
332.37	627.6
332.766	595
333.161	623.6
333.557	603.6
333.953	604.6
334.348	926.2
334.744	604
335.14	607.4
335.536	596.2
335.932	615.6
336.328	600.4
336.724	614.4
337.12	606.2
337.516	606.4
337.913	605
338.309	623.2
338.705	595
339.102	610.6
339.498	597.8
339.895	618.6
340.291	596.4
340.688	614.8
341.085	594.8
341.481	604.4
341.878	606.8
342.275	614.8
342.672	592.8
343.069	595.4
343.466	594.6
343.842	617.6
344.239	600.6
344.636	609.6
345.033	603.6
345.431	599.8
345.828	599
346.225	600.8
346.623	636.6
347.02	606.4
347.418	611.8
347.816	619.6
348.213	601.8
348.611	614.6
349.009	604.8
349.407	615.4
349.805	595.8
350.203	589.8
350.601	620.4
350.999	605.2
351.397	660.2
351.795	604.4
352.193	606.6
352.57	615.4
352.969	622.4
353.367	595.6
353.766	594.6
354.164	604.2
354.563	608.6
354.961	602.8
355.36	605.8
355.759	601.8
356.158	601
356.557	599
356.956	598.2
357.355	586
357.754	603.2
358.153	606
358.552	632.8
358.951	597
359.35	619.2
359.75	602.8
360.149	602
360.527	586.4
360.926	591.2
361.326	603.8
361.726	596.8
362.125	594.8
362.525	611.6
362.925	598
363.325	598.8
363.724	606.8
364.124	605.6
364.524	604
364.924	601
365.324	604.2
365.725	587.2
366.125	605.6
366.525	603.4
366.904	596
367.304	583
367.705	625
368.105	613
368.506	599.8
368.906	602.4
369.307	602.8
369.708	610.6
370.108	593.4
370.509	602.6
370.91	592.6
371.311	599.4
371.712	605.2
372.113	603
372.514	593.4
372.894	601
373.295	593
373.696	606.4
374.097	616
374.499	626.4
374.9	600.2
375.301	588.8
375.703	600.8
376.105	596
376.506	606.6
376.908	606.2
377.309	600.4
377.711	604.2
378.113	595.6
378.493	595
378.895	594.6
379.297	600.2
379.699	592
380.102	604.2
380.504	602.4
380.906	602.8
381.308	627
381.71	594.8
382.113	606
382.515	593.6
382.918	601.6
383.299	599.6
383.701	597
384.104	598.6
384.507	583
384.909	598.8
385.312	587.2
385.715	585.6
386.118	594.4
386.521	587.2
386.924	608.6
387.327	591.6
387.709	584.6
388.112	577
388.515	593.8
388.918	598.2
389.322	594
389.725	589.8
390.129	609.8
390.532	604.8
390.936	602
391.339	588.8
391.743	593
392.125	590.6
392.529	610.6
392.933	605.2
393.337	598.8
393.74	598
394.144	602
394.548	591.2
394.953	594.8
395.357	605.6
395.761	592.6
396.144	604
396.548	600.8
396.952	603.2
397.357	590
397.761	591.4
398.166	588
398.57	598.6
398.975	586.4
399.379	605.8
399.763	634.2
400.168	598.4
400.572	593.2
400.977	599
401.382	607.4
401.787	610.6
402.192	617.2
402.597	612.8
403.002	590.6
403.386	612.2
403.791	616.8
404.197	592.6
404.602	602.4
405.007	604.6
405.413	595.2
405.818	599.2
406.224	592.4
406.608	595
407.014	597.6
407.42	612.2
407.825	585.4
408.231	611.4
408.637	601
409.043	611.2
409.449	600.8
409.834	588
410.24	600.8
410.646	616.4
411.052	609
411.458	604.8
411.865	615.8
412.271	614
412.677	604
413.062	601
413.469	589.2
413.875	614.4
414.282	619.6
414.689	603.2
415.095	606.6
415.502	601.4
415.888	599.4
416.294	581.8
416.701	638.2
417.108	594.6
417.515	613
417.923	601
418.33	614.4
418.715	609.6
419.123	601.4
419.53	597.8
419.937	599.4
420.345	610.6
420.752	594.6
421.16	615.8
421.546	599.2
421.953	609.4
422.361	602
422.769	602
423.177	590.2
423.585	630.8
423.992	615.4
424.379	614
424.787	613.4
425.195	624
425.603	600
426.011	614.6
426.419	605.4
426.806	604
427.214	608.8
427.623	617.4
428.031	611.6
428.44	614.2
428.848	614.4
429.235	621.4
429.644	608.2
430.053	614.8
430.461	626
430.87	636.8
431.279	628.2
431.666	611.8
432.075	627.8
432.484	632.6
432.893	635.6
433.302	650.2
433.711	678
434.099	650.2
434.508	647.6
434.918	645.2
435.327	666
435.737	666.8
436.125	670
436.534	678.8
436.944	685.2
437.353	697.2
437.763	708.2
438.173	696.2
438.561	721.6
438.971	705.6
439.381	722.2
439.791	731.6
440.201	717
440.589	743
440.999	755.4
441.409	751.8
441.819	749.2
442.23	769.2
442.619	778.2
443.029	770.2
443.439	781.8
443.85	793.2
444.26	799.2
444.649	795.6
445.06	794.4
445.471	794.2
445.881	803.6
446.292	808.8
446.682	813.2
447.092	788.2
447.503	852.2
447.914	811
448.325	807.8
448.715	822.6
449.126	816
449.537	822.8
449.948	818.6
450.338	811.4
450.75	835
451.161	829
451.572	824.2
451.984	825.6
452.374	819.6
452.786	832.2
453.197	854.8
453.609	839.4
453.999	825.4
454.411	817.8
454.823	846.2
455.235	841.6
455.647	835.4
456.037	836.6
456.449	825
456.862	843.6
457.274	838.8
457.665	829
458.077	848.4
458.489	869
458.902	845.6
459.293	839.6
459.705	847.8
460.118	837
460.53	851.2
460.921	851.6
461.334	848
461.747	832.4
462.16	858.4
462.551	858.4
462.964	845
463.377	833.4
463.79	841
464.182	848.6
464.595	838.2
465.008	846
465.421	849
465.813	849
466.226	859.2
466.64	854
467.053	881.2
467.445	867
467.859	869
468.272	844.2
468.686	853.2
469.078	841.6
469.492	832.6
469.906	858.8
470.298	851
470.712	839.2
471.126	886.8
471.54	831.8
471.933	825
472.347	842.6
472.761	831
473.175	837.2
473.568	833.4
473.982	834.4
474.397	846.6
474.79	827.4
475.204	840.2
475.619	834.4
476.033	847.8
476.426	837.6
476.841	819.4
477.256	846.4
477.649	814.2
478.064	820
478.479	825.4
478.872	822.2
479.287	807
479.702	811.6
480.118	825.2
480.511	826.2
480.927	812.6
481.342	810
481.736	828.8
482.151	815.4
482.566	820.6
482.96	808.2
483.376	816.2
483.792	795.6
484.186	807.8
484.602	814.8
485.017	805
485.412	795.8
485.827	810.4
486.243	802.6
486.638	822.2
487.054	814.4
487.47	805.6
487.865	794.6
488.281	799.4
488.697	792.6
489.092	801.2
489.508	797
489.925	807.8
490.32	785.8
490.736	802.2
491.153	804.4
491.548	792.2
491.964	809.6
492.381	775.6
492.776	786
493.193	780.2
493.61	783.6
494.006	791.8
494.422	785.6
494.84	771
495.235	784.8
495.652	776.2
496.069	770.4
496.465	762.8
496.883	769.6
497.3	793
497.696	767.4
498.113	779.8
498.509	757.4
498.927	744
499.344	750.2
499.741	755.8
500.158	764.2
500.576	762.8
500.973	749.6
501.39	744.8
501.787	738.6
502.205	758.2
502.623	738.4
503.02	738.2
503.438	736.8
503.856	743.2
504.253	743
504.671	751.4
505.068	733.2
505.486	738.4
505.905	748.2
506.302	733.4
506.72	745
507.118	722.2
507.536	733.4
507.955	720.6
508.352	738
508.771	741
509.169	725.4
509.587	721.8
510.006	724.4
510.404	711.8
510.823	719
511.221	718.6
511.64	725
512.038	729
512.457	715.2
512.877	709.2
513.275	711.8
513.694	725.4
514.092	712
514.512	717.2
514.91	715
515.33	701.8
515.749	707
516.148	708.6
516.568	708.4
516.966	704
517.386	704.2
517.785	704.8
518.205	697.6
518.603	695
519.024	692.8
519.444	691.8
519.843	702.8
520.263	702.2
520.662	695.2
521.082	696.2
521.481	694.2
521.902	691
522.301	686.4
522.722	675.4
523.121	684
523.542	680.6
523.963	690.4
524.362	686.2
524.783	681.6
525.183	679.2
525.604	686.4
526.003	670
526.425	668.2
526.824	682.4
527.246	678.4
527.646	680.4
528.067	678.2
528.467	676
528.888	669
529.289	674.8
529.71	666.2
530.11	667.2
530.532	666.2
530.932	655
531.354	655.8
531.755	681.8
532.176	666.6
532.577	658.2
532.999	659
533.4	653.8
533.822	664.4
534.223	662.8
534.645	666.2
535.046	652.8
535.468	661.8
535.869	667
536.292	655.8
536.693	683.6
537.115	664
537.516	654.2
537.939	654.6
538.34	670.6
538.742	657.8
539.165	662.2
539.566	644.4
539.989	639.4
540.391	647.8
540.814	650
541.216	651.2
541.639	644
542.041	664.4
542.464	650.4
542.866	641.8
543.268	638
543.691	640.4
544.093	651.2
544.517	657
544.919	631.2
545.343	664.8
545.745	644.4
546.147	652
546.571	648.4
546.974	636.2
547.398	634.6
547.8	653.4
548.224	635.6
548.627	635
549.03	644.8
549.454	630.4
549.857	623.4
550.281	634.6
550.684	634.2
551.087	645.8
551.512	639.6
551.915	641.8
552.34	635.4
552.743	634.6
553.146	639
553.571	639.4
553.975	649.6
554.399	630.2
554.803	672
555.207	622.4
555.632	617.4
556.036	627.4
556.461	617.8
556.865	631.8
557.268	620
557.694	619.8
558.098	638.6
558.502	621
558.927	624.2
559.332	626.8
559.736	628
560.162	622
560.566	631.2
560.992	630.4
561.396	626
561.801	616.8
562.227	629.6
562.631	621.4
563.036	624.2
563.462	627.2
563.867	619
564.272	606
564.698	621.4
565.103	607
565.508	636.8
565.935	622.4
566.34	612.4
566.745	642.2
567.172	618.6
567.577	627.4
567.982	629.6
568.409	615.2
568.815	610.8
569.22	617
569.626	621.4
570.053	597.4
570.459	613
570.865	621.6
571.292	621.8
571.698	618.2
572.104	608.8
572.531	609
572.937	622.6
573.343	614.2
573.75	611
574.177	603.2
574.583	613.2
574.99	594.4
575.396	617
575.824	605.6
576.231	623.8
576.637	606.2
577.065	626
577.472	602.6
577.879	597.6
578.286	614.8
578.714	597.2
579.121	603.6
579.528	608.4
579.935	610
580.364	598.8
580.771	595.4
581.178	597.8
581.585	611.2
582.014	609.2
582.421	603.4
582.829	603
583.236	617.2
583.644	598.6
584.073	600.4
584.481	610.6
584.889	594.2
585.296	606.2
585.726	604
586.134	590
586.542	595.4
586.95	623.8
587.358	590
587.787	608.6
588.196	614.6
588.604	605.8
589.012	604.2
589.421	590
589.851	597.8
590.259	602
590.668	599.4
591.076	636.2
591.485	599
591.894	596.2
592.324	614.4
592.733	616.2
593.142	587.4
593.551	587.8
593.96	631.8
594.369	590.4
594.8	584.8
595.209	596.6
595.618	592.2
596.028	586.2
596.437	584.8
596.847	595.2
597.256	596.2
597.687	594.4
598.097	589.6
598.507	590.6
598.917	599
599.327	597.4
599.736	603.4
600.146	608.8
600.556	596.8
600.988	599
601.398	598.4
601.808	602
602.219	588.8
602.629	597
603.039	597.2
603.45	625
603.86	600
604.271	609
604.703	598.6
605.114	589.2
605.525	592
605.935	601.6
606.346	609.2
606.757	590
607.168	596.8
607.579	591.4
607.99	609.4
608.402	595.8
608.813	597.6
609.224	585.6
609.636	583
610.047	589.6
610.48	598
610.892	594.4
611.303	599.6
611.715	594.8
612.127	581.8
612.539	582.4
612.95	597.2
613.362	579.6
613.774	583.2
614.186	583.8
614.599	591.8
615.011	599.2
615.423	590.6
615.835	587.4
616.248	578.4
616.66	588
617.073	582.4
617.485	583.2
617.898	592.8
618.311	588.8
618.723	590
619.136	622.6
619.549	609.8
619.962	610.2
620.375	594.2
620.788	593.2
621.201	585.4
621.614	593.6
622.028	586.8
622.441	595.4
622.854	600.2
623.268	581.2
623.681	599.6
624.095	581.2
624.509	598.2
624.922	600.8
625.336	582.4
625.728	586.8
626.142	599
626.556	593.6
626.97	582.6
627.384	579.8
627.799	576.8
628.213	602.6
628.627	580.8
629.041	587.6
629.456	589
629.87	576.8
630.285	597.2
630.699	592.4
631.093	592.8
631.507	584.4
631.922	600
632.337	598
632.752	584.8
633.167	586.8
633.582	583.2
633.997	586.6
634.412	579
634.806	589
635.221	583.4
635.637	596
636.052	573.8
636.468	583.2
636.883	599.2
637.299	583
637.715	568.6
638.109	582.2
638.525	580.2
638.941	605.6
639.357	593.8
639.773	591.6
640.189	585.2
640.584	586.8
641	587.2
641.416	573.4
641.832	583.2
642.249	587
642.665	589.2
643.06	586.4
643.477	597.4
643.894	571.6
644.31	582
644.727	592.6
645.123	585
645.54	576
645.957	585.6
646.374	591.2
646.77	586.8
647.187	614.4
647.604	590
648.021	573.2
648.439	577
648.835	594.4
649.252	592
649.67	575
650.088	588.6
650.484	586.6
650.902	591
651.32	588.8
651.738	582.2
652.134	584.8
652.552	609.2
652.971	596
653.389	578
653.786	598.8
654.204	603.8
654.622	576
655.019	589.8
655.438	587.8
655.857	590.2
656.275	587.4
656.673	577
657.091	588.6
657.51	581
657.908	596.8
658.327	602.8
658.746	568.4
659.144	581.2
659.563	590.6
659.982	585.4
660.38	575
660.8	586.8
661.219	587.2
661.617	590.8
662.037	582.8
662.457	600.2
662.855	577
663.275	614.8
663.695	591.8
664.094	585.8
664.514	587.8
664.934	577.2
665.333	588.2
665.753	581.6
666.152	568
666.572	584.8
666.993	597.2
667.392	580.6
667.812	579.2
668.212	575.2
668.632	596
669.053	585.8
669.453	586.2
669.874	581.8
670.273	587.2
670.694	581.8
671.116	594.2
671.515	593.8
671.937	580.4
672.337	571.2
672.758	572
673.158	584.8
673.58	572.2
673.98	581
674.402	589.2
674.824	576.4
675.224	576.4
675.646	572
676.047	578.6
676.469	576.8
676.869	584.6
677.292	581.2
677.693	577.2
678.115	573.4
678.516	579
678.939	577.6
679.34	575
679.762	598.4
680.164	582
680.586	573
680.988	584
681.411	606.2
681.812	575.4
682.236	571.8
682.637	576
683.061	569
683.462	581
683.864	578.4
684.288	585.4
684.69	580.6
685.114	599.6
685.516	596.8
685.94	571.2
686.342	591.8
686.766	576.2
687.168	572.6
687.571	596
687.995	589.6
688.398	570.2
688.822	576.8
689.225	591.6
689.628	598
690.052	579.8
690.456	579.4
690.88	575
691.284	575.6
691.687	589
692.112	566.4
692.515	569.6
692.919	580.6
693.344	580.2
693.747	575.8
694.173	575.2
694.577	589.2
694.98	579.4
695.406	572.4
695.81	587.4
696.214	582
696.64	579.8
697.044	582
697.448	585.8
697.874	573.8
698.279	582.4
698.684	569.6
699.11	576.2
699.514	575.8
699.919	578.2
700.324	574.6
700.75	586.2
701.156	572
701.561	589.6
701.987	587.2
702.393	593
702.798	588.4
703.203	581.6
703.63	575.4
704.036	572
704.442	570.2
704.847	568.2
705.274	580.6
705.68	584
706.086	592
706.492	577.8
706.92	574.6
707.326	584
707.732	572.8
708.139	569.8
708.545	567
708.973	574.6
709.38	584.6
709.786	569.4
710.193	594.4
710.6	585.6
711.028	571.4
711.435	570.4
711.842	584
712.249	578.2
712.656	575
713.064	585.8
713.492	579.8
713.9	583.6
714.307	579
714.715	583.6
715.123	587
715.53	584
715.938	582.2
716.367	578.2
716.775	580.4
717.184	574.8
717.592	579.8
718	584
718.408	612
718.816	615.8
719.225	577
719.633	579
720.042	569.8
720.472	584.4
720.881	608.2
721.29	576.2
721.699	568.6
722.108	586.6
722.517	581.2
722.926	580.4
723.335	581.6
723.744	575.6
724.154	577
724.563	578.4
724.973	578.4
725.382	574.2
725.792	574.8
726.202	564
726.612	597.4
727.022	581
727.432	570.4
779.813	570.4
780.223	622.6
780.634	572.8
781.044	571.4
781.454	570.4
781.865	584.2
782.276	570.6
782.686	579.6
783.097	573.6
783.508	566.8
783.919	578.8
784.33	580.2
784.741	582.6
785.152	565.8
785.563	557.8
785.974	570
786.386	579.6
786.776	573.8
787.188	574.2
787.599	570.8
788.011	579
788.423	582
788.835	573.6
789.247	562.2
789.659	562.6
790.071	572
790.483	614.4
790.874	573.2
791.286	586.6
791.699	576
792.111	578
792.524	585.4
792.937	572.8
793.349	572.8
793.741	575.2
794.154	586.8
794.567	597.8
794.98	576.2
795.393	568.6
795.785	587.4
796.198	570.4
796.612	579.2
797.026	578.8
797.439	560.6
797.831	579.6
798.245	565.4
798.659	580.4
799.073	571.6
799.487	579.8
799.88	581.2
800.294	578
800.708	574.6
801.123	583.4
801.516	588.2
801.93	569
802.345	571.6
802.76	574.4
803.153	586.8
803.568	595.6
803.983	586.4
804.377	576.4
804.792	554.2
805.207	566.6
805.601	578
806.016	605.4
806.432	573.6
806.826	606.4
807.242	586
807.658	577.6
808.052	572.2
808.468	567.2
808.884	570.2
809.279	579.4
809.695	588
810.111	601.8
810.506	570.8
810.922	596
811.339	570.4
811.734	585.6
812.151	578.8
812.546	573.6
812.963	579
813.38	586.4
813.776	585
814.193	598.4
814.589	575
815.006	578.4
815.402	569.4
815.82	572.2
816.237	580.4
816.633	581.8
817.051	569
817.448	574.6
817.866	571.6
818.262	589.4
818.68	561.2
819.077	572.4
819.495	571.8
819.892	603.4
820.311	571.4
820.708	577.4
821.127	570.2
821.524	584.2
821.943	580.6
822.34	594.2
822.759	575
823.157	578.6
823.576	588
823.974	576.4
824.393	610.4
824.791	565.2
825.189	563.2
825.609	569.4
826.007	568.8
826.427	562.8
826.826	571.2
827.246	578
827.644	569.6
828.043	585.2
828.463	574.2
828.862	582.2
829.261	579.8
829.682	569.2
830.081	580
830.502	571.2
830.901	578
831.301	586.8
831.722	571.6
832.121	572.6
832.521	572.4
832.943	569.2
833.342	569.2
833.742	563.6
834.164	570.8
834.564	560
834.965	575.8
835.386	568.6
835.787	569
836.188	570
836.588	580
837.01	578.6
837.411	567.4
837.812	583
838.213	574.2
838.636	571.2
839.037	634.4
839.438	582.2
839.84	581.8
840.263	579.6
840.664	575.8
841.066	568
841.468	576
841.891	574.4
842.293	576.8
842.695	577.8
843.098	584.2
843.5	563.8
843.902	579.2
844.326	575.4
844.729	576.2
845.131	584.4
845.534	573.4
845.937	593.4
846.34	584.6
846.764	570.4
847.167	575
847.571	566.8
847.974	575.4
848.377	573.6
848.781	610.8
849.184	587.4
849.588	573.4
849.992	570.4
850.396	571.8
850.821	597.8
851.225	575.6
851.63	577
852.034	582.8
852.438	575.2
852.843	603.2
853.247	567.8
853.652	570.4
854.057	592.8
854.462	577.4
854.867	583.8
855.272	598.2
855.677	577.8
856.082	562.8
856.487	563.2
856.893	576.2
857.298	578.2
