#lambda/nm	C1
208.295	574.2
208.67	507.8
209.045	468.6
209.419	468.6
209.794	591.4
210.169	575
210.544	659.6
210.919	589
211.295	576.2
211.67	584
212.045	577.8
212.421	571.4
212.796	607.4
213.172	584
213.547	572
213.923	583
214.299	580
214.675	579.6
215.051	583.6
215.427	587.6
215.803	591
216.179	584.8
216.555	582.6
216.932	583.6
217.308	567.8
217.684	583
218.061	586.2
218.438	583.4
218.814	572
219.191	583
219.568	579.4
219.945	575.8
220.322	585.2
220.699	581.6
221.076	577.6
221.453	579.4
221.83	570.6
222.208	578
222.585	573
222.962	577.6
223.34	583.4
223.717	572.4
224.095	575.6
224.473	578.2
224.851	573
225.229	570.8
225.607	582
225.985	573
226.363	576.6
226.741	579
227.119	583.2
227.497	588
227.876	566.4
228.254	580.6
228.633	577.8
229.011	572.4
229.39	584
229.769	584.8
230.148	579.2
230.527	595.4
230.905	571.2
231.284	579.6
231.664	581.4
232.043	588
232.422	588.4
232.801	574.6
233.181	585.6
233.56	575
233.94	577
234.319	563.2
234.699	580
235.079	612.2
235.458	605.8
235.838	591.6
236.218	568.4
236.598	572.4
236.978	567.8
237.358	570.8
237.738	571.4
238.119	583
238.499	567.2
238.88	577.8
239.26	583.6
239.641	572.4
240.021	574.6
240.402	580.2
240.783	572
241.163	573.6
241.544	582.4
241.925	574.2
242.306	593.4
242.687	583
243.069	574.2
243.45	588.4
243.831	573
244.212	573.2
244.594	605.4
244.975	578.8
245.357	576.6
245.739	573.2
246.12	576.2
246.502	591
246.884	578.6
247.266	579
247.648	583.6
248.03	591
248.412	577.4
248.794	579.8
249.176	575
249.559	579.6
249.941	579.2
250.323	567.8
250.706	575.8
251.089	582.2
251.471	577.2
251.854	571.8
252.237	577.6
252.62	588.8
253.002	576.8
253.385	571
253.769	583.2
254.152	584.4
254.535	592.4
254.918	571.4
255.301	580.2
255.685	578
256.068	573.6
256.452	598.2
256.835	592.2
257.219	577.2
257.603	590.8
257.986	577.2
258.37	578
258.754	571.6
259.138	582.2
259.522	587.8
259.906	577.2
260.29	576.4
260.675	575.8
261.059	575.8
261.443	567.6
261.828	583.4
262.212	582.6
262.597	570.4
262.981	574.8
263.366	577.4
263.751	579
264.136	573.8
264.521	573.4
264.906	572.2
265.291	586.8
265.676	577.2
266.061	578.8
266.446	598.2
266.831	582.4
267.217	600.6
267.602	577.8
267.987	571.8
268.373	570.4
268.759	590.4
269.144	580.4
269.53	579.4
269.916	573.4
270.302	571.2
270.688	583.2
271.074	577.8
271.46	578.4
271.846	594.4
272.232	575.8
272.618	572.8
273.004	569
273.391	576.4
273.777	583.6
274.164	567.8
274.55	580.4
274.937	580.4
275.324	579
275.71	583.6
276.097	580.6
276.484	564
276.871	579.4
277.258	570.8
277.645	566.8
278.032	570.6
278.419	577
278.807	580.6
279.194	570.4
279.581	570.4
279.969	576.2
280.356	579.4
280.744	585.2
281.131	598.2
281.519	584.4
281.907	571.4
282.295	577.2
282.682	586.2
283.07	573.2
283.458	580
283.846	582.6
284.235	578.8
284.623	589.6
285.011	571.8
285.399	582.2
285.788	579.8
286.176	566
286.565	575.2
286.953	575.2
287.342	575.8
287.731	571.2
288.119	569.2
288.508	571.4
288.897	583.4
289.286	568
289.675	580.4
290.064	580.6
290.453	572.6
290.821	578.8
291.21	590
291.599	575.6
291.989	586.2
292.378	582.8
292.768	587.6
293.157	580.2
293.547	582.2
293.936	580.4
294.326	570.4
294.716	581.8
295.106	576.6
295.496	586
295.886	579.8
296.276	579.6
296.666	574.2
297.056	572.6
297.446	571.6
297.836	588
298.227	577
298.617	577.6
299.008	590.6
299.398	579.4
299.789	573.2
300.179	577.6
300.57	590.2
300.961	572.4
301.352	574.6
301.742	587
302.133	578
302.524	573.2
302.915	580.4
303.307	571.8
303.698	587.6
304.089	581.2
304.48	577.6
304.872	583.4
305.263	577.2
305.655	570.2
306.046	587.8
306.438	578.6
306.829	577.8
307.221	585.2
307.613	585.6
308.005	585.2
308.397	583.6
308.789	596.8
309.181	602
309.573	588
309.965	589.6
310.357	574.8
310.749	587.8
311.142	569.2
311.534	571
311.926	580.8
312.319	578.6
312.711	577.4
313.104	581
313.497	573.8
313.889	603.6
314.282	590.2
314.675	594
315.068	579
315.461	584.8
315.854	601.4
316.247	578.6
316.64	574
317.033	576.8
317.405	581.8
317.798	572.4
318.192	573.6
318.585	568.6
318.979	580.4
319.372	570.2
319.766	572.4
320.16	575.6
320.553	583.4
320.947	582.8
321.341	572.2
321.735	566
322.129	573.6
322.523	588.4
322.917	572.6
323.311	582.8
323.705	573.8
324.099	580
324.494	584.6
324.888	581.2
325.282	585
325.677	591.6
326.071	585
326.466	580
326.861	575
327.255	586.2
327.65	588.8
328.045	584.4
328.44	579.8
328.835	581.6
329.23	571
329.625	600
330.02	579
330.415	596
330.81	579.6
331.206	580.6
331.601	574.8
331.996	587.2
332.37	594
332.766	572.6
333.161	593.4
333.557	569.4
333.953	577.4
334.348	893.2
334.744	573.2
335.14	575.8
335.536	574
335.932	585.8
336.328	580.4
336.724	583.8
337.12	571.6
337.516	582
337.913	576.8
338.309	580.4
338.705	580.6
339.102	583.8
339.498	576
339.895	579
340.291	574.6
340.688	583.6
341.085	568.4
341.481	584.2
341.878	576.8
342.275	596.6
342.672	570.8
343.069	573.2
343.466	568
343.842	588.2
344.239	574.6
344.636	571.6
345.033	573.6
345.431	568.4
345.828	583.6
346.225	572.2
346.623	605.4
347.02	574.4
347.418	579.8
347.816	587.4
348.213	576.2
348.611	588
349.009	571.6
349.407	589.6
349.805	568.6
350.203	578
350.601	586.2
350.999	580.2
351.397	624.6
351.795	574.6
352.193	581
352.57	587.6
352.969	590.8
353.367	571.8
353.766	573
354.164	574.4
354.563	583.8
354.961	582.2
355.36	573
355.759	571.6
356.158	562
356.557	568.2
356.956	569
357.355	566.8
357.754	577
358.153	586.6
358.552	590.8
358.951	572.6
359.35	582.8
359.75	576
360.149	567.8
360.527	568.4
360.926	567.6
361.326	577.8
361.726	576.2
362.125	572.6
362.525	578.2
362.925	577.2
363.325	572.6
363.724	575.4
364.124	572.8
364.524	567.4
364.924	567
365.324	572.2
365.725	570.4
366.125	581.6
366.525	577.4
366.904	560.6
367.304	555.8
367.705	584.6
368.105	589.2
368.506	566.8
368.906	571.6
369.307	567
369.708	574.6
370.108	559
370.509	580.2
370.91	561.2
371.311	563
371.712	568.2
372.113	568.2
372.514	564
372.894	567.4
373.295	567.8
373.696	576.6
374.097	574.2
374.499	587
374.9	569.8
375.301	565.6
375.703	568.4
376.105	562.6
376.506	578.2
376.908	577.8
377.309	567.8
377.711	567
378.113	567.4
378.493	574
378.895	571.8
379.297	571.4
379.699	562.8
380.102	568.6
380.504	565
380.906	567.6
381.308	590.4
381.71	570.4
382.113	567.2
382.515	568.6
382.918	567
383.299	568
383.701	575.2
384.104	570.8
384.507	558.6
384.909	568.4
385.312	564.8
385.715	557.8
386.118	569.4
386.521	555
386.924	573.6
387.327	563.4
387.709	556.8
388.112	549
388.515	567
388.918	578.4
389.322	573.2
389.725	571.2
390.129	588.4
390.532	573.4
390.936	569.2
391.339	569.4
391.743	574
392.125	560.4
392.529	572.8
392.933	572.4
393.337	570.4
393.74	569.4
394.144	573.4
394.548	564.2
394.953	572.8
395.357	579.4
395.761	564.8
396.144	569.6
396.548	572
396.952	579.6
397.357	568
397.761	562.4
398.166	563
398.57	570.2
398.975	568
399.379	572.4
399.763	611.8
400.168	567.4
400.572	567.8
400.977	577.8
401.382	583.4
401.787	579.2
402.192	584.4
402.597	585.4
403.002	564.8
403.386	578.8
403.791	583
404.197	563.8
404.602	569.4
405.007	570.8
405.413	561.6
405.818	566.4
406.224	563.2
406.608	564.6
407.014	567.6
407.42	580.6
407.825	563.2
408.231	578.2
408.637	575
409.043	576.2
409.449	566.2
409.834	564.6
410.24	574.8
410.646	578.6
411.052	576.6
411.458	565.6
411.865	568.4
412.271	578.8
412.677	571
413.062	575.8
413.469	568.4
413.875	580.2
414.282	576
414.689	565
415.095	578.8
415.502	566
415.888	573.2
416.294	564
416.701	603
417.108	559.4
417.515	574.4
417.923	566.4
418.33	581.2
418.715	576.4
419.123	566
419.53	564.2
419.937	571.6
420.345	578
420.752	556
421.16	579.6
421.546	565.8
421.953	575.4
422.361	560.6
422.769	568.8
423.177	557.6
423.585	589.8
423.992	580
424.379	573.8
424.787	576.2
425.195	585.2
425.603	569.2
426.011	577.8
426.419	587.4
426.806	576.6
427.214	568.6
427.623	584.6
428.031	591.8
428.44	575
428.848	581.4
429.235	587.2
429.644	573
430.053	580
430.461	592.4
430.87	591.2
431.279	595.6
431.666	580
432.075	596.6
432.484	595.6
432.893	601.2
433.302	621.8
433.711	635.8
434.099	614
434.508	611.8
434.918	611
435.327	625
435.737	633
436.125	636.2
436.534	639.6
436.944	642.4
437.353	638.2
437.763	669
438.173	656.8
438.561	673.4
438.971	663.2
439.381	672
439.791	689.2
440.201	673.8
440.589	698
440.999	703.4
441.409	700.6
441.819	702.8
442.23	719.8
442.619	714
443.029	726.2
443.439	730.2
443.85	732.2
444.26	745
444.649	736
445.06	739.2
445.471	737.8
445.881	742
446.292	755.6
446.682	753
447.092	745.6
447.503	792
447.914	769.4
448.325	755.6
448.715	758
449.126	755.8
449.537	755.6
449.948	763.2
450.338	767
450.75	768.8
451.161	776.4
451.572	771.4
451.984	758.4
452.374	757.6
452.786	774.6
453.197	773.4
453.609	782.2
453.999	758
454.411	766.8
454.823	783.2
455.235	779.8
455.647	764.2
456.037	770.2
456.449	771
456.862	772.8
457.274	773.6
457.665	769.8
458.077	781.4
458.489	800.8
458.902	774.6
459.293	779.4
459.705	785.6
460.118	777.6
460.53	789
460.921	780.8
461.334	781.8
461.747	783.2
462.16	792.6
462.551	797.6
462.964	793.2
463.377	766.8
463.79	783.6
464.182	790.8
464.595	776.4
465.008	781.2
465.421	782.8
465.813	776.2
466.226	792.8
466.64	775
467.053	809.6
467.445	787.4
467.859	792.2
468.272	773.4
468.686	782.6
469.078	789.4
469.492	770.8
469.906	770.6
470.298	779.2
470.712	770.8
471.126	804.2
471.54	759.2
471.933	765.2
472.347	769.6
472.761	771.6
473.175	764.6
473.568	776
473.982	762.4
474.397	777.4
474.79	774.2
475.204	778.6
475.619	779.2
476.033	778.4
476.426	771.4
476.841	752
477.256	782.8
477.649	757.8
478.064	763
478.479	763.8
478.872	755.2
479.287	751.6
479.702	761.8
480.118	772.2
480.511	761.6
480.927	754.2
481.342	751.2
481.736	756.4
482.151	759.4
482.566	765
482.96	759.4
483.376	768.4
483.792	752.2
484.186	754.4
484.602	750.2
485.017	753.6
485.412	754.2
485.827	752
486.243	752.8
486.638	765.2
487.054	748.4
487.47	762.4
487.865	741.8
488.281	744.2
488.697	742.4
489.092	742.6
489.508	736.2
489.925	754.4
490.32	730.6
490.736	739.4
491.153	736
491.548	741.8
491.964	735.4
492.381	721
492.776	734
493.193	731
493.61	734.4
494.006	732.4
494.422	729.8
494.84	721.8
495.235	727
495.652	724.2
496.069	718.4
496.465	711.8
496.883	722.2
497.3	732
497.696	712.6
498.113	725.6
498.509	706
498.927	708.4
499.344	709.4
499.741	707.8
500.158	727.4
500.576	715.4
500.973	706.8
501.39	700.2
501.787	698.2
502.205	709
502.623	701
503.02	695.4
503.438	691.2
503.856	699.2
504.253	698.2
504.671	696.8
505.068	693.6
505.486	696.8
505.905	708
506.302	688.8
506.72	685.2
507.118	684.6
507.536	690.6
507.955	688.6
508.352	695.2
508.771	686
509.169	697.8
509.587	674.2
510.006	680.4
510.404	673.6
510.823	672.6
511.221	673.8
511.64	678.8
512.038	685.4
512.457	672.2
512.877	672.4
513.275	665.4
513.694	663
514.092	667.2
514.512	666.4
514.91	675.2
515.33	660.6
515.749	663
516.148	666
516.568	659.4
516.966	656.6
517.386	654.4
517.785	654.8
518.205	655.8
518.603	651.4
519.024	661
519.444	657.6
519.843	654.8
520.263	660.8
520.662	660.2
521.082	648.6
521.481	646.8
521.902	655.6
522.301	649.8
522.722	660.4
523.121	649
523.542	642
523.963	648.2
524.362	648.6
524.783	640.6
525.183	640.6
525.604	649.6
526.003	633
526.425	640
526.824	644.2
527.246	645.4
527.646	646.8
528.067	641.8
528.467	633
528.888	644
529.289	637.8
529.71	635.4
530.11	633.4
530.532	628
530.932	625.4
531.354	626.4
531.755	653
532.176	635.2
532.577	633.8
532.999	632.8
533.4	625.8
533.822	631.2
534.223	636.6
534.645	626.4
535.046	622.6
535.468	630.4
535.869	638.8
536.292	622
536.693	646.2
537.115	621
537.516	613.2
537.939	626.4
538.34	630.4
538.742	640
539.165	622.2
539.566	622
539.989	613.8
540.391	613.4
540.814	618.2
541.216	620.6
541.639	616
542.041	629.2
542.464	614
542.866	615.6
543.268	605.4
543.691	617.6
544.093	617
544.517	628.6
544.919	605.6
545.343	626.2
545.745	613
546.147	613.8
546.571	615.4
546.974	605.6
547.398	612
547.8	624.2
548.224	610.4
548.627	607
549.03	611.4
549.454	594.8
549.857	603.6
550.281	605.2
550.684	601.2
551.087	614.2
551.512	599
551.915	611.4
552.34	593.4
552.743	599.6
553.146	604.8
553.571	601
553.975	614.2
554.399	590.6
554.803	644.8
555.207	602.6
555.632	592.6
556.036	608
556.461	594.2
556.865	604.2
557.268	595.8
557.694	592.6
558.098	599.8
558.502	589
558.927	596
559.332	591
559.736	590.8
560.162	600.8
560.566	597
560.992	598
561.396	585.6
561.801	584.6
562.227	591.8
562.631	593
563.036	599.6
563.462	592.6
563.867	586.8
564.272	579.2
564.698	589
565.103	581
565.508	607.8
565.935	588.6
566.34	589.4
566.745	593.2
567.172	581.8
567.577	599.4
567.982	592.8
568.409	590.8
568.815	582.2
569.22	590
569.626	593.8
570.053	571.4
570.459	589.6
570.865	585.6
571.292	590
571.698	587.4
572.104	577.4
572.531	575.4
572.937	590.2
573.343	581.2
573.75	576.2
574.177	576
574.583	591.2
574.99	575.6
575.396	580
575.824	578
576.231	583.6
576.637	574
577.065	596
577.472	584.4
577.879	579.2
578.286	593
578.714	575.6
579.121	572.6
579.528	584.6
579.935	587
580.364	580.2
580.771	565.2
581.178	572.2
581.585	575.4
582.014	581.6
582.421	575.8
582.829	576.8
583.236	585.4
583.644	574.8
584.073	576
584.481	578
584.889	572.8
585.296	575.8
585.726	580
586.134	576
586.542	571.4
586.95	587
587.358	571
587.787	582.2
588.196	589.6
588.604	573
589.012	578
589.421	571.8
589.851	566.2
590.259	581.8
590.668	578.8
591.076	604
591.485	573.2
591.894	572.6
592.324	585.2
592.733	582
593.142	564.4
593.551	566.6
593.96	605.2
594.369	558.4
594.8	566.4
595.209	573.6
595.618	571
596.028	567.8
596.437	573.6
596.847	576.2
597.256	578
597.687	577.8
598.097	576.8
598.507	566
598.917	581.8
599.327	582.4
599.736	580.2
600.146	584
600.556	564
600.988	579.4
601.398	572.8
601.808	588
602.219	563.8
602.629	576.6
603.039	576.6
603.45	596
603.86	575.2
604.271	588.4
604.703	580.6
605.114	565
605.525	575
605.935	572.6
606.346	593.6
606.757	576.8
607.168	575.8
607.579	568.6
607.99	577.4
608.402	574.4
608.813	576.6
609.224	567.4
609.636	571
610.047	566.6
610.48	574.6
610.892	582.6
611.303	584.4
611.715	566
612.127	569.4
612.539	572.4
612.95	572.8
613.362	557
613.774	563.6
614.186	569.6
614.599	568
615.011	581
615.423	570.4
615.835	573.6
616.248	562.2
616.66	567.4
617.073	566.6
617.485	571.6
617.898	570.6
618.311	572.4
618.723	566.2
619.136	594.8
619.549	578
619.962	583.4
620.375	571.8
620.788	578.2
621.201	566.6
621.614	576.4
622.028	575.4
622.441	575.8
622.854	577.6
623.268	565.6
623.681	575.2
624.095	578.6
624.509	584.2
624.922	580.4
625.336	567.8
625.728	567.2
626.142	578.2
626.556	580.8
626.97	574.2
627.384	573.8
627.799	573.8
628.213	581.8
628.627	571.6
629.041	568.4
629.456	572.6
629.87	571.8
630.285	576
630.699	581.2
631.093	566.8
631.507	579.8
631.922	572
632.337	579
632.752	565
633.167	567
633.582	566.4
633.997	560.6
634.412	568
634.806	571.6
635.221	562.6
635.637	577.8
636.052	555.8
636.468	566.4
636.883	581.6
637.299	569
637.715	556.8
638.109	574.2
638.525	560.8
638.941	585.8
639.357	572.2
639.773	573.2
640.189	562
640.584	566.2
641	569.4
641.416	561.4
641.832	559.2
642.249	570.8
642.665	569
643.06	561.8
643.477	571.2
643.894	558
644.31	564.6
644.727	560.4
645.123	572.8
645.54	561
645.957	564.4
646.374	578.6
646.77	572.6
647.187	588.4
647.604	561.4
648.021	556.6
648.439	562.4
648.835	566.4
649.252	562.6
649.67	561.8
650.088	567.4
650.484	566.6
650.902	574.2
651.32	568.2
651.738	565.6
652.134	565.4
652.552	580.6
652.971	568.8
653.389	564.8
653.786	580.4
654.204	573
654.622	558.4
655.019	566.4
655.438	567.4
655.857	568.4
656.275	564.8
656.673	562.2
657.091	573.4
657.51	557
657.908	563
658.327	574.8
658.746	556
659.144	563.2
659.563	580.4
659.982	567
660.38	550
660.8	563.4
661.219	570.4
661.617	566.4
662.037	559.8
662.457	571.8
662.855	549.2
663.275	588.2
663.695	561.8
664.094	555.4
664.514	567.8
664.934	547.6
665.333	561.8
665.753	550.2
666.152	554.8
666.572	555
666.993	560.4
667.392	556.2
667.812	563.4
668.212	562.8
668.632	566
669.053	550.2
669.453	563
669.874	560.8
670.273	564
670.694	556.4
671.116	563
671.515	571.6
671.937	559
672.337	552.2
672.758	558.2
673.158	569.8
673.58	549.2
673.98	558.2
674.402	576.8
674.824	559
675.224	552.2
675.646	554.6
676.047	559.8
676.469	564.4
676.869	567.2
677.292	565.2
677.693	560.4
678.115	556.8
678.516	561.2
678.939	565.2
679.34	555.6
679.762	560.2
680.164	563.6
680.586	555.4
680.988	560.8
681.411	580
681.812	560.4
682.236	552
682.637	552
683.061	555.6
683.462	560.2
683.864	556.4
684.288	559.8
684.69	547
685.114	563.2
685.516	563.6
685.94	553.4
686.342	563.6
686.766	553.2
687.168	557.6
687.571	573.4
687.995	561.6
688.398	551.8
688.822	558.4
689.225	562.4
689.628	569.4
690.052	562.8
690.456	562.2
690.88	560.6
691.284	554.4
691.687	560.8
692.112	557.6
692.515	554.8
692.919	554.8
693.344	554.4
693.747	551
694.173	555
694.577	565.8
694.98	559.4
695.406	555.2
695.81	566.4
696.214	556.2
696.64	556.6
697.044	559.4
697.448	563.6
697.874	556
698.279	564
698.684	543.4
699.11	548.2
699.514	555.8
699.919	564
700.324	553.8
700.75	553.2
701.156	559.4
701.561	564
701.987	556.4
702.393	563.2
702.798	563.6
703.203	554.8
703.63	554.2
704.036	551.4
704.442	551.2
704.847	538.6
705.274	546.4
705.68	553.8
706.086	568.4
706.492	544.4
706.92	553.6
707.326	560.6
707.732	551.2
708.139	556.4
708.545	554.6
708.973	549.4
709.38	554.8
709.786	545.4
710.193	567
710.6	548.8
711.028	547.8
711.435	552.4
711.842	553
712.249	546.2
712.656	538.8
713.064	559.6
713.492	540.2
713.9	544.2
714.307	547.8
714.715	548.4
715.123	550.6
715.53	548.6
715.938	551.2
716.367	550.8
716.775	548.2
717.184	541
717.592	551.8
718	553.4
718.408	575.6
718.816	580.4
719.225	548
719.633	555.6
720.042	547
720.472	551.2
720.881	575.4
721.29	554.4
721.699	548.4
722.108	565.4
722.517	550
722.926	547.4
723.335	559.4
723.744	552.4
724.154	551
724.563	551.2
724.973	559.2
725.382	554
725.792	556.4
726.202	546.8
726.612	575.4
727.022	552
727.432	541.4
779.813	555.6
780.223	588.6
780.634	551
781.044	550.6
781.454	550.8
781.865	565
782.276	539.6
782.686	554.8
783.097	549.4
783.508	556.2
783.919	544.8
784.33	554.2
784.741	552.8
785.152	541.4
785.563	536.4
785.974	549
786.386	556
786.776	549
787.188	543.8
787.599	545
788.011	549.8
788.423	550.2
788.835	547.6
789.247	543.2
789.659	545
790.071	549.2
790.483	584.8
790.874	546
791.286	551.4
791.699	553.2
792.111	550.6
792.524	559.2
792.937	549
793.349	543.2
793.741	547.6
794.154	551
794.567	552.6
794.98	544.8
795.393	542.2
795.785	551.6
796.198	543.8
796.612	550.6
797.026	553.8
797.439	535.2
797.831	546.8
798.245	547
798.659	547.8
799.073	551.4
799.487	549
799.88	551.8
800.294	551.2
800.708	557.8
801.123	545
801.516	563
801.93	547.6
802.345	542.6
802.76	555.2
803.153	566.2
803.568	558
803.983	555.2
804.377	553.8
804.792	550.8
805.207	546.4
805.601	549
806.016	577.2
806.432	552.8
806.826	569.4
807.242	554.8
807.658	555
808.052	543.4
808.468	551.8
808.884	549.4
809.279	549.4
809.695	560.4
810.111	572.6
810.506	553.2
810.922	567.4
811.339	545.4
811.734	557.4
812.151	543.2
812.546	541
812.963	545.6
813.38	544
813.776	535.4
814.193	565.6
814.589	544.6
815.006	537.4
815.402	543.8
815.82	546.8
816.237	543
816.633	550.6
817.051	543.2
817.448	554.2
817.866	546.4
818.262	566.4
818.68	541.4
819.077	554.2
819.495	553
819.892	581.2
820.311	541.6
820.708	548.2
821.127	554.2
821.524	556.8
821.943	550.4
822.34	560
822.759	552.2
823.157	549
823.576	563.8
823.974	559.2
824.393	567
824.791	545.8
825.189	543.8
825.609	550.6
826.007	551.4
826.427	541.8
826.826	552.2
827.246	553.2
827.644	539.4
828.043	558.4
828.463	543.6
828.862	560
829.261	547
829.682	537
830.081	554.2
830.502	540.4
830.901	552.4
831.301	561.8
831.722	536.6
832.121	551
832.521	544
832.943	552
833.342	548.4
833.742	548.2
834.164	555
834.564	539.2
834.965	545.8
835.386	547
835.787	550.2
836.188	552.4
836.588	552
837.01	542.2
837.411	540
837.812	555
838.213	549.6
838.636	543
839.037	605.2
839.438	544.6
839.84	557.4
840.263	553.6
840.664	554
841.066	546.2
841.468	549
841.891	544.4
842.293	551.6
842.695	553.6
843.098	556.2
843.5	549.2
843.902	548.6
844.326	552
844.729	552.4
845.131	552.4
845.534	552.2
845.937	563.8
846.34	563
846.764	545
847.167	554.4
847.571	540.2
847.974	547.6
848.377	544
848.781	591.6
849.184	561
849.588	541.6
849.992	544
850.396	542
850.821	561.4
851.225	553.2
851.63	559
852.034	550.4
852.438	544.2
852.843	602.6
853.247	539.8
853.652	542.2
854.057	557.8
854.462	555.6
854.867	545.8
855.272	564.8
855.677	554.4
856.082	541.2
856.487	538
856.893	544.2
857.298	545.2
