#lambda/nm	C1
208.295	561.8
208.67	500.4
209.045	457.6
209.419	462.4
209.794	589.8
210.169	571.8
210.544	674.8
210.919	594.8
211.295	580
211.67	591.6
212.045	579.6
212.421	586.2
212.796	609
213.172	577.6
213.547	575.2
213.923	581.2
214.299	579.8
214.675	590.2
215.051	589.8
215.427	585.2
215.803	608.4
216.179	588.4
216.555	580.6
216.932	592.2
217.308	585.8
217.684	586.6
218.061	588.4
218.438	587.8
218.814	581
219.191	590.8
219.568	576.8
219.945	581.2
220.322	590.8
220.699	586.2
221.076	591
221.453	582
221.83	578
222.208	578.4
222.585	587.6
222.962	584
223.34	590.2
223.717	583.8
224.095	581.6
224.473	585.2
224.851	578.4
225.229	571
225.607	596
225.985	577
226.363	584.8
226.741	585.2
227.119	580
227.497	588.8
227.876	576.4
228.254	590.6
228.633	586.8
229.011	586.8
229.39	595.4
229.769	589.2
230.148	584.8
230.527	593.4
230.905	583.4
231.284	588.2
231.664	579.6
232.043	596.8
232.422	590.8
232.801	574
233.181	589.2
233.56	589.6
233.94	583.6
234.319	575.2
234.699	581.2
235.079	618.2
235.458	614.4
235.838	594.4
236.218	580
236.598	577.6
236.978	579
237.358	573.4
237.738	577
238.119	595.4
238.499	570
238.88	583.6
239.26	602.6
239.641	576
240.021	581
240.402	591.8
240.783	573.4
241.163	581.4
241.544	591.6
241.925	584.8
242.306	592.2
242.687	583.8
243.069	582
243.45	584.6
243.831	582.2
244.212	574.8
244.594	616.6
244.975	593.2
245.357	586
245.739	581.2
246.12	587
246.502	595.2
246.884	581.8
247.266	584.2
247.648	592.2
248.03	601.4
248.412	580
248.794	585
249.176	583
249.559	589.6
249.941	573.2
250.323	572.2
250.706	576.4
251.089	587.6
251.471	581.2
251.854	583.2
252.237	584.8
252.62	592
253.002	588
253.385	587.6
253.769	600
254.152	586.6
254.535	592.4
254.918	570.6
255.301	583.8
255.685	577.2
256.068	579.2
256.452	605
256.835	591.6
257.219	588.6
257.603	597.2
257.986	572.6
258.37	591.4
258.754	573
259.138	591
259.522	589
259.906	586.6
260.29	586.6
260.675	580.8
261.059	585
261.443	580.6
261.828	585.6
262.212	581.8
262.597	570.4
262.981	580.6
263.366	584.2
263.751	583
264.136	579.6
264.521	587.8
264.906	579.4
265.291	584
265.676	585.4
266.061	595
266.446	597.4
266.831	589.6
267.217	610.4
267.602	585.4
267.987	582.2
268.373	575.4
268.759	588.4
269.144	587.8
269.53	591.4
269.916	577.8
270.302	579.4
270.688	583.6
271.074	581.6
271.46	589.2
271.846	603.6
272.232	586.6
272.618	581.8
273.004	581.2
273.391	591.6
273.777	594.2
274.164	589.8
274.55	596.4
274.937	587.6
275.324	574.4
275.71	580.2
276.097	590.2
276.484	573.8
276.871	583
277.258	590.2
277.645	566.6
278.032	587.2
278.419	581.2
278.807	581.6
279.194	571.8
279.581	580.4
279.969	584.6
280.356	584.4
280.744	587.2
281.131	599.2
281.519	591.8
281.907	577.6
282.295	577
282.682	586.6
283.07	581.2
283.458	596
283.846	588
284.235	596
284.623	594.6
285.011	571.2
285.399	590.6
285.788	578.8
286.176	582.6
286.565	594.2
286.953	589.6
287.342	578.6
287.731	575.4
288.119	574.4
288.508	579
288.897	585.2
289.286	573.8
289.675	590
290.064	599.2
290.453	587
290.821	581.2
291.21	595.6
291.599	582
291.989	583
292.378	596.6
292.768	594.2
293.157	590.2
293.547	594.6
293.936	584.2
294.326	577
294.716	586.8
295.106	585
295.496	587.8
295.886	590.2
296.276	580.4
296.666	576
297.056	573.6
297.446	578.4
297.836	595.2
298.227	585.8
298.617	581
299.008	593.4
299.398	581.8
299.789	579.6
300.179	585.2
300.57	589.4
300.961	582.8
301.352	575.8
301.742	588.8
302.133	579.8
302.524	573.4
302.915	581.6
303.307	577
303.698	590.4
304.089	588.4
304.48	587
304.872	588.2
305.263	581.2
305.655	574.6
306.046	590
306.438	588.4
306.829	582.4
307.221	597.2
307.613	582.4
308.005	587.8
308.397	599.8
308.789	604
309.181	606.6
309.573	596.6
309.965	590
310.357	583.4
310.749	594.8
311.142	575.6
311.534	579.6
311.926	588.6
312.319	590.4
312.711	582
313.104	594.4
313.497	585
313.889	614.8
314.282	601.8
314.675	607.8
315.068	592
315.461	585.6
315.854	606.8
316.247	585.2
316.64	584.8
317.033	579.6
317.405	592
317.798	584
318.192	584.2
318.585	582.2
318.979	592.2
319.372	570.4
319.766	578.4
320.16	591.6
320.553	590
320.947	599
321.341	584.8
321.735	584.4
322.129	568.8
322.523	602.6
322.917	575.8
323.311	594.2
323.705	592
324.099	584
324.494	600.6
324.888	587.4
325.282	578.6
325.677	586.6
326.071	586.8
326.466	580.2
326.861	579.6
327.255	593.6
327.65	592.4
328.045	593.6
328.44	589.8
328.835	588
329.23	571
329.625	598
330.02	581.8
330.415	594.4
330.81	583
331.206	587.4
331.601	581.8
331.996	586.2
332.37	597.6
332.766	577.6
333.161	611
333.557	584.8
333.953	582.2
334.348	868.4
334.744	587.2
335.14	578.8
335.536	584
335.932	599
336.328	585.4
336.724	575.4
337.12	585.2
337.516	583.4
337.913	582.6
338.309	596.6
338.705	579.4
339.102	596.4
339.498	580.8
339.895	589.8
340.291	580.2
340.688	589.2
341.085	570.8
341.481	582
341.878	580.6
342.275	594.8
342.672	571.8
343.069	581.2
343.466	573.2
343.842	590.2
344.239	573.4
344.636	582.4
345.033	568.8
345.431	573.4
345.828	582.8
346.225	583.2
346.623	607.8
347.02	576.4
347.418	592
347.816	589
348.213	573.8
348.611	585.8
349.009	586.2
349.407	592.4
349.805	581.8
350.203	578.8
350.601	594.4
350.999	581.6
351.397	625.6
351.795	584.8
352.193	590.8
352.57	592.2
352.969	584.6
353.367	578.4
353.766	577
354.164	580.4
354.563	594.4
354.961	576.8
355.36	576.8
355.759	578.6
356.158	582.6
356.557	574
356.956	570.4
357.355	568.6
357.754	586.4
358.153	595.6
358.552	596.8
358.951	580.2
359.35	591.2
359.75	574.8
360.149	573.8
360.527	562.2
360.926	572.6
361.326	580.8
361.726	581.2
362.125	579.2
362.525	587.8
362.925	579.8
363.325	577
363.724	579
364.124	578.4
364.524	579.8
364.924	581
365.324	587.6
365.725	565
366.125	576.8
366.525	578.4
366.904	573.2
367.304	569.6
367.705	594.2
368.105	587.6
368.506	570.8
368.906	579.4
369.307	579.8
369.708	578.6
370.108	561.6
370.509	582.8
370.91	578
371.311	572
371.712	582.2
372.113	578.8
372.514	565.6
372.894	580.4
373.295	574.6
373.696	582.8
374.097	581.6
374.499	597.8
374.9	579.8
375.301	565.2
375.703	574.6
376.105	568.8
376.506	580.4
376.908	577.8
377.309	579.6
377.711	578
378.113	571.2
378.493	581
378.895	569.8
379.297	580.4
379.699	574.6
380.102	577.4
380.504	577.8
380.906	579.4
381.308	600.4
381.71	571.4
382.113	580.4
382.515	572.2
382.918	575.8
383.299	576.6
383.701	575.8
384.104	581.4
384.507	559.6
384.909	572
385.312	570.4
385.715	574.4
386.118	574.2
386.521	575.2
386.924	590.6
387.327	577
387.709	571
388.112	569.4
388.515	573
388.918	572.6
389.322	577.8
389.725	570.8
390.129	591.8
390.532	581.4
390.936	574.8
391.339	577.8
391.743	576.8
392.125	569.2
392.529	586.8
392.933	584.4
393.337	577.2
393.74	575
394.144	581.2
394.548	578.8
394.953	571
395.357	578.4
395.761	575.4
396.144	577
396.548	574.8
396.952	574.8
397.357	571
397.761	564.8
398.166	578
398.57	571.4
398.975	570.4
399.379	575.8
399.763	609.2
400.168	581.8
400.572	575
400.977	572.8
401.382	587.2
401.787	585.4
402.192	590.6
402.597	585.6
403.002	565
403.386	586
403.791	597.4
404.197	575.8
404.602	574.4
405.007	576.6
405.413	570.4
405.818	576.4
406.224	576.2
406.608	575.2
407.014	563.8
407.42	587.6
407.825	571.4
408.231	583.6
408.637	580.8
409.043	590.6
409.449	577.2
409.834	570
410.24	575.2
410.646	587.2
411.052	573.2
411.458	577
411.865	583
412.271	571.6
412.677	576
413.062	581.6
413.469	574
413.875	598.8
414.282	587.4
414.689	575.2
415.095	584.6
415.502	574.8
415.888	572.8
416.294	566.6
416.701	614.4
417.108	580
417.515	580.4
417.923	583.4
418.33	591.6
418.715	583.4
419.123	571
419.53	579.4
419.937	581.2
420.345	588
420.752	573.8
421.16	598
421.546	586.6
421.953	577
422.361	571
422.769	568.6
423.177	571
423.585	589.4
423.992	586.6
424.379	584.2
424.787	579.4
425.195	592.2
425.603	578.4
426.011	588.4
426.419	593
426.806	578.6
427.214	586.4
427.623	589.6
428.031	592.2
428.44	585
428.848	590.4
429.235	597.2
429.644	590.8
430.053	574.4
430.461	589.6
430.87	618
431.279	602.6
431.666	597.2
432.075	607.2
432.484	613.4
432.893	606.4
433.302	629.6
433.711	656.6
434.099	631
434.508	627.2
434.918	643.4
435.327	653.2
435.737	651.2
436.125	664
436.534	654.4
436.944	663.8
437.353	679.6
437.763	700
438.173	689.2
438.561	697.2
438.971	694
439.381	707.4
439.791	712.4
440.201	711.8
440.589	716.4
440.999	731.2
441.409	739.4
441.819	721.4
442.23	757
442.619	765.2
443.029	764.8
443.439	764
443.85	763.6
444.26	784.8
444.649	784.4
445.06	773
445.471	773
445.881	788.4
446.292	798.8
446.682	795.4
447.092	780.4
447.503	831.4
447.914	791.2
448.325	787.8
448.715	799.6
449.126	795.8
449.537	799.2
449.948	801.2
450.338	809.4
450.75	815.6
451.161	803.2
451.572	819
451.984	805.2
452.374	797.8
452.786	810.6
453.197	820.2
453.609	816.2
453.999	798
454.411	806.4
454.823	825.2
455.235	822.4
455.647	829
456.037	820.2
456.449	812.8
456.862	809.4
457.274	837.6
457.665	811
458.077	828.8
458.489	851.8
458.902	822.6
459.293	824.6
459.705	833.4
460.118	817.6
460.53	826.6
460.921	840.6
461.334	830.4
461.747	824.8
462.16	841.4
462.551	839.6
462.964	835.6
463.377	819.2
463.79	822.2
464.182	832
464.595	821.4
465.008	839
465.421	827.8
465.813	823.2
466.226	836.6
466.64	821
467.053	862.2
467.445	828.8
467.859	842.2
468.272	821.4
468.686	832
469.078	821.2
469.492	821.6
469.906	821.8
470.298	825.8
470.712	819.2
471.126	850.6
471.54	809.8
471.933	816.4
472.347	821.4
472.761	821.4
473.175	816.6
473.568	813
473.982	805
474.397	811.2
474.79	818.2
475.204	822
475.619	802.6
476.033	818.2
476.426	809.4
476.841	808.6
477.256	830.6
477.649	807
478.064	805.4
478.479	794.8
478.872	794.2
479.287	795.4
479.702	797.8
480.118	796
480.511	804.8
480.927	807.6
481.342	795.6
481.736	801.6
482.151	789.4
482.566	802.2
482.96	799.2
483.376	806.4
483.792	799.2
484.186	802.2
484.602	789.2
485.017	795
485.412	796
485.827	793.6
486.243	783.6
486.638	801.6
487.054	786.6
487.47	801.4
487.865	783
488.281	782.6
488.697	771.2
489.092	776.6
489.508	770.6
489.925	780.2
490.32	769.4
490.736	778
491.153	775.2
491.548	776
491.964	774.2
492.381	759.4
492.776	771
493.193	762.8
493.61	767.6
494.006	767.2
494.422	762.6
494.84	751
495.235	763
495.652	758
496.069	759.4
496.465	742.2
496.883	757
497.3	769.4
497.696	746.2
498.113	751
498.509	733.2
498.927	727.2
499.344	744.4
499.741	735
500.158	744.2
500.576	744.2
500.973	737.6
501.39	727
501.787	722.6
502.205	737
502.623	722.6
503.02	723
503.438	729.8
503.856	718.8
504.253	724.4
504.671	726.2
505.068	716.2
505.486	709.6
505.905	736.4
506.302	720
506.72	723.4
507.118	707.8
507.536	705.8
507.955	704
508.352	717.4
508.771	708.4
509.169	710.6
509.587	698.6
510.006	699
510.404	695.6
510.823	693.6
511.221	694.8
511.64	691.2
512.038	706.8
512.457	693
512.877	701.2
513.275	691.2
513.694	688
514.092	689.2
514.512	687.4
514.91	688
515.33	686
515.749	697.4
516.148	692.4
516.568	686.2
516.966	682.6
517.386	676
517.785	676
518.205	668.8
518.603	676
519.024	664.2
519.444	680
519.843	677.6
520.263	678.6
520.662	668.2
521.082	666.2
521.481	676
521.902	663.6
522.301	660.6
522.722	660.6
523.121	665.6
523.542	655.4
523.963	656.2
524.362	663.4
524.783	664.2
525.183	659.8
525.604	659.6
526.003	656.4
526.425	646.8
526.824	653.8
527.246	663
527.646	661.8
528.067	654.2
528.467	654.8
528.888	649
529.289	646.2
529.71	654.8
530.11	644.6
530.532	651.8
530.932	649.8
531.354	638.8
531.755	672
532.176	640.6
532.577	641.2
532.999	635.8
533.4	633.2
533.822	646
534.223	640
534.645	634
535.046	632
535.468	644.4
535.869	652
536.292	633.4
536.693	667.2
537.115	641.2
537.516	635.8
537.939	628.8
538.34	645.6
538.742	639.4
539.165	630.4
539.566	631.6
539.989	627.8
540.391	631.2
540.814	632.4
541.216	630.6
541.639	631
542.041	630.8
542.464	617.6
542.866	626.6
543.268	618
543.691	634
544.093	624.4
544.517	641.2
544.919	621
545.343	642.8
545.745	607
546.147	617.2
546.571	621.6
546.974	614.2
547.398	627.2
547.8	631.4
548.224	622.2
548.627	602
549.03	616.6
549.454	604
549.857	614.8
550.281	611.2
550.684	608.2
551.087	620
551.512	618.8
551.915	624
552.34	616
552.743	606.6
553.146	613.6
553.571	610.2
553.975	629.2
554.399	600
554.803	644.4
555.207	604.8
555.632	598.4
556.036	614.2
556.461	604
556.865	609.6
557.268	596.2
557.694	602.4
558.098	604.4
558.502	609.2
558.927	606.6
559.332	610.8
559.736	601
560.162	609.2
560.566	601.4
560.992	606.6
561.396	603.4
561.801	597.6
562.227	592.2
562.631	596
563.036	596.4
563.462	608.8
563.867	603.4
564.272	583.6
564.698	605
565.103	591.8
565.508	608
565.935	598.2
566.34	601.4
566.745	601
567.172	591.6
567.577	614
567.982	608.6
568.409	602
568.815	586.8
569.22	592.4
569.626	604.8
570.053	585.4
570.459	589.4
570.865	603.8
571.292	596.8
571.698	592.6
572.104	577
572.531	588.6
572.937	595.4
573.343	592.6
573.75	587.4
574.177	592.6
574.583	594.2
574.99	594
575.396	586.2
575.824	588.8
576.231	598.4
576.637	586.6
577.065	602
577.472	586
577.879	583.6
578.286	600.6
578.714	578
579.121	582.2
579.528	588.8
579.935	593.2
580.364	586.2
580.771	581
581.178	581.6
581.585	587.8
582.014	586.2
582.421	575.6
582.829	591.6
583.236	587.8
583.644	576.2
584.073	575
584.481	583.4
584.889	584.4
585.296	594.2
585.726	581.2
586.134	575.8
586.542	579.8
586.95	596.6
587.358	576
587.787	588
588.196	587.6
588.604	590.6
589.012	582
589.421	570.8
589.851	568
590.259	582.6
590.668	578.4
591.076	599
591.485	567.8
591.894	584.8
592.324	588
592.733	594
593.142	566.2
593.551	578.4
593.96	579
594.369	563.6
594.8	565
595.209	572.6
595.618	557
596.028	580
596.437	568.8
596.847	578.4
597.256	570.8
597.687	571.8
598.097	567.2
598.507	569.8
598.917	584
599.327	577.8
599.736	576.4
600.146	582
600.556	570.4
600.988	585
601.398	564.8
601.808	580.4
602.219	567.8
602.629	575.4
603.039	573.8
603.45	590.4
603.86	573.4
604.271	585.4
604.703	568.6
605.114	569
605.525	574.4
605.935	573
606.346	584
606.757	571.2
607.168	574.8
607.579	563.8
607.99	577.6
608.402	564.2
608.813	568.6
609.224	562.2
609.636	569.8
610.047	566
610.48	570.6
610.892	571.6
611.303	577.2
611.715	564.4
612.127	560
612.539	562.4
612.95	574
613.362	560
613.774	567
614.186	571.6
614.599	566
615.011	575.8
615.423	568
615.835	569.2
616.248	560.4
616.66	572.6
617.073	560.6
617.485	560.4
617.898	563.4
618.311	572.2
618.723	567.2
619.136	591.6
619.549	573.6
619.962	587.2
620.375	565.2
620.788	565.4
621.201	562
621.614	571.6
622.028	570
622.441	568
622.854	580.6
623.268	556.8
623.681	571
624.095	566
624.509	566.2
624.922	568
625.336	559.6
625.728	571.4
626.142	574.4
626.556	583
626.97	575.4
627.384	564.2
627.799	569.2
628.213	582.6
628.627	570.6
629.041	563.4
629.456	568.4
629.87	568.8
630.285	572.2
630.699	573.2
631.093	559.2
631.507	573.8
631.922	575.4
632.337	568.2
632.752	554.2
633.167	567.2
633.582	558.6
633.997	569.8
634.412	560
634.806	565.4
635.221	560.2
635.637	580.8
636.052	560.4
636.468	571.4
636.883	580.8
637.299	554.6
637.715	558.2
638.109	570.4
638.525	561.6
638.941	579.2
639.357	564.6
639.773	574.2
640.189	562.2
640.584	564
641	563.2
641.416	560.8
641.832	567.8
642.249	556.8
642.665	562
643.06	570.8
643.477	573.2
643.894	556.8
644.31	558
644.727	561.2
645.123	567.4
645.54	551.2
645.957	559.8
646.374	572.2
646.77	564.6
647.187	589.4
647.604	566.4
648.021	554.8
648.439	555.4
648.835	566.2
649.252	566.4
649.67	560
650.088	564
650.484	572.4
650.902	566.8
651.32	568
651.738	562
652.134	561.4
652.552	577.6
652.971	569.2
653.389	566.8
653.786	575.8
654.204	583.6
654.622	554.2
655.019	557
655.438	572.6
655.857	562.4
656.275	569.6
656.673	557.2
657.091	570.4
657.51	560.6
657.908	573.2
658.327	577.2
658.746	559.6
659.144	564.8
659.563	576.8
659.982	567.2
660.38	557
660.8	564.2
661.219	574.6
661.617	571
662.037	571.8
662.457	574
662.855	552.8
663.275	589.2
663.695	565.2
664.094	561.2
664.514	559.4
664.934	561.2
665.333	569
665.753	559.8
666.152	553.2
666.572	548.8
666.993	577.2
667.392	557.2
667.812	567
668.212	554
668.632	571.6
669.053	563.8
669.453	562.2
669.874	561.8
670.273	566.4
670.694	551.8
671.116	566.4
671.515	556.2
671.937	558.2
672.337	564.4
672.758	565
673.158	577.8
673.58	555.4
673.98	565.6
674.402	571.2
674.824	558.6
675.224	552
675.646	556.8
676.047	552.8
676.469	555.8
676.869	566.4
677.292	566.8
677.693	555
678.115	559.8
678.516	561.4
678.939	559.8
679.34	562.4
679.762	560.4
680.164	565.6
680.586	552.4
680.988	564.8
681.411	582.2
681.812	557.8
682.236	557.6
682.637	550.8
683.061	550.6
683.462	557.8
683.864	556
684.288	561.6
684.69	560.8
685.114	569.8
685.516	568.8
685.94	551.6
686.342	566.6
686.766	557.4
687.168	554.6
687.571	569.8
687.995	557.4
688.398	548.8
688.822	555
689.225	569.2
689.628	570.4
690.052	557.4
690.456	566.4
690.88	556.8
691.284	553.6
691.687	567
692.112	552.4
692.515	554.2
692.919	565.8
693.344	565.6
693.747	560
694.173	558.8
694.577	571.6
694.98	557.6
695.406	554.6
695.81	558
696.214	562.6
696.64	560.2
697.044	564
697.448	570.8
697.874	558.2
698.279	561.6
698.684	558.2
699.11	551.2
699.514	556
699.919	555
700.324	551
700.75	553.2
701.156	554.8
701.561	564.2
701.987	562.8
702.393	562.4
702.798	573
703.203	558.2
703.63	560.4
704.036	554.4
704.442	555.4
704.847	546.8
705.274	552.8
705.68	562.4
706.086	567.2
706.492	560.6
706.92	562
707.326	569.8
707.732	555.2
708.139	551.6
708.545	561.6
708.973	552
709.38	558.2
709.786	548
710.193	576.2
710.6	564
711.028	550.4
711.435	562.8
711.842	555.8
712.249	550.2
712.656	558.4
713.064	554.4
713.492	552.8
713.9	552.2
714.307	553.6
714.715	548.8
715.123	555
715.53	556
715.938	562.6
716.367	557.4
716.775	556.2
717.184	546.8
717.592	554.4
718	566.4
718.408	580.6
718.816	596.2
719.225	564.6
719.633	555.2
720.042	548.4
720.472	555.6
720.881	570.6
721.29	563.8
721.699	553
722.108	561
722.517	561.6
722.926	556.6
723.335	558
723.744	557.4
724.154	559.2
724.563	557.8
724.973	555.4
725.382	553
725.792	555
726.202	562.8
726.612	576.4
727.022	556.8
727.432	551.2
779.813	551.2
780.223	590.8
780.634	556.8
781.044	550.8
781.454	554.2
781.865	563.8
782.276	546.2
782.686	560.6
783.097	553.6
783.508	552.4
783.919	560.4
784.33	568.8
784.741	566.4
785.152	552.8
785.563	546.6
785.974	555.8
786.386	568
786.776	554.6
787.188	559.4
787.599	552
788.011	560.6
788.423	563
788.835	551
789.247	556.2
789.659	556.6
790.071	550.2
790.483	592
790.874	555.2
791.286	559.2
791.699	550.6
792.111	557
792.524	565
792.937	560.8
793.349	559.8
793.741	551.2
794.154	554.4
794.567	571.4
794.98	563.8
795.393	551
795.785	577.8
796.198	560.4
796.612	563.2
797.026	548.2
797.439	549.6
797.831	559
798.245	550.4
798.659	555.2
799.073	553.2
799.487	551.6
799.88	555.2
800.294	555.2
800.708	555.8
801.123	552.2
801.516	573.8
801.93	546.2
802.345	543.8
802.76	561.4
803.153	562.6
803.568	561.6
803.983	565.2
804.377	560.6
804.792	551.2
805.207	544.8
805.601	563.2
806.016	586.4
806.432	555
806.826	581.8
807.242	567
807.658	564
808.052	550.8
808.468	558.8
808.884	558.8
809.279	553.2
809.695	569.8
810.111	575.4
810.506	562.4
810.922	567
811.339	550.2
811.734	563
812.151	555.4
812.546	554.4
812.963	555.8
813.38	559.6
813.776	556
814.193	571.2
814.589	551.6
815.006	554.6
815.402	549.4
815.82	548.6
816.237	553.4
816.633	553.4
817.051	547.4
817.448	549.6
817.866	540.8
818.262	574
818.68	557.6
819.077	549.4
819.495	546.4
819.892	586.4
820.311	550.4
820.708	560
821.127	556
821.524	563
821.943	564.2
822.34	574.2
822.759	554.6
823.157	556.2
823.576	576.6
823.974	568.2
824.393	596.4
824.791	549.8
825.189	548.6
825.609	555
826.007	556.6
826.427	545
826.826	558.8
827.246	558.6
827.644	546
828.043	562.4
828.463	550.6
828.862	559.4
829.261	563.2
829.682	551.6
830.081	558.4
830.502	553.4
830.901	564
831.301	565.8
831.722	549.8
832.121	553.6
832.521	556.6
832.943	554.4
833.342	556.2
833.742	546.6
834.164	555.2
834.564	549.6
834.965	554.8
835.386	552.8
835.787	547
836.188	556.2
836.588	553
837.01	545.4
837.411	552.6
837.812	556
838.213	557
838.636	547.8
839.037	600.6
839.438	555.8
839.84	551.2
840.263	555.2
840.664	560.4
841.066	549.8
841.468	550.4
841.891	551.8
842.293	563.6
842.695	556.4
843.098	561.4
843.5	545.8
843.902	557.8
844.326	557.8
844.729	556.4
845.131	573
845.534	561.6
845.937	565.6
846.34	569.8
846.764	550.4
847.167	551.8
847.571	546.6
847.974	560.2
848.377	550.2
848.781	596.8
849.184	560.6
849.588	547.6
849.992	550.8
850.396	548.6
850.821	567
851.225	548.6
851.63	553.2
852.034	560.8
852.438	555.4
852.843	572
853.247	549
853.652	555
854.057	570.4
854.462	554
854.867	554.6
855.272	575
855.677	555
856.082	544.8
856.487	547
856.893	563
