#lambda/nm	C1
208.295	567.6
208.67	507.8
209.045	462.2
209.419	466
209.794	588.6
210.169	573.6
210.544	672.6
210.919	588.8
211.295	578.4
211.67	585.8
212.045	581
212.421	580.2
212.796	611.4
213.172	579.8
213.547	579.2
213.923	578
214.299	573.6
214.675	585.2
215.051	586
215.427	591.4
215.803	602.4
216.179	585.8
216.555	578.6
216.932	591.8
217.308	583.8
217.684	582.6
218.061	593
218.438	587
218.814	577.6
219.191	585.2
219.568	574.2
219.945	575.8
220.322	574.8
220.699	591.6
221.076	585.4
221.453	586
221.83	575
222.208	583.6
222.585	574.8
222.962	589.6
223.34	583.2
223.717	580
224.095	586.2
224.473	588.6
224.851	575.8
225.229	586
225.607	592
225.985	578.8
226.363	585.2
226.741	575.2
227.119	581.2
227.497	590.8
227.876	574.4
228.254	584.6
228.633	581
229.011	584.2
229.39	585.4
229.769	574
230.148	586.2
230.527	594.2
230.905	580.8
231.284	587.2
231.664	570.2
232.043	584.8
232.422	583.2
232.801	577.2
233.181	573.8
233.56	576
233.94	582.2
234.319	567.6
234.699	586.2
235.079	602.4
235.458	616
235.838	593.4
236.218	574.6
236.598	571.2
236.978	573.8
237.358	574.2
237.738	573
238.119	585.6
238.499	572.6
238.88	578.6
239.26	583.8
239.641	573.4
240.021	574.2
240.402	577.4
240.783	576.6
241.163	577.8
241.544	584.6
241.925	585.6
242.306	591.6
242.687	584.8
243.069	581.6
243.45	584.2
243.831	577.8
244.212	583.6
244.594	612.4
244.975	589.6
245.357	584.2
245.739	577.2
246.12	582
246.502	586.6
246.884	577.4
247.266	580.6
247.648	580.8
248.03	593.6
248.412	581.2
248.794	575.6
249.176	574
249.559	587.4
249.941	577.2
250.323	580.8
250.706	570.2
251.089	577.8
251.471	583.4
251.854	583
252.237	579.4
252.62	584.4
253.002	584.2
253.385	576.2
253.769	590.2
254.152	581.4
254.535	584.4
254.918	572.6
255.301	575.2
255.685	577.8
256.068	567.6
256.452	600
256.835	582.4
257.219	575.8
257.603	584
257.986	572.2
258.37	582.8
258.754	571
259.138	585.6
259.522	588.2
259.906	575
260.29	575.2
260.675	574.6
261.059	582.8
261.443	561.6
261.828	580.6
262.212	582
262.597	564.6
262.981	569
263.366	584.6
263.751	578.2
264.136	583.2
264.521	577.8
264.906	569.4
265.291	587.4
265.676	576.2
266.061	585
266.446	596.8
266.831	584.8
267.217	594.4
267.602	585.8
267.987	577.8
268.373	575
268.759	584.6
269.144	585.2
269.53	579.4
269.916	580.8
270.302	578.8
270.688	584.8
271.074	583.2
271.46	581.6
271.846	605.8
272.232	584.6
272.618	576.6
273.004	579.6
273.391	587
273.777	594.4
274.164	589.2
274.55	594.4
274.937	583.2
275.324	578.2
275.71	581.6
276.097	580.8
276.484	575.8
276.871	580
277.258	588
277.645	577
278.032	578.6
278.419	577
278.807	582.8
279.194	583.6
279.581	571
279.969	580.4
280.356	581.6
280.744	582
281.131	597.6
281.519	585
281.907	582.6
282.295	577
282.682	591.2
283.07	582.6
283.458	584.8
283.846	589.8
284.235	586
284.623	586
285.011	577.4
285.399	590.2
285.788	581.8
286.176	569.8
286.565	591.2
286.953	577
287.342	577.2
287.731	575.4
288.119	574.2
288.508	576.4
288.897	590
289.286	572
289.675	584.6
290.064	588.8
290.453	570.2
290.821	584.6
291.21	583.8
291.599	574.2
291.989	585.4
292.378	585
292.768	596.2
293.157	583.2
293.547	590.4
293.936	581.8
294.326	579.8
294.716	586.2
295.106	571
295.496	589.2
295.886	592.2
296.276	579.6
296.666	573.8
297.056	570.4
297.446	573.4
297.836	602.8
298.227	573.4
298.617	583.8
299.008	589
299.398	585
299.789	578
300.179	587
300.57	588.4
300.961	580.8
301.352	577.6
301.742	574.6
302.133	584.6
302.524	577.6
302.915	580
303.307	573.8
303.698	585.8
304.089	585
304.48	576
304.872	584
305.263	588
305.655	572
306.046	580
306.438	585.4
306.829	573.4
307.221	585
307.613	582.8
308.005	581.8
308.397	593
308.789	599
309.181	594.2
309.573	595
309.965	587.8
310.357	574.2
310.749	584.6
311.142	573.6
311.534	580.8
311.926	582.6
312.319	575.8
312.711	575.6
313.104	591.2
313.497	580.4
313.889	601.8
314.282	591.6
314.675	598.4
315.068	581.8
315.461	589.4
315.854	601.4
316.247	591.6
316.64	578.8
317.033	577.4
317.405	591.8
317.798	584
318.192	586
318.585	575
318.979	591
319.372	580.4
319.766	579
320.16	586.8
320.553	583.8
320.947	593.8
321.341	581.8
321.735	580.6
322.129	572.4
322.523	612.4
322.917	576
323.311	587
323.705	588.8
324.099	575.8
324.494	588.2
324.888	587.2
325.282	581
325.677	590.8
326.071	583.4
326.466	586.2
326.861	582.2
327.255	589.4
327.65	589.6
328.045	589.2
328.44	583.6
328.835	579.8
329.23	573.4
329.625	596.2
330.02	576.2
330.415	606.4
330.81	584.6
331.206	583
331.601	577.6
331.996	590
332.37	594.8
332.766	576.2
333.161	596.8
333.557	580.2
333.953	580.4
334.348	864.6
334.744	585
335.14	577.4
335.536	580.6
335.932	592.6
336.328	583.2
336.724	583.8
337.12	577.8
337.516	587.4
337.913	580.6
338.309	589.6
338.705	587.8
339.102	578.2
339.498	578.2
339.895	587
340.291	568.4
340.688	594.6
341.085	568
341.481	577.4
341.878	579.6
342.275	589.8
342.672	571.4
343.069	576.2
343.466	568.2
343.842	583.4
344.239	578.4
344.636	581.6
345.033	574.4
345.431	567.6
345.828	578.6
346.225	577.2
346.623	599.6
347.02	584.8
347.418	586.8
347.816	588.6
348.213	569.4
348.611	587.8
349.009	572.8
349.407	587.6
349.805	571.4
350.203	567.4
350.601	588.4
350.999	572.2
351.397	622
351.795	573.6
352.193	578.6
352.57	587
352.969	581.6
353.367	566.4
353.766	573.4
354.164	571.6
354.563	586.4
354.961	579.2
355.36	570.2
355.759	577
356.158	571.8
356.557	571.6
356.956	566
357.355	563.8
357.754	579.8
358.153	580.4
358.552	589.4
358.951	572.8
359.35	591
359.75	566
360.149	565.4
360.527	571.6
360.926	565.4
361.326	575.4
361.726	577
362.125	569.4
362.525	579.2
362.925	570.4
363.325	573
363.724	579.2
364.124	570
364.524	573.8
364.924	568.4
365.324	584.6
365.725	564.4
366.125	583
366.525	580
366.904	568
367.304	562
367.705	587
368.105	587
368.506	570.8
368.906	579.8
369.307	577
369.708	578.8
370.108	567
370.509	587.2
370.91	571
371.311	576
371.712	571.4
372.113	571.4
372.514	567.8
372.894	577
373.295	565.8
373.696	583.2
374.097	575.4
374.499	592.2
374.9	580.8
375.301	567.8
375.703	572.6
376.105	567.2
376.506	578.4
376.908	580.4
377.309	578
377.711	580.4
378.113	574.6
378.493	577.6
378.895	579.6
379.297	585.4
379.699	557.6
380.102	574.8
380.504	573
380.906	567.8
381.308	589.4
381.71	572.4
382.113	587.4
382.515	572.2
382.918	576
383.299	576.8
383.701	578.8
384.104	580.4
384.507	555.6
384.909	569.4
385.312	562
385.715	570.8
386.118	570.2
386.521	569
386.924	578.4
387.327	567.4
387.709	566.4
388.112	567.4
388.515	567
388.918	571.2
389.322	572
389.725	567.6
390.129	593.2
390.532	569.6
390.936	569.8
391.339	563
391.743	577.8
392.125	567.8
392.529	581
392.933	588
393.337	571
393.74	569.4
394.144	573
394.548	573.2
394.953	564.4
395.357	581.4
395.761	561.4
396.144	576
396.548	581
396.952	575.4
397.357	578.2
397.761	568.6
398.166	570.8
398.57	569.8
398.975	567.6
399.379	577.6
399.763	606.2
400.168	573.4
400.572	570.2
400.977	574
401.382	585
401.787	581
402.192	585.8
402.597	582.8
403.002	564.8
403.386	580.6
403.791	590.8
404.197	561.4
404.602	572.8
405.007	565.4
405.413	568.6
405.818	580.8
406.224	568.2
406.608	566.2
407.014	566.2
407.42	587.6
407.825	564.8
408.231	579.8
408.637	580
409.043	580.2
409.449	568.4
409.834	563
410.24	572.4
410.646	573
411.052	580.6
411.458	575.2
411.865	576.6
412.271	579
412.677	569
413.062	578
413.469	569.4
413.875	588.6
414.282	570.6
414.689	570.6
415.095	577.4
415.502	570.4
415.888	585
416.294	560.6
416.701	603.2
417.108	578.2
417.515	575.8
417.923	574
418.33	588
418.715	583.4
419.123	573.4
419.53	571
419.937	574.4
420.345	582
420.752	572.4
421.16	581
421.546	576.4
421.953	585.2
422.361	567.8
422.769	581.4
423.177	568.2
423.585	602.4
423.992	589.4
424.379	584.4
424.787	581.4
425.195	590.4
425.603	572
426.011	583.4
426.419	585.6
426.806	576.4
427.214	579.4
427.623	579
428.031	594.4
428.44	571
428.848	586.4
429.235	594
429.644	577.8
430.053	577.2
430.461	607
430.87	609.6
431.279	599
431.666	593
432.075	600.2
432.484	609.8
432.893	602.4
433.302	627.4
433.711	641
434.099	624.8
434.508	629.6
434.918	629.4
435.327	653.6
435.737	655.6
436.125	648
436.534	661.4
436.944	669.2
437.353	674.8
437.763	698.6
438.173	671.8
438.561	694
438.971	689
439.381	702.2
439.791	709.2
440.201	700.2
440.589	718.2
440.999	731.4
441.409	728.2
441.819	725.6
442.23	749.8
442.619	754
443.029	751
443.439	756
443.85	764.2
444.26	774.8
444.649	764
445.06	761.8
445.471	765.6
445.881	765
446.292	789.8
446.682	793.6
447.092	780
447.503	824.8
447.914	785
448.325	787.4
448.715	784.2
449.126	782.6
449.537	792.8
449.948	794.4
450.338	800.4
450.75	804.8
451.161	804.8
451.572	811.8
451.984	797.4
452.374	781.2
452.786	800.6
453.197	809.6
453.609	813.8
453.999	799.6
454.411	795.8
454.823	808
455.235	810
455.647	800.8
456.037	809
456.449	790.4
456.862	813.2
457.274	818.2
457.665	806
458.077	819.2
458.489	842.4
458.902	817.2
459.293	815.8
459.705	805.2
460.118	814.4
460.53	822.6
460.921	818.2
461.334	823.2
461.747	822.6
462.16	825.4
462.551	832.4
462.964	836.6
463.377	804.4
463.79	803.6
464.182	821.4
464.595	814.2
465.008	812.6
465.421	822.4
465.813	821
466.226	825.6
466.64	815.2
467.053	858
467.445	814.6
467.859	834.4
468.272	818
468.686	821.2
469.078	811.8
469.492	803.8
469.906	814.2
470.298	820.6
470.712	812.6
471.126	837.2
471.54	808.4
471.933	802.4
472.347	814.4
472.761	816.8
473.175	802.2
473.568	816.8
473.982	802.8
474.397	799.4
474.79	820
475.204	812
475.619	809
476.033	815.8
476.426	799.6
476.841	792.8
477.256	838.4
477.649	800.2
478.064	787.2
478.479	798
478.872	801.4
479.287	793.4
479.702	791.6
480.118	801.4
480.511	794
480.927	786
481.342	785.8
481.736	791
482.151	783
482.566	796.6
482.96	791.4
483.376	802
483.792	781
484.186	792
484.602	778.2
485.017	792.8
485.412	772.6
485.827	779
486.243	768.2
486.638	793
487.054	783
487.47	789.8
487.865	766.6
488.281	766.2
488.697	762
489.092	771.6
489.508	769.6
489.925	783.2
490.32	763
490.736	776.4
491.153	761.4
491.548	766
491.964	767.4
492.381	753
492.776	762.2
493.193	760.6
493.61	762.8
494.006	758.6
494.422	767.4
494.84	750.2
495.235	756.6
495.652	745.2
496.069	752.2
496.465	733
496.883	743.2
497.3	761.2
497.696	734
498.113	744
498.509	721.4
498.927	732.8
499.344	730.6
499.741	733.6
500.158	742.2
500.576	738.4
500.973	736.4
501.39	723.8
501.787	725.4
502.205	730.4
502.623	721.4
503.02	710.2
503.438	709.2
503.856	712.2
504.253	710
504.671	705.6
505.068	711
505.486	707.6
505.905	720.2
506.302	711.6
506.72	705.4
507.118	692.6
507.536	708.6
507.955	697.2
508.352	698.4
508.771	713.4
509.169	709
509.587	697.2
510.006	695.8
510.404	689.4
510.823	690.2
511.221	692.2
511.64	688.8
512.038	702.6
512.457	693.6
512.877	694.4
513.275	682.8
513.694	682.6
514.092	682
514.512	688
514.91	695
515.33	675
515.749	682.4
516.148	672.2
516.568	681.2
516.966	671.8
517.386	666.6
517.785	675.8
518.205	661
518.603	667
519.024	669.4
519.444	667.8
519.843	682
520.263	674.8
520.662	663.6
521.082	666.6
521.481	663
521.902	667.4
522.301	658.2
522.722	659
523.121	659.6
523.542	668.4
523.963	648.2
524.362	656.2
524.783	658.4
525.183	655.2
525.604	662
526.003	649.2
526.425	646.2
526.824	648.4
527.246	655.2
527.646	654.6
528.067	654
528.467	652
528.888	649.2
529.289	639.4
529.71	640.4
530.11	642
530.532	649
530.932	638
531.354	636.2
531.755	668.8
532.176	646.8
532.577	643.2
532.999	636.8
533.4	632
533.822	646
534.223	639.4
534.645	630.8
535.046	634.6
535.468	638.8
535.869	651.2
536.292	631.2
536.693	653.8
537.115	631.6
537.516	631
537.939	636
538.34	643
538.742	631.2
539.165	633
539.566	630.2
539.989	629.8
540.391	626.2
540.814	624.8
541.216	622.2
541.639	626.2
542.041	622.4
542.464	628.6
542.866	624.4
543.268	613
543.691	634.8
544.093	635
544.517	639.6
544.919	615.6
545.343	628.2
545.745	609.2
546.147	615.4
546.571	619.8
546.974	612.2
547.398	611.8
547.8	624
548.224	613.4
548.627	608.4
549.03	619.8
549.454	600.6
549.857	604.4
550.281	602.4
550.684	602.6
551.087	612.8
551.512	612.8
551.915	606.2
552.34	605.6
552.743	595.8
553.146	610.2
553.571	602.6
553.975	617.2
554.399	602.8
554.803	635.4
555.207	599.4
555.632	599.6
556.036	613.6
556.461	598.4
556.865	603
557.268	601.2
557.694	603
558.098	603.8
558.502	609.8
558.927	592.8
559.332	609.8
559.736	600.2
560.162	608.8
560.566	592.6
560.992	610
561.396	600.4
561.801	596.2
562.227	607
562.631	592.4
563.036	603.8
563.462	600.6
563.867	602.6
564.272	592.6
564.698	596.8
565.103	581.2
565.508	605.4
565.935	589.6
566.34	587.8
566.745	607.2
567.172	589.2
567.577	610.4
567.982	594.6
568.409	598.6
568.815	580.6
569.22	595.8
569.626	599.2
570.053	581.4
570.459	595.8
570.865	588.4
571.292	592.6
571.698	595
572.104	587.4
572.531	587.8
572.937	595.8
573.343	585.8
573.75	587.2
574.177	584
574.583	592.4
574.99	590.6
575.396	592
575.824	587
576.231	588.6
576.637	587.6
577.065	607.8
577.472	584.4
577.879	580
578.286	598
578.714	584.6
579.121	587.2
579.528	586.6
579.935	586.8
580.364	584.4
580.771	567
581.178	577.4
581.585	589.4
582.014	586.8
582.421	571.2
582.829	575.4
583.236	585.2
583.644	571.8
584.073	582
584.481	576.8
584.889	572.2
585.296	581.6
585.726	583.6
586.134	577
586.542	583
586.95	588
587.358	570.6
587.787	576.6
588.196	590
588.604	575.2
589.012	574.8
589.421	567.2
589.851	576.6
590.259	577.8
590.668	568.2
591.076	606.4
591.485	572.2
591.894	575.4
592.324	583.4
592.733	580.4
593.142	563
593.551	572.8
593.96	575.2
594.369	564.6
594.8	568.6
595.209	573.2
595.618	566.8
596.028	568.4
596.437	567.4
596.847	568.2
597.256	570.8
597.687	572.4
598.097	567.4
598.507	559
598.917	576.6
599.327	572.6
599.736	572
600.146	577.8
600.556	565.8
600.988	576.6
601.398	570
601.808	575.4
602.219	559.8
602.629	574.2
603.039	569.6
603.45	592.4
603.86	567
604.271	574.2
604.703	565.2
605.114	563.2
605.525	581.2
605.935	564.4
606.346	581.4
606.757	570.8
607.168	567
607.579	564.2
607.99	569.6
608.402	567.6
608.813	572.4
609.224	564.6
609.636	562.6
610.047	572
610.48	571.2
610.892	575.4
611.303	576.2
611.715	562.2
612.127	564.8
612.539	564
612.95	568.6
613.362	557.8
613.774	560.8
614.186	559.2
614.599	558.8
615.011	574.4
615.423	562.4
615.835	557.4
616.248	560.4
616.66	567.2
617.073	557.6
617.485	559.4
617.898	560.2
618.311	565
618.723	571.8
619.136	591
619.549	567.6
619.962	581.2
620.375	562.4
620.788	566.6
621.201	557.8
621.614	574.4
622.028	565.6
622.441	569
622.854	567.6
623.268	563.6
623.681	566.8
624.095	566.4
624.509	567.8
624.922	574
625.336	555.8
625.728	563
626.142	569.6
626.556	576.6
626.97	570.6
627.384	562.6
627.799	565.6
628.213	568.6
628.627	553.6
629.041	562
629.456	560.6
629.87	566.8
630.285	563
630.699	572.4
631.093	567.2
631.507	570.6
631.922	565
632.337	572.8
632.752	564.2
633.167	561.8
633.582	557.8
633.997	561
634.412	555
634.806	565.4
635.221	553.6
635.637	577.4
636.052	557.4
636.468	565.8
636.883	575.8
637.299	563.8
637.715	556.6
638.109	568
638.525	556.8
638.941	571.8
639.357	574.6
639.773	568.6
640.189	560.8
640.584	560.2
641	559
641.416	559.4
641.832	559.4
642.249	563
642.665	560.8
643.06	564
643.477	564.8
643.894	551.4
644.31	555.4
644.727	556.2
645.123	554.8
645.54	553.4
645.957	564.4
646.374	562.8
646.77	558.2
647.187	582.2
647.604	555.8
648.021	547.4
648.439	548.8
648.835	566.6
649.252	562.2
649.67	547.2
650.088	562.4
650.484	561.4
650.902	562.2
651.32	561
651.738	558.2
652.134	566.4
652.552	580.4
652.971	561.2
653.389	555.4
653.786	571.6
654.204	574.8
654.622	552
655.019	557.2
655.438	560
655.857	554.4
656.275	564.8
656.673	557.2
657.091	562
657.51	546.4
657.908	561.8
658.327	572.2
658.746	546
659.144	563.8
659.563	563.4
659.982	560
660.38	549
660.8	561.4
661.219	569
661.617	563.6
662.037	553
662.457	565.8
662.855	544.2
663.275	573.4
663.695	556.2
664.094	552.8
664.514	566.2
664.934	548.2
665.333	561.8
665.753	545
666.152	556.2
666.572	555.4
666.993	575.4
667.392	562.8
667.812	555.6
668.212	559.6
668.632	568.6
669.053	556.4
669.453	563.8
669.874	564.8
670.273	560.2
670.694	556.4
671.116	567.8
671.515	567
671.937	559.6
672.337	552.8
672.758	552.8
673.158	565
673.58	542.8
673.98	553
674.402	565
674.824	560.4
675.224	555.4
675.646	549.4
676.047	554
676.469	563
676.869	565.4
677.292	555.6
677.693	555
678.115	557
678.516	563.2
678.939	562.8
679.34	559.6
679.762	568.4
680.164	556.8
680.586	552.6
680.988	563.4
681.411	580
681.812	553.2
682.236	549.4
682.637	551.2
683.061	547.2
683.462	564.4
683.864	553.4
684.288	566.4
684.69	554
685.114	562.8
685.516	564
685.94	555.8
686.342	558.4
686.766	560
687.168	553.2
687.571	573.4
687.995	549.2
688.398	548.2
688.822	551.8
689.225	570.2
689.628	571.8
690.052	553.2
690.456	559.4
690.88	549.2
691.284	551.6
691.687	554
692.112	549.6
692.515	551.6
692.919	553.8
693.344	560.6
693.747	552.8
694.173	545.4
694.577	559.4
694.98	556.2
695.406	556
695.81	553.4
696.214	558.6
696.64	558
697.044	564.6
697.448	566.4
697.874	555.4
698.279	551
698.684	540.4
699.11	546
699.514	545
699.919	549.8
700.324	539.8
700.75	552.8
701.156	555.8
701.561	560.8
701.987	555.8
702.393	562.8
702.798	555
703.203	554
703.63	558.4
704.036	548.6
704.442	559.2
704.847	553
705.274	557
705.68	554.2
706.086	563.4
706.492	558
706.92	553.8
707.326	565.8
707.732	555.4
708.139	556.8
708.545	553.2
708.973	547.2
709.38	558.6
709.786	545
710.193	568.6
710.6	555
711.028	550.4
711.435	555
711.842	560.6
712.249	557.6
712.656	555.8
713.064	565.8
713.492	548.6
713.9	549.2
714.307	551.2
714.715	556.2
715.123	562
715.53	553.6
715.938	557.4
716.367	558
716.775	549.2
717.184	548.4
717.592	555.4
718	559.6
718.408	577.2
718.816	588.4
719.225	556.2
719.633	552.4
720.042	555.2
720.472	552.4
720.881	569
721.29	559.2
721.699	552.6
722.108	556.6
722.517	561.6
722.926	546.6
723.335	562.6
723.744	552.2
724.154	552.6
724.563	552.6
724.973	556
725.382	555.4
725.792	550.2
726.202	545.6
726.612	568.6
727.022	558.4
727.432	551
779.813	550.8
780.223	587.6
780.634	549.6
781.044	553
781.454	553
781.865	560.4
782.276	543
782.686	558
783.097	551.4
783.508	552.8
783.919	562.4
784.33	566
784.741	567.2
785.152	553.4
785.563	548.2
785.974	551.2
786.386	564
786.776	558.4
787.188	551.8
787.599	553
788.011	562
788.423	564.2
788.835	550.4
789.247	545.8
789.659	546.6
790.071	557.2
790.483	583.8
790.874	547.8
791.286	564.2
791.699	547.2
792.111	549
792.524	559.2
792.937	553.6
793.349	546.6
793.741	544.6
794.154	549.6
794.567	565.8
794.98	553.2
795.393	549.8
795.785	555.6
796.198	546.2
796.612	550
797.026	543
797.439	540.4
797.831	547.8
798.245	543.2
798.659	554.2
799.073	547.6
799.487	548.6
799.88	545.4
800.294	555.4
800.708	550
801.123	548.4
801.516	563
801.93	553
802.345	543.4
802.76	557.2
803.153	570.4
803.568	562
803.983	562
804.377	552.6
804.792	544.2
805.207	536.8
805.601	554.2
806.016	571.8
806.432	551.6
806.826	569.2
807.242	553.2
807.658	552.6
808.052	546.2
808.468	552.2
808.884	545.8
809.279	548.8
809.695	561.8
810.111	564
810.506	558.6
810.922	563.4
811.339	548
811.734	556.4
812.151	545.6
812.546	545.8
812.963	552.8
813.38	555.2
813.776	555.2
814.193	568.8
814.589	548.2
815.006	547.8
815.402	541.6
815.82	545.8
816.237	556.2
816.633	547.2
817.051	545.6
817.448	551.2
817.866	541.6
818.262	571.2
818.68	553.2
819.077	545.2
819.495	558.8
819.892	584.4
820.311	551
820.708	549.8
821.127	554.2
821.524	558.4
821.943	560.8
822.34	559.6
822.759	551.6
823.157	559.6
823.576	564.2
823.974	554.8
824.393	582.4
824.791	544.8
825.189	545
825.609	547.4
826.007	563.2
826.427	552.4
826.826	553.4
827.246	550.2
827.644	546.6
828.043	563.4
828.463	549
828.862	567.4
829.261	553.4
829.682	545.4
830.081	560
830.502	544.6
830.901	555.4
831.301	563.2
831.722	544.8
832.121	552.6
832.521	551
832.943	548.2
833.342	558.2
833.742	542.4
834.164	553.4
834.564	543.6
834.965	558.2
835.386	548
835.787	545.2
836.188	549.6
836.588	553.6
837.01	543
837.411	545
837.812	546.2
838.213	554.8
838.636	546.8
839.037	602.8
839.438	549.8
839.84	546
840.263	562.8
840.664	554.8
841.066	549.4
841.468	553
841.891	545.6
842.293	564.8
842.695	559.6
843.098	558
843.5	545.2
843.902	555.6
844.326	552.4
844.729	548.4
845.131	561.6
845.534	554.6
845.937	561.4
846.34	564.2
846.764	541.2
847.167	554.4
847.571	537
847.974	550.2
848.377	546.2
848.781	588.6
849.184	557.6
849.588	542.2
849.992	544.8
850.396	550.6
850.821	567.2
851.225	551
851.63	552.8
852.034	569
852.438	552.2
852.843	612.8
853.247	546.8
853.652	546.8
854.057	561.4
854.462	556.4
854.867	553.4
855.272	578.4
855.677	555.4
856.082	549.2
856.487	542.2
856.893	554.2
857.298	547.2
