#lambda/nm	C1
208.295	568.8
208.67	501.6
209.045	459.8
209.419	458.8
209.794	593.2
210.169	573.4
210.544	663.8
210.919	593.6
211.295	588.2
211.67	591.6
212.045	586
212.421	586.2
212.796	620.4
213.172	574.2
213.547	577.6
213.923	578.8
214.299	580
214.675	591.6
215.051	586.2
215.427	589.6
215.803	606.8
216.179	590.4
216.555	582
216.932	586.4
217.308	582.4
217.684	585.6
218.061	584.6
218.438	588.4
218.814	577
219.191	594
219.568	587.4
219.945	586.4
220.322	587.4
220.699	590.6
221.076	584.4
221.453	591.4
221.83	577.8
222.208	574.6
222.585	581
222.962	582
223.34	584
223.717	583.8
224.095	570.6
224.473	586.2
224.851	583.6
225.229	577.2
225.607	591.4
225.985	581
226.363	585.4
226.741	581.8
227.119	582.2
227.497	591
227.876	576.2
228.254	590
228.633	584.2
229.011	583.2
229.39	593.2
229.769	584.8
230.148	584.2
230.527	596.8
230.905	584.6
231.284	583.2
231.664	578
232.043	598.4
232.422	585
232.801	581.4
233.181	591.4
233.56	577
233.94	583.8
234.319	571.6
234.699	572.8
235.079	614.2
235.458	615.4
235.838	592.6
236.218	574.8
236.598	574.4
236.978	580.6
237.358	582.4
237.738	578.2
238.119	585.4
238.499	580
238.88	582.2
239.26	594.6
239.641	573.6
240.021	566.2
240.402	583
240.783	582.2
241.163	586.2
241.544	579.4
241.925	582.6
242.306	595
242.687	584.8
243.069	580.8
243.45	589
243.831	576.4
244.212	582
244.594	608.2
244.975	589.4
245.357	585.4
245.739	579.2
246.12	585.6
246.502	585.6
246.884	574
247.266	572.2
247.648	589
248.03	601
248.412	586.8
248.794	586.6
249.176	577.6
249.559	588.6
249.941	581
250.323	580.8
250.706	577.4
251.089	588.6
251.471	583
251.854	581.6
252.237	576.6
252.62	591
253.002	579.4
253.385	579.4
253.769	592
254.152	583
254.535	584.6
254.918	575.6
255.301	582.4
255.685	575.4
256.068	580.6
256.452	597
256.835	578.4
257.219	583.2
257.603	591.8
257.986	569.4
258.37	584.4
258.754	568.6
259.138	585.2
259.522	591.4
259.906	580.4
260.29	589.6
260.675	577.6
261.059	586.2
261.443	580.6
261.828	586.8
262.212	585
262.597	570.4
262.981	577
263.366	579.8
263.751	585.8
264.136	571
264.521	583.4
264.906	571.4
265.291	592.2
265.676	579.2
266.061	588.8
266.446	585.4
266.831	578.6
267.217	596.6
267.602	585.8
267.987	579.6
268.373	580.2
268.759	587.8
269.144	590.4
269.53	584.8
269.916	579.6
270.302	581.8
270.688	588.2
271.074	582.8
271.46	592.6
271.846	615
272.232	583.8
272.618	581.8
273.004	579.6
273.391	587.8
273.777	601.8
274.164	590.8
274.55	594.2
274.937	587
275.324	577.6
275.71	590.8
276.097	585
276.484	580.8
276.871	583
277.258	585.6
277.645	578
278.032	573.4
278.419	584.8
278.807	582.4
279.194	579.4
279.581	581.4
279.969	593.2
280.356	585.8
280.744	584
281.131	599.4
281.519	593
281.907	579.2
282.295	573.8
282.682	588.4
283.07	580.8
283.458	579.4
283.846	590.6
284.235	587.6
284.623	590
285.011	572.2
285.399	589.6
285.788	583
286.176	572
286.565	593.6
286.953	572.6
287.342	578.6
287.731	574.4
288.119	573.8
288.508	579
288.897	585.4
289.286	572.4
289.675	574
290.064	587.6
290.453	579
290.821	581.2
291.21	586.8
291.599	575.2
291.989	586.8
292.378	586.6
292.768	590.4
293.157	583.6
293.547	586.4
293.936	570.6
294.326	581.2
294.716	584
295.106	580.6
295.496	584
295.886	591
296.276	585.8
296.666	571.6
297.056	574.4
297.446	574
297.836	599.2
298.227	580
298.617	585.6
299.008	587.2
299.398	580.2
299.789	576.8
300.179	580
300.57	592.6
300.961	579.2
301.352	580.6
301.742	590.2
302.133	581.6
302.524	569.6
302.915	582
303.307	572.8
303.698	585.6
304.089	585.4
304.48	570.4
304.872	589.6
305.263	580.2
305.655	572.4
306.046	584
306.438	588.8
306.829	576.6
307.221	587.4
307.613	587.4
308.005	586.4
308.397	595.8
308.789	600.2
309.181	604.2
309.573	595.2
309.965	589.2
310.357	577.6
310.749	588.2
311.142	578
311.534	581.8
311.926	589.6
312.319	580.4
312.711	579.8
313.104	589
313.497	580
313.889	613
314.282	595.2
314.675	596.2
315.068	579.8
315.461	589.6
315.854	598.6
316.247	584.4
316.64	579.2
317.033	586.4
317.405	578.8
317.798	588
318.192	583.4
318.585	578.8
318.979	593.4
319.372	575.6
319.766	588.2
320.16	590.6
320.553	593
320.947	596.8
321.341	579.8
321.735	582.2
322.129	571.4
322.523	605.2
322.917	579
323.311	589.4
323.705	585.2
324.099	588.2
324.494	592
324.888	587.2
325.282	577.4
325.677	594.6
326.071	587
326.466	586.6
326.861	585.2
327.255	598.2
327.65	589.4
328.045	592.2
328.44	584.6
328.835	581.4
329.23	568.2
329.625	603
330.02	571.4
330.415	598.4
330.81	585.6
331.206	581.8
331.601	577.8
331.996	582.6
332.37	590.8
332.766	573.8
333.161	605.4
333.557	580
333.953	578.4
334.348	826.4
334.744	584.4
335.14	577.4
335.536	585.8
335.932	583.4
336.328	585.4
336.724	588.2
337.12	580
337.516	582.4
337.913	578
338.309	598.8
338.705	572
339.102	594
339.498	579.2
339.895	587.6
340.291	577.4
340.688	588.4
341.085	569
341.481	570.6
341.878	583.8
342.275	599.2
342.672	578.6
343.069	577.4
343.466	572.2
343.842	584.8
344.239	581.2
344.636	584.8
345.033	578.6
345.431	577.6
345.828	585.8
346.225	574.8
346.623	604
347.02	575.6
347.418	589
347.816	599.2
348.213	573.4
348.611	587.8
349.009	578
349.407	592
349.805	574.8
350.203	569
350.601	583.6
350.999	578.8
351.397	633.2
351.795	573
352.193	586.2
352.57	583.4
352.969	581.2
353.367	578.2
353.766	568
354.164	574
354.563	585.4
354.961	578
355.36	576.6
355.759	579.6
356.158	579
356.557	571
356.956	578.2
357.355	569
357.754	576
358.153	577.2
358.552	597
358.951	571.4
359.35	586.6
359.75	579.8
360.149	577.2
360.527	561.2
360.926	570.2
361.326	575.8
361.726	577
362.125	573.8
362.525	582.2
362.925	570.8
363.325	570.8
363.724	575
364.124	566.8
364.524	570
364.924	568.4
365.324	582.4
365.725	567.2
366.125	577.4
366.525	570.6
366.904	570.8
367.304	562.8
367.705	595
368.105	587.2
368.506	579.8
368.906	584.2
369.307	580.8
369.708	577.6
370.108	567.8
370.509	584.4
370.91	571.2
371.311	578
371.712	590.4
372.113	575.6
372.514	568
372.894	564.6
373.295	573.2
373.696	581.4
374.097	582.2
374.499	591.8
374.9	571.4
375.301	571.6
375.703	583.6
376.105	579.8
376.506	580.4
376.908	581.8
377.309	576.6
377.711	579.4
378.113	570.8
378.493	571.6
378.895	571
379.297	589
379.699	563.6
380.102	572
380.504	573.4
380.906	569.2
381.308	591.6
381.71	573.2
382.113	578.8
382.515	570.8
382.918	576.6
383.299	571
383.701	577.8
384.104	577.2
384.507	562.4
384.909	573.6
385.312	560.8
385.715	566.2
386.118	574.8
386.521	562.4
386.924	583.2
387.327	573.4
387.709	570.2
388.112	554.8
388.515	560.8
388.918	570.2
389.322	574.6
389.725	572
390.129	585.2
390.532	573.8
390.936	568.6
391.339	567.4
391.743	572
392.125	570.2
392.529	581.8
392.933	585.4
393.337	572.6
393.74	570.2
394.144	574.4
394.548	577
394.953	565.4
395.357	570.4
395.761	575.6
396.144	580.6
396.548	575.6
396.952	570.6
397.357	569.8
397.761	569.4
398.166	573.8
398.57	571.6
398.975	563.6
399.379	575.4
399.763	612.2
400.168	578
400.572	571.4
400.977	568.6
401.382	588.6
401.787	582.6
402.192	585.2
402.597	584.8
403.002	569.4
403.386	581.8
403.791	590
404.197	563.8
404.602	579
405.007	567.2
405.413	574
405.818	572.8
406.224	572.2
406.608	571
407.014	566.8
407.42	588
407.825	567.6
408.231	579
408.637	578.2
409.043	581.6
409.449	573.6
409.834	573.4
410.24	570.2
410.646	580.8
411.052	570.4
411.458	578
411.865	589.8
412.271	578.4
412.677	577
413.062	577
413.469	566.2
413.875	596
414.282	587
414.689	582.8
415.095	575.6
415.502	569.4
415.888	574.4
416.294	564
416.701	607.6
417.108	570.8
417.515	582
417.923	582.2
418.33	595
418.715	578
419.123	575.2
419.53	576.4
419.937	573
420.345	583
420.752	572
421.16	588.6
421.546	582.8
421.953	579
422.361	570
422.769	576
423.177	564.4
423.585	596
423.992	589.6
424.379	578.6
424.787	582.6
425.195	592.4
425.603	579
426.011	584.4
426.419	583.2
426.806	576.6
427.214	570
427.623	588.8
428.031	589.8
428.44	573.8
428.848	586.4
429.235	587
429.644	580.4
430.053	583.2
430.461	598.4
430.87	606.8
431.279	589.2
431.666	591.2
432.075	591
432.484	605
432.893	589.4
433.302	613.4
433.711	644.6
434.099	615.8
434.508	613.8
434.918	606.4
435.327	632.6
435.737	629.2
436.125	627.6
436.534	637.8
436.944	629
437.353	647.4
437.763	655.6
438.173	657.6
438.561	660.8
438.971	648
439.381	666.4
439.791	685.2
440.201	667.4
440.589	670.4
440.999	684.4
441.409	689.2
441.819	684.8
442.23	705.8
442.619	710.6
443.029	700.4
443.439	703.8
443.85	714
444.26	724.8
444.649	726.4
445.06	711
445.471	710.8
445.881	724.6
446.292	734.6
446.682	742.6
447.092	716.6
447.503	767.6
447.914	733.2
448.325	737
448.715	735.6
449.126	732.8
449.537	730.4
449.948	740.8
450.338	748.4
450.75	749.2
451.161	744.4
451.572	744.8
451.984	745.4
452.374	731.6
452.786	743.6
453.197	748.8
453.609	748.2
453.999	736.6
454.411	736.4
454.823	747.6
455.235	751.8
455.647	748
456.037	758.6
456.449	746.4
456.862	759.8
457.274	758.2
457.665	750.2
458.077	761.6
458.489	772
458.902	747.2
459.293	762
459.705	747.8
460.118	741
460.53	753.8
460.921	758.4
461.334	759
461.747	761.6
462.16	769.2
462.551	770.8
462.964	762.4
463.377	750.8
463.79	753
464.182	774.4
464.595	753.8
465.008	767.8
465.421	776.4
465.813	751.8
466.226	753.4
466.64	760.6
467.053	790
467.445	771.4
467.859	786.2
468.272	769
468.686	767.8
469.078	762.2
469.492	744
469.906	759.4
470.298	762.8
470.712	748.6
471.126	797.8
471.54	747.8
471.933	742.4
472.347	756.8
472.761	750.6
473.175	744.8
473.568	746.4
473.982	738.8
474.397	760.2
474.79	753.8
475.204	753.2
475.619	742.4
476.033	756.4
476.426	754.6
476.841	737
477.256	769.4
477.649	746.6
478.064	741.6
478.479	742.4
478.872	740.4
479.287	732.4
479.702	732.4
480.118	749.8
480.511	731
480.927	744
481.342	740.2
481.736	743.4
482.151	734.8
482.566	746.6
482.96	742
483.376	752.8
483.792	731.2
484.186	744
484.602	727.4
485.017	737.2
485.412	719.4
485.827	732.2
486.243	730.2
486.638	745
487.054	725.4
487.47	740.4
487.865	723.2
488.281	719.6
488.697	719.4
489.092	723.2
489.508	715
489.925	738.8
490.32	713
490.736	725.2
491.153	722.6
491.548	713.2
491.964	718.2
492.381	713.8
492.776	714.8
493.193	709.8
493.61	724.4
494.006	712.4
494.422	707.6
494.84	698
495.235	711
495.652	706.6
496.069	711.4
496.465	693.8
496.883	697.8
497.3	723.8
497.696	689.2
498.113	704.6
498.509	690.2
498.927	692.2
499.344	686.6
499.741	676.8
500.158	700.2
500.576	695.2
500.973	684.8
501.39	686.4
501.787	678
502.205	686
502.623	685.2
503.02	675.2
503.438	682.2
503.856	677
504.253	686.8
504.671	676.6
505.068	679.2
505.486	675.8
505.905	688
506.302	676.2
506.72	686.4
507.118	670.6
507.536	666.4
507.955	657.6
508.352	668.4
508.771	672.8
509.169	668.2
509.587	665.4
510.006	673
510.404	658.2
510.823	656.8
511.221	664.8
511.64	665.4
512.038	672.4
512.457	662.6
512.877	665.2
513.275	655
513.694	663.6
514.092	655
514.512	656.8
514.91	662.2
515.33	651.6
515.749	656.8
516.148	654.6
516.568	648.8
516.966	655.4
517.386	642
517.785	654.2
518.205	643.6
518.603	640.2
519.024	638.6
519.444	654
519.843	655.2
520.263	658.4
520.662	646.2
521.082	651
521.481	637.6
521.902	636.8
522.301	641.4
522.722	643.4
523.121	634.6
523.542	634.6
523.963	630.8
524.362	639.2
524.783	631.6
525.183	637.4
525.604	631.6
526.003	632
526.425	629.6
526.824	635.6
527.246	634.4
527.646	638.2
528.067	623.8
528.467	629.2
528.888	632.8
529.289	629.4
529.71	624
530.11	621.2
530.532	631.2
530.932	616.2
531.354	617.4
531.755	654
532.176	622
532.577	630.8
532.999	627
533.4	616.2
533.822	617
534.223	624.2
534.645	606.6
535.046	620
535.468	615.2
535.869	628.2
536.292	608
536.693	634.4
537.115	616.6
537.516	611.2
537.939	612.4
538.34	621.4
538.742	625.2
539.165	610.8
539.566	618
539.989	608.4
540.391	609.8
540.814	617
541.216	617.4
541.639	610.8
542.041	615.6
542.464	603.4
542.866	605
543.268	608.4
543.691	620.8
544.093	607.6
544.517	621
544.919	605.2
545.343	628.2
545.745	602.2
546.147	607.4
546.571	602.8
546.974	606.6
547.398	606.6
547.8	617.2
548.224	603
548.627	600.2
549.03	599.6
549.454	594.8
549.857	590.6
550.281	600.4
550.684	598.6
551.087	608
551.512	598.4
551.915	607.6
552.34	608.2
552.743	594.8
553.146	605
553.571	596.6
553.975	618.2
554.399	592
554.803	642.8
555.207	590.2
555.632	593.2
556.036	605
556.461	590
556.865	602.4
557.268	594.4
557.694	587.6
558.098	592.8
558.502	594
558.927	590.4
559.332	586.2
559.736	590.2
560.162	601.6
560.566	587
560.992	599
561.396	591
561.801	595
562.227	594.8
562.631	594.6
563.036	596
563.462	597
563.867	587.8
564.272	576.2
564.698	591
565.103	581.8
565.508	608.8
565.935	591.6
566.34	590.4
566.745	595.8
567.172	583.4
567.577	604.6
567.982	592.8
568.409	594.8
568.815	571
569.22	592.2
569.626	597.4
570.053	574.8
570.459	580
570.865	582.8
571.292	594.6
571.698	586.4
572.104	575.2
572.531	585
572.937	581.8
573.343	581
573.75	574.4
574.177	584.2
574.583	588.2
574.99	576.4
575.396	577.6
575.824	582.6
576.231	584
576.637	574.4
577.065	593.4
577.472	571.6
577.879	577.6
578.286	582.8
578.714	573.8
579.121	573.6
579.528	578.6
579.935	582.8
580.364	575.6
580.771	567.6
581.178	566.4
581.585	578.2
582.014	573
582.421	570.6
582.829	573.8
583.236	575
583.644	571.8
584.073	575.8
584.481	578.8
584.889	575.4
585.296	585
585.726	573.2
586.134	570
586.542	572.8
586.95	580
587.358	563.8
587.787	573
588.196	582.4
588.604	568.6
589.012	582
589.421	572.8
589.851	566
590.259	588
590.668	569.6
591.076	607.4
591.485	565.8
591.894	566.6
592.324	578.2
592.733	578.8
593.142	553.6
593.551	573.2
593.96	567.6
594.369	560.2
594.8	560.8
595.209	579.2
595.618	561.2
596.028	564.8
596.437	566.4
596.847	572.6
597.256	575.4
597.687	567.6
598.097	570.6
598.507	556.6
598.917	569.6
599.327	571.2
599.736	563.4
600.146	575.6
600.556	570.6
600.988	574.2
601.398	565.6
601.808	577.4
602.219	561
602.629	567.6
603.039	576
603.45	592
603.86	564.4
604.271	582.4
604.703	573
605.114	572.2
605.525	571.4
605.935	574.8
606.346	584
606.757	567.8
607.168	566.4
607.579	561.4
607.99	579.4
608.402	563.6
608.813	572.6
609.224	564
609.636	558
610.047	566.4
610.48	568.4
610.892	568.2
611.303	568.4
611.715	565.8
612.127	561.8
612.539	566.8
612.95	570
613.362	560.8
613.774	561
614.186	563.2
614.599	573.6
615.011	577
615.423	570.8
615.835	568
616.248	565.6
616.66	571
617.073	567.2
617.485	559.2
617.898	572.8
618.311	570.8
618.723	568
619.136	578.8
619.549	573.2
619.962	584
620.375	562.2
620.788	571.8
621.201	558.6
621.614	567.4
622.028	566.6
622.441	570.4
622.854	576.4
623.268	564.2
623.681	569.6
624.095	562.4
624.509	563.6
624.922	569.8
625.336	557.6
625.728	560.2
626.142	569.8
626.556	574
626.97	571.4
627.384	568.8
627.799	565.8
628.213	578.4
628.627	572.8
629.041	566.2
629.456	561.6
629.87	574.2
630.285	574.8
630.699	573.2
631.093	570.4
631.507	565.6
631.922	566
632.337	578.6
632.752	557
633.167	567.4
633.582	562.2
633.997	559.4
634.412	561.6
634.806	559.6
635.221	553.6
635.637	570.4
636.052	556.6
636.468	572.2
636.883	574.4
637.299	569
637.715	557.4
638.109	559.8
638.525	555.4
638.941	582.2
639.357	568.4
639.773	569.2
640.189	561.4
640.584	562.2
641	561.8
641.416	558.4
641.832	566.6
642.249	561.2
642.665	565.2
643.06	568
643.477	565.4
643.894	558.6
644.31	565.6
644.727	562.6
645.123	561
645.54	553
645.957	569.8
646.374	580.2
646.77	561.8
647.187	588.4
647.604	564.4
648.021	551
648.439	560.4
648.835	567.6
649.252	560.8
649.67	559.6
650.088	569.8
650.484	570
650.902	570.2
651.32	570.2
651.738	569.2
652.134	561.8
652.552	569.2
652.971	568
653.389	570.2
653.786	571.6
654.204	580.4
654.622	560.2
655.019	567
655.438	567.2
655.857	559.2
656.275	565.6
656.673	555.6
657.091	573.8
657.51	557
657.908	570.2
658.327	571.8
658.746	555.2
659.144	559.2
659.563	574.8
659.982	559
660.38	552
660.8	561
661.219	572.2
661.617	566.6
662.037	557
662.457	574.2
662.855	559.6
663.275	583.8
663.695	564
664.094	560.4
664.514	564.6
664.934	556.6
665.333	564.6
665.753	566.6
666.152	554
666.572	553.2
666.993	576.2
667.392	558.2
667.812	555.4
668.212	559
668.632	559.6
669.053	557.2
669.453	563.4
669.874	561.6
670.273	556.8
670.694	550.6
671.116	565.6
671.515	558.4
671.937	555.2
672.337	553
672.758	554.6
673.158	563.8
673.58	552
673.98	567
674.402	562.6
674.824	553.8
675.224	546.8
675.646	553.8
676.047	553
676.469	559.2
676.869	567
677.292	560.4
677.693	545.2
678.115	554.8
678.516	567.2
678.939	559.4
679.34	563
679.762	559.2
680.164	567.8
680.586	548.4
680.988	557.6
681.411	580
681.812	551.8
682.236	548.4
682.637	553.2
683.061	542.8
683.462	556.8
683.864	557
684.288	559.4
684.69	547
685.114	563.8
685.516	562.2
685.94	556.2
686.342	565
686.766	548.4
687.168	560.8
687.571	571.4
687.995	553.8
688.398	543.8
688.822	553.6
689.225	569.8
689.628	572.4
690.052	557.2
690.456	560
690.88	554
691.284	554.6
691.687	557
692.112	550.6
692.515	545.8
692.919	561.6
693.344	551.6
693.747	557.6
694.173	553.4
694.577	568.4
694.98	557.4
695.406	553.8
695.81	562.2
696.214	556
696.64	556.4
697.044	559.8
697.448	562.6
697.874	552.2
698.279	551.6
698.684	549
699.11	551
699.514	548.6
699.919	554
700.324	550.2
700.75	556.4
701.156	558.8
701.561	564.4
701.987	560.4
702.393	562.6
702.798	571.6
703.203	559.2
703.63	553
704.036	556
704.442	559.6
704.847	546
705.274	557
705.68	561
706.086	555.2
706.492	552.8
706.92	558.4
707.326	562.8
707.732	559
708.139	559.6
708.545	541
708.973	554.4
709.38	559.4
709.786	544.6
710.193	564
710.6	562
711.028	549.8
711.435	555.2
711.842	560.6
712.249	557.2
712.656	569.4
713.064	563.8
713.492	549.6
713.9	556.8
714.307	560.8
714.715	560.4
715.123	547.4
715.53	559.6
715.938	559
716.367	564.6
716.775	554.6
717.184	549.6
717.592	554.6
718	565.6
718.408	583.6
718.816	585.4
719.225	558.6
719.633	558.2
720.042	551.2
720.472	552.8
720.881	572.6
721.29	561.8
721.699	550
722.108	562.8
722.517	553.4
722.926	549.4
723.335	554.8
723.744	558.8
724.154	560.6
724.563	558.2
724.973	561
725.382	559.6
725.792	562.8
726.202	556.6
726.612	572.2
727.022	551.8
727.432	547.2
779.813	555.6
780.223	591.2
780.634	551
781.044	551
781.454	554.8
781.865	565.4
782.276	543.6
782.686	560.6
783.097	556
783.508	553.8
783.919	557.8
784.33	565.2
784.741	557
785.152	553
785.563	548.4
785.974	548.6
786.386	559.2
786.776	553.2
787.188	547.8
787.599	549.6
788.011	553.4
788.423	555.4
788.835	554.2
789.247	541
789.659	558.6
790.071	549.6
790.483	579.4
790.874	556.4
791.286	557.8
791.699	546.6
792.111	562.6
792.524	552.6
792.937	555.6
793.349	544
793.741	552.8
794.154	552.2
794.567	569.6
794.98	554.8
795.393	548.4
795.785	562.4
796.198	551.8
796.612	555
797.026	553.6
797.439	549
797.831	554.2
798.245	547.4
798.659	551.6
799.073	546
799.487	552.4
799.88	556.2
800.294	552
800.708	559.4
801.123	555
801.516	570.8
801.93	543.4
802.345	550.2
802.76	550.4
803.153	568.2
803.568	566
803.983	565
804.377	561
804.792	548
805.207	547.2
805.601	552.4
806.016	579.8
806.432	542.4
806.826	585.2
807.242	562.8
807.658	556.4
808.052	554.6
808.468	545.4
808.884	550.8
809.279	551.2
809.695	555.2
810.111	570
810.506	558.4
810.922	561.4
811.339	552.2
811.734	555.6
812.151	549.8
812.546	548.2
812.963	554.2
813.38	559.8
813.776	556.6
814.193	571.8
814.589	548.4
815.006	547.6
815.402	549.4
815.82	550.4
816.237	551.8
816.633	555.6
817.051	550.2
817.448	563.2
817.866	548.2
818.262	563
818.68	555.2
819.077	549.6
819.495	550.2
819.892	582.8
820.311	543.2
820.708	543.4
821.127	550
821.524	551.2
821.943	556.6
822.34	565.2
822.759	560.8
823.157	544.6
823.576	567
823.974	558.4
824.393	565.8
824.791	548.2
825.189	543.8
825.609	547.6
826.007	551.4
826.427	539.6
826.826	547.6
827.246	548.6
827.644	543
828.043	568.8
828.463	547.8
828.862	556.8
829.261	556.6
829.682	544
830.081	556.4
830.502	544.8
830.901	553.4
831.301	566.8
831.722	542
832.121	551.8
832.521	551.8
832.943	554.2
833.342	555
833.742	544.4
834.164	551.8
834.564	542.2
834.965	554
835.386	546.2
835.787	557.6
836.188	547
836.588	557.2
837.01	543.8
837.411	550.8
837.812	550.6
838.213	554.2
838.636	541.6
839.037	601.8
839.438	551.6
839.84	548
840.263	555.8
840.664	551
841.066	534.8
841.468	554.4
841.891	550.4
842.293	557.6
842.695	553.2
843.098	560.2
843.5	543.2
843.902	551.8
844.326	549.2
844.729	544.4
845.131	558
845.534	546.2
845.937	561.4
846.34	563.4
846.764	543.8
847.167	552.6
847.571	546
847.974	543.6
848.377	548
848.781	583.4
849.184	566
849.588	552.8
849.992	555.4
850.396	555.8
850.821	566.2
851.225	557.6
851.63	552.6
852.034	555
852.438	556.6
852.843	613.4
853.247	541.4
853.652	547.8
854.057	567.8
854.462	551.4
854.867	557
855.272	570.6
855.677	553.4
856.082	547.2
856.487	548.4
