#lambda/nm	C1
208.295	565.4
208.67	498.6
209.045	465.2
209.419	457.2
209.794	592.6
210.169	575.4
210.544	672.8
210.919	589.6
211.295	582.2
211.67	589
212.045	582.4
212.421	580.2
212.796	618.6
213.172	581.8
213.547	582.4
213.923	585.6
214.299	583
214.675	587.4
215.051	594.8
215.427	595.4
215.803	599
216.179	596.6
216.555	572
216.932	589.6
217.308	579.6
217.684	576
218.061	583.4
218.438	582.4
218.814	578.8
219.191	590.4
219.568	579.2
219.945	580.8
220.322	592.2
220.699	587
221.076	580.8
221.453	588.4
221.83	578.6
222.208	578.2
222.585	576.2
222.962	585.8
223.34	587.6
223.717	583.8
224.095	581.4
224.473	586.6
224.851	584.8
225.229	576.4
225.607	597.8
225.985	578.2
226.363	589.4
226.741	586.4
227.119	575.2
227.497	586.2
227.876	577
228.254	582.2
228.633	590.6
229.011	590.2
229.39	588
229.769	587.4
230.148	591
230.527	598
230.905	583.6
231.284	588.8
231.664	570.6
232.043	591.6
232.422	582.4
232.801	580
233.181	589.2
233.56	583.4
233.94	583.8
234.319	575.8
234.699	579.8
235.079	614.6
235.458	614.4
235.838	588
236.218	572.6
236.598	571.8
236.978	583
237.358	587
237.738	580.2
238.119	587.8
238.499	573.8
238.88	584.8
239.26	592.6
239.641	573.4
240.021	569.6
240.402	582.2
240.783	578.2
241.163	583.4
241.544	588.6
241.925	581.8
242.306	597
242.687	593
243.069	584.4
243.45	583.8
243.831	584.8
244.212	579.4
244.594	611.6
244.975	589.8
245.357	587
245.739	581.2
246.12	585.2
246.502	593.8
246.884	579.4
247.266	578.4
247.648	588.2
248.03	598.2
248.412	583.4
248.794	589.2
249.176	584.4
249.559	594.8
249.941	580.2
250.323	585.4
250.706	579.6
251.089	584.8
251.471	585.8
251.854	582.8
252.237	586.2
252.62	584
253.002	588.6
253.385	582.6
253.769	601.8
254.152	586.6
254.535	589.8
254.918	574
255.301	580.4
255.685	577.8
256.068	572
256.452	600.4
256.835	589.8
257.219	592.8
257.603	599.6
257.986	571
258.37	586
258.754	574.6
259.138	587
259.522	596.6
259.906	576.4
260.29	582.4
260.675	578.6
261.059	579
261.443	574.6
261.828	586.4
262.212	582.4
262.597	572.2
262.981	579.6
263.366	599.6
263.751	585.4
264.136	578.4
264.521	577.6
264.906	574.2
265.291	588.6
265.676	572.6
266.061	585.6
266.446	605.6
266.831	584.4
267.217	598.4
267.602	586
267.987	585.8
268.373	585
268.759	586.8
269.144	590
269.53	585.6
269.916	579.8
270.302	580.8
270.688	579.8
271.074	583.2
271.46	588.4
271.846	614
272.232	583.4
272.618	576.4
273.004	582.2
273.391	595.2
273.777	596
274.164	582.2
274.55	597
274.937	580.4
275.324	576.8
275.71	589.2
276.097	584
276.484	578.4
276.871	585.6
277.258	589.8
277.645	576
278.032	584.6
278.419	583.6
278.807	587
279.194	581.4
279.581	586.8
279.969	592.8
280.356	590.6
280.744	591.6
281.131	602.4
281.519	592.8
281.907	568.8
282.295	577
282.682	593.6
283.07	589
283.458	592
283.846	589.2
284.235	589.4
284.623	589.8
285.011	581.4
285.399	582.8
285.788	582.8
286.176	578.8
286.565	587.4
286.953	581
287.342	578.8
287.731	572.4
288.119	573.6
288.508	579.6
288.897	573.6
289.286	571.2
289.675	585.2
290.064	590.8
290.453	582
290.821	583.4
291.21	600
291.599	585.4
291.989	579.8
292.378	587.8
292.768	605.4
293.157	588.4
293.547	584.8
293.936	582.4
294.326	574
294.716	587.8
295.106	578.2
295.496	582.6
295.886	584.4
296.276	585
296.666	580.2
297.056	580.4
297.446	572
297.836	591.8
298.227	576.6
298.617	585.6
299.008	586.4
299.398	582.8
299.789	578.2
300.179	582.8
300.57	590.2
300.961	577
301.352	579.8
301.742	581
302.133	578.2
302.524	583.8
302.915	581
303.307	579.2
303.698	598
304.089	586.6
304.48	588
304.872	584
305.263	587.8
305.655	576.4
306.046	591
306.438	588.8
306.829	584.6
307.221	592.8
307.613	588.6
308.005	590.6
308.397	594.6
308.789	603.2
309.181	606.2
309.573	591.6
309.965	593.6
310.357	587.2
310.749	591.8
311.142	579.4
311.534	582.2
311.926	593
312.319	586.4
312.711	586.4
313.104	600.2
313.497	587.6
313.889	611.6
314.282	605
314.675	614
315.068	584.4
315.461	588.8
315.854	610.4
316.247	584.2
316.64	587.8
317.033	587.4
317.405	589.8
317.798	589.8
318.192	587.6
318.585	581.4
318.979	579.6
319.372	580.6
319.766	584.8
320.16	594.4
320.553	597
320.947	604
321.341	582.4
321.735	588.6
322.129	567.8
322.523	600
322.917	578.2
323.311	596.4
323.705	587
324.099	586.8
324.494	595.6
324.888	585.4
325.282	577.8
325.677	592.6
326.071	584.4
326.466	594.4
326.861	584.2
327.255	595.4
327.65	593.2
328.045	594.4
328.44	583.4
328.835	580.8
329.23	579.2
329.625	600.6
330.02	579.8
330.415	602.2
330.81	584.8
331.206	582.8
331.601	578.4
331.996	588.4
332.37	603
332.766	567
333.161	604.8
333.557	581.4
333.953	582.8
334.348	867.4
334.744	585.8
335.14	575.8
335.536	577.6
335.932	591
336.328	583.4
336.724	590.8
337.12	575.8
337.516	591.4
337.913	585.8
338.309	597.4
338.705	588.6
339.102	587.2
339.498	579.6
339.895	594.4
340.291	580
340.688	587.2
341.085	579.6
341.481	585.6
341.878	580.2
342.275	597.4
342.672	569.4
343.069	578
343.466	578.4
343.842	585.6
344.239	572.8
344.636	582.8
345.033	573.6
345.431	578.8
345.828	582.6
346.225	581.2
346.623	610
347.02	587.4
347.418	588.2
347.816	595.8
348.213	584.8
348.611	587.4
349.009	575.6
349.407	588.2
349.805	575.4
350.203	577
350.601	592.2
350.999	578.2
351.397	630.8
351.795	585.6
352.193	586.2
352.57	581.2
352.969	580.4
353.367	573.2
353.766	576.4
354.164	579.2
354.563	589.6
354.961	580.2
355.36	565.8
355.759	580.8
356.158	577
356.557	573.6
356.956	570
357.355	569
357.754	579.2
358.153	586.6
358.552	598.6
358.951	578.6
359.35	586.6
359.75	567.8
360.149	568.4
360.527	575.4
360.926	572.6
361.326	577.4
361.726	578.4
362.125	565.6
362.525	584
362.925	577
363.325	579
363.724	583
364.124	573.8
364.524	573.8
364.924	577.6
365.324	576
365.725	571.2
366.125	588.2
366.525	579
366.904	580
367.304	563
367.705	597.8
368.105	585.6
368.506	573.2
368.906	573
369.307	578
369.708	578.8
370.108	570.8
370.509	575.6
370.91	566.8
371.311	584.8
371.712	576
372.113	571
372.514	572.6
372.894	576.6
373.295	575.8
373.696	584.2
374.097	580.6
374.499	598.6
374.9	584.2
375.301	574.8
375.703	576
376.105	568.6
376.506	584.2
376.908	581.6
377.309	582
377.711	576.6
378.113	571.2
378.493	579.4
378.895	572.6
379.297	581.8
379.699	568.6
380.102	583.4
380.504	579.6
380.906	561.6
381.308	583.4
381.71	573.2
382.113	583.4
382.515	574.4
382.918	576.4
383.299	571.6
383.701	581
384.104	579
384.507	566.6
384.909	574.4
385.312	568.2
385.715	569.4
386.118	574.6
386.521	563.8
386.924	580.2
387.327	573.4
387.709	568.8
388.112	569.8
388.515	570.8
388.918	575.6
389.322	584.4
389.725	580
390.129	587.2
390.532	579
390.936	575
391.339	573
391.743	578.4
392.125	564.2
392.529	580.8
392.933	577.4
393.337	573.4
393.74	572
394.144	578.2
394.548	563.4
394.953	575
395.357	579.6
395.761	569.8
396.144	567
396.548	569.4
396.952	577.8
397.357	576.8
397.761	564
398.166	576
398.57	573.2
398.975	569.4
399.379	575
399.763	609.8
400.168	575.6
400.572	572.2
400.977	580.6
401.382	591.2
401.787	582
402.192	585.8
402.597	589.6
403.002	568.8
403.386	582.8
403.791	586.2
404.197	566.2
404.602	572.2
405.007	567
405.413	573.2
405.818	568.8
406.224	563.6
406.608	578.6
407.014	569
407.42	589
407.825	572.6
408.231	579.2
408.637	580.8
409.043	585.8
409.449	568.4
409.834	571.2
410.24	578.4
410.646	590.4
411.052	585.8
411.458	581.4
411.865	582.6
412.271	582.8
412.677	579
413.062	579.6
413.469	569.6
413.875	598.8
414.282	593.8
414.689	574.2
415.095	582.6
415.502	565.4
415.888	576.8
416.294	575.4
416.701	615.2
417.108	573
417.515	583.4
417.923	577
418.33	585.8
418.715	579.4
419.123	578
419.53	576.8
419.937	575.2
420.345	586.8
420.752	565.4
421.16	589.2
421.546	578.4
421.953	585.4
422.361	566.8
422.769	581.6
423.177	570.4
423.585	599.8
423.992	592.4
424.379	581.4
424.787	584.8
425.195	594.6
425.603	574
426.011	592
426.419	579
426.806	584.2
427.214	577.2
427.623	594.6
428.031	597
428.44	584.6
428.848	596.4
429.235	600.8
429.644	585.2
430.053	585.8
430.461	601.4
430.87	617.6
431.279	595.8
431.666	593.4
432.075	609
432.484	614.6
432.893	615.2
433.302	637
433.711	660.6
434.099	638.8
434.508	634.4
434.918	637.8
435.327	660.6
435.737	665.6
436.125	667.6
436.534	674.4
436.944	687.6
437.353	679.4
437.763	719.6
438.173	686.2
438.561	713.4
438.971	709
439.381	722.2
439.791	726.2
440.201	709.6
440.589	732.2
440.999	761.4
441.409	751
441.819	748.2
442.23	769.6
442.619	779.6
443.029	779.8
443.439	776
443.85	780.8
444.26	808.2
444.649	786.6
445.06	787.8
445.471	784
445.881	799.2
446.292	809.6
446.682	818.8
447.092	798.8
447.503	848.2
447.914	810.4
448.325	808.8
448.715	812.6
449.126	817.6
449.537	825.2
449.948	809.8
450.338	828
450.75	834.8
451.161	819.6
451.572	828.8
451.984	824.2
452.374	825.8
452.786	829.4
453.197	825.6
453.609	826.8
453.999	820.2
454.411	827.8
454.823	836.4
455.235	834.8
455.647	837
456.037	850.6
456.449	834.2
456.862	845.8
457.274	840.6
457.665	838.8
458.077	840.6
458.489	862
458.902	838.4
459.293	843.2
459.705	853.4
460.118	838.8
460.53	849.6
460.921	859.4
461.334	853.8
461.747	843.6
462.16	858.6
462.551	856.6
462.964	854
463.377	838.8
463.79	857
464.182	857.4
464.595	833.8
465.008	840.6
465.421	845.6
465.813	850.4
466.226	848.4
466.64	839
467.053	872.4
467.445	848.6
467.859	860
468.272	846.8
468.686	854
469.078	831.6
469.492	845.4
469.906	838.4
470.298	841
470.712	829.6
471.126	878.4
471.54	825.6
471.933	842.8
472.347	838.6
472.761	841.4
473.175	826.8
473.568	837.4
473.982	830
474.397	844.6
474.79	841.8
475.204	838.8
475.619	829.8
476.033	833.6
476.426	837.8
476.841	835.4
477.256	850.4
477.649	834
478.064	816
478.479	826
478.872	816.6
479.287	810.2
479.702	814.8
480.118	824.4
480.511	810.6
480.927	816
481.342	806.6
481.736	819.6
482.151	812
482.566	822.2
482.96	810.6
483.376	820.6
483.792	796.6
484.186	805.6
484.602	809.4
485.017	799.6
485.412	800.4
485.827	807.2
486.243	796
486.638	820.4
487.054	806.4
487.47	814.8
487.865	803.6
488.281	788.2
488.697	784.4
489.092	794
489.508	776.8
489.925	794.2
490.32	782
490.736	792.2
491.153	783.4
491.548	777
491.964	788.8
492.381	763
492.776	783.8
493.193	780.2
493.61	777.2
494.006	775.6
494.422	774.6
494.84	763.6
495.235	769
495.652	776.8
496.069	764.6
496.465	760.8
496.883	764.4
497.3	776.6
497.696	757
498.113	758.4
498.509	746
498.927	750.8
499.344	739.6
499.741	745.2
500.158	753.6
500.576	760.8
500.973	744
501.39	735.8
501.787	733.2
502.205	746.6
502.623	740.6
503.02	734.6
503.438	725.2
503.856	739.2
504.253	738.2
504.671	718
505.068	726.8
505.486	736
505.905	750
506.302	723.4
506.72	740
507.118	714.2
507.536	720.2
507.955	723.4
508.352	719.4
508.771	723.4
509.169	724.4
509.587	704.6
510.006	715.4
510.404	706
510.823	704.6
511.221	696
511.64	710.2
512.038	715.6
512.457	704.4
512.877	697.2
513.275	703
513.694	700.8
514.092	705.4
514.512	701.6
514.91	700.2
515.33	703.2
515.749	694.8
516.148	698
516.568	700.2
516.966	685
517.386	684.6
517.785	691.2
518.205	682.4
518.603	680
519.024	674
519.444	685.6
519.843	681.2
520.263	680.8
520.662	691
521.082	679.6
521.481	677.8
521.902	728
522.301	1155
522.722	903.6
523.121	700.6
523.542	675
523.963	665
524.362	666
524.783	674.8
525.183	659.4
525.604	658.6
526.003	664
526.425	658
526.824	662.6
527.246	661.2
527.646	661.6
528.067	650.2
528.467	651
528.888	661.2
529.289	648
529.71	651.6
530.11	649.2
530.532	636.8
530.932	641.2
531.354	640.6
531.755	669.8
532.176	662.8
532.577	647.4
532.999	649
533.4	640.8
533.822	650.6
534.223	645.8
534.645	637
535.046	635.6
535.468	647.2
535.869	661
536.292	638
536.693	675
537.115	641.2
537.516	634.4
537.939	636
538.34	652.4
538.742	648
539.165	632
539.566	637
539.989	631
540.391	642.2
540.814	637.4
541.216	686
541.639	673
542.041	636.4
542.464	631.4
542.866	626.8
543.268	628.4
543.691	637.2
544.093	663
544.517	748.8
544.919	626.2
545.343	641.8
545.745	617.2
546.147	623.2
546.571	629
546.974	614
547.398	622.8
547.8	637.2
548.224	621
548.627	612.6
549.03	625.8
549.454	612.4
549.857	614
550.281	605.8
550.684	611.4
551.087	626.4
551.512	624.2
551.915	623.2
552.34	616.6
552.743	609.2
553.146	612.8
553.571	612.2
553.975	630.4
554.399	608
554.803	657.8
555.207	610.6
555.632	602.2
556.036	609.4
556.461	606
556.865	618.4
557.268	599.8
557.694	606.6
558.098	612.8
558.502	608.2
558.927	599.4
559.332	611.8
559.736	608
560.162	618.2
560.566	600
560.992	609
561.396	602
561.801	606.4
562.227	606.2
562.631	599.8
563.036	609
563.462	614
563.867	601.4
564.272	596
564.698	607.4
565.103	606.2
565.508	617
565.935	606.4
566.34	603.2
566.745	604
567.172	594.2
567.577	618.4
567.982	613.8
568.409	603.8
568.815	596.8
569.22	598
569.626	603.6
570.053	586.6
570.459	596.8
570.865	607.2
571.292	597.8
571.698	598.2
572.104	585
572.531	593.6
572.937	602.6
573.343	597.2
573.75	590
574.177	597.4
574.583	592
574.99	593
575.396	598.2
575.824	585
576.231	588.2
576.637	584.2
577.065	608.6
577.472	587.2
577.879	584
578.286	594.4
578.714	586.6
579.121	583
579.528	588.2
579.935	590.4
580.364	584.2
580.771	582.4
581.178	576.6
581.585	592.8
582.014	587.6
582.421	584.4
582.829	580.2
583.236	589
583.644	580.6
584.073	583
584.481	591.4
584.889	584.6
585.296	587.2
585.726	587.2
586.134	579
586.542	587.8
586.95	590.6
587.358	577.2
587.787	574.2
588.196	588
588.604	571.4
589.012	577.6
589.421	574.6
589.851	569.4
590.259	582.4
590.668	571
591.076	609.6
591.485	574.2
591.894	577.8
592.324	591.2
592.733	586.4
593.142	569.8
593.551	573.2
593.96	605.2
594.369	568
594.8	564.4
595.209	581
595.618	572
596.028	576
596.437	577.8
596.847	578.8
597.256	582.2
597.687	576.4
598.097	576.6
598.507	568
598.917	573.6
599.327	585
599.736	574.2
600.146	586.6
600.556	569.6
600.988	577
601.398	576.2
601.808	581
602.219	564.4
602.629	572.2
603.039	573.4
603.45	590
603.86	570.8
604.271	582
604.703	574.6
605.114	576.8
605.525	577.8
605.935	580.2
606.346	591.6
606.757	576.2
607.168	569.8
607.579	571
607.99	584.2
608.402	573.2
608.813	577.8
609.224	566.8
609.636	564.4
610.047	574.8
610.48	571.4
610.892	571.8
611.303	573.6
611.715	573.4
612.127	565.8
612.539	567.8
612.95	572.2
613.362	565.2
613.774	559.8
614.186	567.2
614.599	567.4
615.011	576.2
615.423	575.2
615.835	564.2
616.248	560
616.66	572.8
617.073	565.8
617.485	566.8
617.898	576
618.311	571
618.723	568.8
619.136	591.2
619.549	580.4
619.962	583.6
620.375	567.4
620.788	572.6
621.201	562.8
621.614	576.2
622.028	569.2
622.441	572.4
622.854	575.8
623.268	562.2
623.681	568.6
624.095	565.2
624.509	576.4
624.922	571.4
625.336	554.8
625.728	565
626.142	575.6
626.556	578.4
626.97	565.8
627.384	567
627.799	567
628.213	571.2
628.627	561.8
629.041	559.4
629.456	567.6
629.87	563.8
630.285	573.8
630.699	571.8
631.093	572.2
631.507	562
631.922	567.6
632.337	573.4
632.752	564.2
633.167	567
633.582	561.8
633.997	562.2
634.412	563
634.806	565.2
635.221	565
635.637	576.2
636.052	560.8
636.468	569
636.883	583
637.299	563
637.715	559.4
638.109	560.4
638.525	553.2
638.941	573.6
639.357	565.2
639.773	569
640.189	557.4
640.584	566.4
641	569
641.416	560.4
641.832	561.8
642.249	554.2
642.665	564.2
643.06	568.4
643.477	579.4
643.894	556.6
644.31	563.4
644.727	557
645.123	558.4
645.54	559.4
645.957	570.2
646.374	573.4
646.77	557.2
647.187	581.8
647.604	560.4
648.021	551.8
648.439	557.2
648.835	566.2
649.252	568
649.67	563.8
650.088	576.2
650.484	570.8
650.902	567.6
651.32	570.6
651.738	556.8
652.134	563.4
652.552	575.6
652.971	572
653.389	561.2
653.786	570.4
654.204	583
654.622	554.8
655.019	562.2
655.438	568.2
655.857	565
656.275	566.4
656.673	560
657.091	567.8
657.51	557.2
657.908	570.4
658.327	575.4
658.746	558.6
659.144	571.2
659.563	575.4
659.982	563
660.38	554.4
660.8	568
661.219	569.2
661.617	564.8
662.037	565.4
662.457	570.6
662.855	553.8
663.275	587.2
663.695	572.6
664.094	557.6
664.514	569.2
664.934	557.8
665.333	561
665.753	558
666.152	555.6
666.572	557.8
666.993	571
667.392	564.6
667.812	561.2
668.212	566
668.632	573.4
669.053	560
669.453	571
669.874	563.4
670.273	566.2
670.694	558.6
671.116	575.4
671.515	570.6
671.937	562.2
672.337	552.6
672.758	561
673.158	568.2
673.58	559.6
673.98	556.8
674.402	568.6
674.824	561.4
675.224	551
675.646	549.4
676.047	557
676.469	561.2
676.869	560.6
677.292	563
677.693	551
678.115	562.8
678.516	558.4
678.939	565.4
679.34	563.4
679.762	577
680.164	562.2
680.586	550.4
680.988	565.8
681.411	588.6
681.812	558.4
682.236	561.2
682.637	558
683.061	543.6
683.462	557.6
683.864	556.2
684.288	565
684.69	553.6
685.114	568.6
685.516	558
685.94	547.4
686.342	566.2
686.766	551
687.168	560.2
687.571	573.6
687.995	565.8
688.398	546.8
688.822	552.6
689.225	569.8
689.628	580.2
690.052	558.8
690.456	564
690.88	559.6
691.284	551.6
691.687	553.4
692.112	555.4
692.515	553
692.919	560.6
693.344	562.8
693.747	557.6
694.173	557.6
694.577	563.2
694.98	555.4
695.406	557.8
695.81	557.8
696.214	561.4
696.64	570.4
697.044	564.6
697.448	572.4
697.874	559
698.279	563.8
698.684	542.4
699.11	555
699.514	555
699.919	557.8
700.324	557.4
700.75	562.6
701.156	561.8
701.561	564.6
701.987	564.2
702.393	573.2
702.798	572.2
703.203	565.2
703.63	561
704.036	555.2
704.442	566.2
704.847	554.4
705.274	550.2
705.68	559.2
706.086	567.8
706.492	557.8
706.92	556.8
707.326	565.6
707.732	558
708.139	550.4
708.545	553.4
708.973	559.2
709.38	563.6
709.786	546.8
710.193	572.4
710.6	560.8
711.028	554.4
711.435	556.2
711.842	558.2
712.249	557.4
712.656	558.6
713.064	563.6
713.492	556.6
713.9	557
714.307	554.8
714.715	555.8
715.123	566.4
715.53	560.6
715.938	562.6
716.367	561.4
716.775	557.6
717.184	556.4
717.592	558.6
718	558.8
718.408	591.6
718.816	585.6
719.225	559.6
719.633	554.6
720.042	549
720.472	551.6
720.881	572.2
721.29	557.2
721.699	550.8
722.108	561.6
722.517	557.8
722.926	560.2
723.335	563.4
723.744	552.8
724.154	557.6
724.563	555.2
724.973	559.2
725.382	557.4
725.792	543.4
726.202	556
726.612	571.4
727.022	550.6
727.432	555.8
779.813	557.6
780.223	589.8
780.634	555.4
781.044	558
781.454	557
781.865	571.8
782.276	549.8
782.686	567
783.097	554.4
783.508	551.2
783.919	562
784.33	570.4
784.741	572
785.152	557.4
785.563	548.6
785.974	540.8
786.386	566.8
786.776	556.6
787.188	557.2
787.599	558.6
788.011	557
788.423	559.6
788.835	560
789.247	545.8
789.659	552.4
790.071	555
790.483	593.2
790.874	549.2
791.286	549.8
791.699	543
792.111	555.6
792.524	559.8
792.937	559.2
793.349	537.2
793.741	549.6
794.154	547.4
794.567	560.6
794.98	555.6
795.393	545.6
795.785	562.6
796.198	552.6
796.612	562.8
797.026	555.6
797.439	544
797.831	552.6
798.245	547.8
798.659	553
799.073	549
799.487	545
799.88	554.8
800.294	552.6
800.708	552
801.123	553
801.516	566.6
801.93	547.6
802.345	551.6
802.76	553
803.153	563.8
803.568	564.4
803.983	570.4
804.377	557
804.792	546.4
805.207	546.8
805.601	557.8
806.016	582.4
806.432	546.2
806.826	581
807.242	563.6
807.658	554.4
808.052	555.6
808.468	556.6
808.884	556
809.279	555
809.695	559.8
810.111	576.6
810.506	560.8
810.922	572
811.339	560
811.734	559.4
812.151	556.6
812.546	552
812.963	548.6
813.38	557
813.776	555.6
814.193	576
814.589	554.6
815.006	556
815.402	550.4
815.82	556.2
816.237	554.6
816.633	556.2
817.051	554.6
817.448	552.4
817.866	556
818.262	567
818.68	557.4
819.077	551
819.495	548
819.892	586.6
820.311	542.6
820.708	549.8
821.127	548.2
821.524	562.2
821.943	558.8
822.34	573
822.759	558.6
823.157	555.6
823.576	564.8
823.974	566
824.393	597
824.791	549.8
825.189	546.2
825.609	551.8
826.007	553.6
826.427	546.8
826.826	551.6
827.246	559
827.644	545
828.043	564.8
828.463	547
828.862	561.4
829.261	559.2
829.682	552.6
830.081	565.2
830.502	542.4
830.901	559.4
831.301	564.4
831.722	540
832.121	555.6
832.521	548
832.943	555.2
833.342	553.6
833.742	542.2
834.164	544
834.564	547.8
834.965	548.2
835.386	549.8
835.787	546.2
836.188	548.4
836.588	556.6
837.01	552
837.411	543
837.812	556.8
838.213	558.6
838.636	551.8
839.037	605
839.438	557.2
839.84	555.6
840.263	561.2
840.664	551.6
841.066	552.8
841.468	549.4
841.891	552
842.293	569.8
842.695	562.8
843.098	570
843.5	553.2
843.902	551.6
844.326	563.8
844.729	559.2
845.131	565.2
845.534	556.8
845.937	561.2
846.34	564.4
846.764	549.6
847.167	561.8
847.571	549.2
847.974	554.4
848.377	552.6
848.781	589
849.184	564.8
849.588	554.2
849.992	550.8
850.396	556
850.821	565.4
851.225	558.8
851.63	548.2
852.034	563.6
852.438	547.2
852.843	571.6
853.247	548.4
853.652	550
854.057	570
854.462	557.6
854.867	560.2
855.272	585.6
855.677	562.4
856.082	548.4
856.487	547
856.893	558.6
857.298	558.8
