#lambda/nm	C1
208.295	545.4
208.67	489.2
209.045	454
209.419	441
209.794	598.6
210.169	593.4
210.544	693.2
210.919	606.6
211.295	595.2
211.67	608.6
212.045	593.6
212.421	593.6
212.796	631.8
213.172	596.2
213.547	596.8
213.923	594
214.299	594
214.675	601.6
215.051	601
215.427	606.6
215.803	618.8
216.179	604
216.555	599.8
216.932	607.4
217.308	592.8
217.684	601.8
218.061	600.8
218.438	610.6
218.814	590.6
219.191	605.4
219.568	599
219.945	598
220.322	605.4
220.699	603.4
221.076	609.2
221.453	601.8
221.83	595.8
222.208	589.2
222.585	595.8
222.962	604.8
223.34	596.6
223.717	597.6
224.095	597.8
224.473	597.4
224.851	597.2
225.229	597.4
225.607	616
225.985	594.6
226.363	597.4
226.741	610.4
227.119	599.8
227.497	612.4
227.876	581.8
228.254	612.4
228.633	604.6
229.011	602.4
229.39	598
229.769	602.2
230.148	609.8
230.527	608.2
230.905	594.4
231.284	598
231.664	593.8
232.043	608.6
232.422	605.8
232.801	582.2
233.181	609.2
233.56	604.2
233.94	609.6
234.319	590
234.699	602.2
235.079	638
235.458	632.6
235.838	611.4
236.218	595
236.598	592.6
236.978	600
237.358	589.8
237.738	597
238.119	601.6
238.499	596.6
238.88	596.6
239.26	615.4
239.641	592.6
240.021	595.6
240.402	593.2
240.783	593.4
241.163	600.2
241.544	601.4
241.925	595.2
242.306	606.2
242.687	597
243.069	601.6
243.45	615.4
243.831	594.2
244.212	602.2
244.594	634
244.975	610
245.357	594.6
245.739	596.4
246.12	603
246.502	609.6
246.884	595
247.266	596.8
247.648	605.2
248.03	616
248.412	602.6
248.794	599
249.176	591.8
249.559	608.6
249.941	599.4
250.323	596.4
250.706	592.2
251.089	591
251.471	594.6
251.854	602.8
252.237	594.8
252.62	599.6
253.002	600.2
253.385	596.6
253.769	610
254.152	596.6
254.535	605.6
254.918	592.6
255.301	597.2
255.685	600.2
256.068	584.8
256.452	615.8
256.835	601.8
257.219	607
257.603	610.2
257.986	593
258.37	601
258.754	592.2
259.138	605.6
259.522	602.8
259.906	586.8
260.29	598.2
260.675	592
261.059	601.6
261.443	590
261.828	599
262.212	605.8
262.597	592.2
262.981	599.2
263.366	602.8
263.751	598.8
264.136	594.6
264.521	593
264.906	591.4
265.291	609.6
265.676	587.2
266.061	607
266.446	615.2
266.831	604.6
267.217	622.8
267.602	604
267.987	595.4
268.373	597.8
268.759	608.4
269.144	607.2
269.53	599.4
269.916	591.6
270.302	597.4
270.688	602.6
271.074	599.6
271.46	605
271.846	625.4
272.232	613.8
272.618	592.4
273.004	592
273.391	613.2
273.777	610.2
274.164	603
274.55	612.8
274.937	601.2
275.324	595.6
275.71	601.4
276.097	609.8
276.484	594.4
276.871	603.8
277.258	600.4
277.645	591.2
278.032	600
278.419	601.8
278.807	604.8
279.194	596.6
279.581	596.2
279.969	605.8
280.356	598.8
280.744	604.2
281.131	623.4
281.519	611.6
281.907	592.2
282.295	599.2
282.682	604.2
283.07	598.6
283.458	598.2
283.846	609.8
284.235	606.8
284.623	609.8
285.011	590.2
285.399	608.2
285.788	595
286.176	592.8
286.565	604.6
286.953	591.8
287.342	602.4
287.731	590.2
288.119	587
288.508	600.2
288.897	598.2
289.286	582
289.675	598.2
290.064	608.4
290.453	595.4
290.821	595.8
291.21	612.6
291.599	594.6
291.989	595.4
292.378	599.4
292.768	611.8
293.157	602.6
293.547	608.2
293.936	600.4
294.326	600
294.716	604.6
295.106	596
295.496	605.2
295.886	604
296.276	599.4
296.666	583.8
297.056	588.4
297.446	589.6
297.836	606.2
298.227	600.2
298.617	595
299.008	610
299.398	592.4
299.789	585.4
300.179	597.6
300.57	610.4
300.961	596.8
301.352	599.6
301.742	612.8
302.133	596.8
302.524	596
302.915	597.2
303.307	591.2
303.698	617
304.089	608
304.48	598.2
304.872	604.2
305.263	599.2
305.655	601.6
306.046	610.6
306.438	600.2
306.829	593.2
307.221	609.4
307.613	601.8
308.005	609.6
308.397	619.4
308.789	613.6
309.181	618.4
309.573	605.4
309.965	607.4
310.357	603.2
310.749	610
311.142	585.4
311.534	595
311.926	602.4
312.319	595.2
312.711	590.8
313.104	613.4
313.497	605
313.889	637.2
314.282	611.2
314.675	619.8
315.068	600.4
315.461	603.4
315.854	625
316.247	599.2
316.64	598.4
317.033	598
317.405	616.6
317.798	595.4
318.192	599.4
318.585	593.8
318.979	602.4
319.372	594.8
319.766	602.8
320.16	604.8
320.553	609.4
320.947	610.8
321.341	592.8
321.735	604.2
322.129	584.2
322.523	627
322.917	591.4
323.311	611.2
323.705	603
324.099	611.8
324.494	610.4
324.888	604.2
325.282	603.2
325.677	604.4
326.071	604.2
326.466	613.6
326.861	601.2
327.255	616.4
327.65	612.8
328.045	615.6
328.44	601.8
328.835	600.6
329.23	590.4
329.625	626.8
330.02	588.6
330.415	619.4
330.81	601.4
331.206	600
331.601	597
331.996	610.8
332.37	617.4
332.766	598.6
333.161	622.8
333.557	603.6
333.953	606.4
334.348	966.4
334.744	601.4
335.14	588.8
335.536	595.4
335.932	613.8
336.328	598.4
336.724	614.2
337.12	598
337.516	596.4
337.913	603.6
338.309	614.4
338.705	596
339.102	616.8
339.498	599
339.895	602.2
340.291	596.6
340.688	610.6
341.085	595.2
341.481	605.6
341.878	604
342.275	617
342.672	592.4
343.069	592.8
343.466	587.4
343.842	600.6
344.239	588.6
344.636	604
345.033	591.6
345.431	595
345.828	597.6
346.225	597.8
346.623	626
347.02	597.8
347.418	611.2
347.816	620.8
348.213	592.6
348.611	603
349.009	592
349.407	612.4
349.805	595.4
350.203	587.6
350.601	605.8
350.999	588.2
351.397	641.6
351.795	592
352.193	600
352.57	600.6
352.969	613.2
353.367	582.6
353.766	591.8
354.164	589.6
354.563	604.4
354.961	597
355.36	591.6
355.759	590
356.158	582
356.557	586.6
356.956	598
357.355	580.6
357.754	598
358.153	603.4
358.552	618.8
358.951	593.6
359.35	609.6
359.75	589.2
360.149	586.4
360.527	583
360.926	594.6
361.326	595.6
361.726	600.6
362.125	587.2
362.525	605.6
362.925	596.2
363.325	595.4
363.724	599.8
364.124	594.6
364.524	588.4
364.924	596.8
365.324	603.2
365.725	585.2
366.125	593
366.525	591
366.904	590.8
367.304	581.8
367.705	608.6
368.105	607.6
368.506	592.4
368.906	595.2
369.307	591.8
369.708	598.2
370.108	580.4
370.509	600.4
370.91	595.6
371.311	593.8
371.712	598.8
372.113	594.6
372.514	589.4
372.894	587.2
373.295	589
373.696	615.4
374.097	596.4
374.499	626.8
374.9	600
375.301	581.4
375.703	596
376.105	588.6
376.506	601.6
376.908	595.2
377.309	597.8
377.711	590.4
378.113	592.8
378.493	594.2
378.895	597.4
379.297	604.6
379.699	583.6
380.102	588.4
380.504	589.6
380.906	591
381.308	618
381.71	589.8
382.113	607.4
382.515	590.2
382.918	599.8
383.299	594.2
383.701	603.2
384.104	600.6
384.507	584.2
384.909	595.2
385.312	580.2
385.715	583.6
386.118	591.6
386.521	579.8
386.924	598.4
387.327	588.4
387.709	578.4
388.112	569.6
388.515	588.8
388.918	593.6
389.322	590.6
389.725	582.6
390.129	609.2
390.532	593
390.936	590.6
391.339	580.2
391.743	594
392.125	581
392.529	598.8
392.933	595.6
393.337	586.2
393.74	590.4
394.144	590
394.548	581
394.953	586
395.357	598
395.761	587.6
396.144	590
396.548	591.4
396.952	593.6
397.357	597.4
397.761	575.6
398.166	579
398.57	588.2
398.975	581
399.379	588.2
399.763	631.8
400.168	581
400.572	588
400.977	587.8
401.382	604.8
401.787	600.4
402.192	603.8
402.597	604.6
403.002	577
403.386	602.8
403.791	596.8
404.197	587.8
404.602	592.8
405.007	590.2
405.413	592.6
405.818	586.4
406.224	575
406.608	587
407.014	584.2
407.42	604.2
407.825	585.2
408.231	593
408.637	591.4
409.043	600.8
409.449	591.6
409.834	584.6
410.24	590.2
410.646	603.2
411.052	600.8
411.458	583
411.865	603.2
412.271	602.4
412.677	591.8
413.062	601.2
413.469	587
413.875	615.2
414.282	601.2
414.689	609.4
415.095	603
415.502	585.2
415.888	596.6
416.294	577.4
416.701	632
417.108	588.2
417.515	599.2
417.923	594.4
418.33	607.6
418.715	600.8
419.123	591.4
419.53	588.8
419.937	599.4
420.345	608.4
420.752	587.6
421.16	612.2
421.546	595.4
421.953	603.2
422.361	580.2
422.769	595.4
423.177	593.8
423.585	608
423.992	605.2
424.379	602.2
424.787	604.4
425.195	608.6
425.603	597.6
426.011	605.4
426.419	606
426.806	598.6
427.214	593.4
427.623	600.6
428.031	611.8
428.44	603.4
428.848	611.8
429.235	616.6
429.644	609.4
430.053	611.4
430.461	633.6
430.87	646
431.279	628.2
431.666	631.2
432.075	635.8
432.484	640.4
432.893	655
433.302	685
433.711	705.6
434.099	680.6
434.508	688.4
434.918	687.8
435.327	715.6
435.737	723.8
436.125	722.8
436.534	739.6
436.944	747.6
437.353	754.6
437.763	777.8
438.173	769
438.561	800
438.971	786.6
439.381	798
439.791	813.8
440.201	809.4
440.589	833.6
440.999	839.4
441.409	850
441.819	843.4
442.23	880.8
442.619	873.6
443.029	874.2
443.439	887
443.85	885.4
444.26	921
444.649	909.6
445.06	920.2
445.471	914.4
445.881	913.8
446.292	936
446.682	942.4
447.092	913.2
447.503	969.2
447.914	928.4
448.325	941.2
448.715	941.8
449.126	934.6
449.537	942
449.948	945
450.338	956.4
450.75	965.6
451.161	956.8
451.572	962.8
451.984	960
452.374	951.6
452.786	967.4
453.197	970
453.609	978
453.999	967.8
454.411	956.4
454.823	974.4
455.235	966.8
455.647	963.2
456.037	979
456.449	960.8
456.862	973.8
457.274	973.8
457.665	975.2
458.077	988.2
458.489	1009.2
458.902	977.6
459.293	986.4
459.705	979.2
460.118	968.2
460.53	981
460.921	980.2
461.334	991.8
461.747	988.8
462.16	992.6
462.551	993.8
462.964	978.4
463.377	977.2
463.79	983.6
464.182	990.6
464.595	979.6
465.008	990.4
465.421	990
465.813	974.6
466.226	981
466.64	974.2
467.053	1026.2
467.445	992.6
467.859	1000.8
468.272	989.4
468.686	987.8
469.078	986.6
469.492	965.2
469.906	982.2
470.298	996.2
470.712	977.2
471.126	1019.8
471.54	974.6
471.933	979.4
472.347	968
472.761	974
473.175	970
473.568	967.8
473.982	960.2
474.397	961.8
474.79	974
475.204	972
475.619	973.4
476.033	964.2
476.426	961.2
476.841	953.2
477.256	970.6
477.649	951.6
478.064	954
478.479	947.8
478.872	952.2
479.287	937.8
479.702	935.2
480.118	944.6
480.511	947.2
480.927	941
481.342	937.6
481.736	938.4
482.151	932.2
482.566	949.6
482.96	931.6
483.376	934.8
483.792	915.6
484.186	922.6
484.602	923.2
485.017	926
485.412	916.6
485.827	925.6
486.243	919.2
486.638	938.8
487.054	921.2
487.47	918.8
487.865	897.2
488.281	908.4
488.697	890.8
489.092	894.8
489.508	897.6
489.925	904
490.32	894.4
490.736	900
491.153	893.6
491.548	883.2
491.964	889
492.381	867.4
492.776	887.4
493.193	880.2
493.61	876.8
494.006	882.6
494.422	883.6
494.84	879.8
495.235	881.4
495.652	870
496.069	871.8
496.465	849.4
496.883	847.8
497.3	870.8
497.696	858.4
498.113	838.8
498.509	837.2
498.927	839.8
499.344	838.6
499.741	828.2
500.158	840
500.576	851.2
500.973	826.4
501.39	839
501.787	810.4
502.205	820.8
502.623	823.6
503.02	806.8
503.438	817.4
503.856	821.2
504.253	806
504.671	816
505.068	795.2
505.486	816
505.905	819.6
506.302	808.2
506.72	817.8
507.118	800.2
507.536	798.8
507.955	802.4
508.352	789.6
508.771	800.8
509.169	798.4
509.587	785.8
510.006	778
510.404	771.4
510.823	778.8
511.221	773.6
511.64	768.8
512.038	795.2
512.457	768.6
512.877	776.2
513.275	767.6
513.694	768.6
514.092	763.4
514.512	767.2
514.91	760
515.33	771.2
515.749	760.6
516.148	764
516.568	754.4
516.966	753.2
517.386	750.2
517.785	751.8
518.205	757.6
518.603	755
519.024	740.6
519.444	745
519.843	758.6
520.263	747
520.662	742.4
521.082	741.8
521.481	735.8
521.902	731.4
522.301	728.2
522.722	728
523.121	737.4
523.542	722.6
523.963	735
524.362	724.4
524.783	728.2
525.183	732
525.604	727.2
526.003	708.6
526.425	712
526.824	714.2
527.246	722.8
527.646	721.4
528.067	715.2
528.467	717.4
528.888	708.2
529.289	704.8
529.71	710.2
530.11	704
530.532	712.2
530.932	688
531.354	687.4
531.755	727.4
532.176	699.8
532.577	696
532.999	696.4
533.4	690.2
533.822	704.4
534.223	690.6
534.645	682.6
535.046	689.8
535.468	681.6
535.869	704.2
536.292	688.2
536.693	715.2
537.115	679
537.516	693.8
537.939	683.8
538.34	703
538.742	690.8
539.165	682.6
539.566	676
539.989	667.8
540.391	681.6
540.814	672.6
541.216	669.2
541.639	664.6
542.041	680.8
542.464	670.2
542.866	673.4
543.268	660.4
543.691	670
544.093	667.6
544.517	689.6
544.919	664
545.343	678.2
545.745	653.8
546.147	659.4
546.571	659
546.974	657.8
547.398	667
547.8	675
548.224	651
548.627	655.4
549.03	657.4
549.454	647
549.857	647
550.281	649
550.684	647
551.087	658.8
551.512	655.4
551.915	653.4
552.34	650.4
552.743	648.6
553.146	647.6
553.571	648.6
553.975	662.8
554.399	643.8
554.803	684.6
555.207	639
555.632	642.8
556.036	642
556.461	638.8
556.865	642.6
557.268	645.6
557.694	639
558.098	648.2
558.502	647.2
558.927	632
559.332	639.6
559.736	629.6
560.162	643.4
560.566	639.4
560.992	645.8
561.396	631.4
561.801	629.6
562.227	631.6
562.631	637.6
563.036	629
563.462	644
563.867	632.6
564.272	616.8
564.698	632.6
565.103	627.8
565.508	642.8
565.935	627.4
566.34	623.4
566.745	636.6
567.172	621.8
567.577	652.6
567.982	633.4
568.409	629.4
568.815	622
569.22	628.8
569.626	633.8
570.053	607.2
570.459	626.2
570.865	625
571.292	629.2
571.698	617.6
572.104	607.4
572.531	608.6
572.937	628.2
573.343	619
573.75	610
574.177	622.4
574.583	619
574.99	619.4
575.396	614.4
575.824	614
576.231	628.8
576.637	609.2
577.065	639.6
577.472	602.2
577.879	610.8
578.286	616.4
578.714	606.4
579.121	610
579.528	606.2
579.935	616.4
580.364	608.6
580.771	595
581.178	595.8
581.585	604.2
582.014	616.4
582.421	600.8
582.829	603.4
583.236	609.4
583.644	596.8
584.073	606
584.481	603.6
584.889	597
585.296	605.8
585.726	602.2
586.134	588.4
586.542	597.4
586.95	617
587.358	592.4
587.787	597.4
588.196	608.6
588.604	597.2
589.012	603.4
589.421	596
589.851	593.2
590.259	603
590.668	599.4
591.076	636.6
591.485	597.8
591.894	600.4
592.324	608
592.733	608
593.142	585.4
593.551	600
593.96	598.6
594.369	584.2
594.8	593
595.209	598.6
595.618	583.2
596.028	588.2
596.437	588.4
596.847	594
597.256	596.8
597.687	608.2
598.097	590.4
598.507	580.6
598.917	588.6
599.327	601.6
599.736	589.4
600.146	607.6
600.556	593.4
600.988	601.8
601.398	587.6
601.808	598.8
602.219	582
602.629	592
603.039	589
603.45	606.8
603.86	597
604.271	608
604.703	593.4
605.114	590.2
605.525	596
605.935	596.2
606.346	616.2
606.757	601
607.168	584.8
607.579	583.4
607.99	600
608.402	586
608.813	592.4
609.224	585
609.636	577
610.047	586.8
610.48	588.4
610.892	594.8
611.303	599
611.715	597.4
612.127	589.6
612.539	589.2
612.95	587.2
613.362	589.6
613.774	582.6
614.186	580.2
614.599	582
615.011	594.6
615.423	588.2
615.835	583
616.248	577.8
616.66	582.4
617.073	580.2
617.485	587.8
617.898	589.4
618.311	583.4
618.723	591.6
619.136	609
619.549	608.2
619.962	601.8
620.375	585
620.788	585.4
621.201	576.2
621.614	590.2
622.028	592.6
622.441	580
622.854	596.2
623.268	574.2
623.681	593
624.095	578.2
624.509	588
624.922	595.6
625.336	576.2
625.728	586.6
626.142	592.6
626.556	600.6
626.97	588
627.384	585
627.799	589.8
628.213	589
628.627	578.6
629.041	579
629.456	584.2
629.87	588.8
630.285	596.4
630.699	583.8
631.093	580.8
631.507	592.6
631.922	591
632.337	595.8
632.752	578
633.167	583.4
633.582	580.8
633.997	582.6
634.412	580.8
634.806	590.2
635.221	579
635.637	596.4
636.052	580.6
636.468	584.4
636.883	611
637.299	572.2
637.715	573
638.109	585.2
638.525	570.2
638.941	589.6
639.357	583.6
639.773	601.4
640.189	580.2
640.584	578.4
641	581
641.416	568.2
641.832	584.6
642.249	584
642.665	584
643.06	579.4
643.477	587.2
643.894	570.8
644.31	573.6
644.727	578.4
645.123	577.4
645.54	560.4
645.957	574
646.374	582.6
646.77	580
647.187	600.6
647.604	593.4
648.021	571.8
648.439	574.4
648.835	587.6
649.252	578.8
649.67	574.2
650.088	576.4
650.484	583.2
650.902	576.8
651.32	585
651.738	578.4
652.134	581.4
652.552	588
652.971	578.6
653.389	576.6
653.786	590.8
654.204	598.6
654.622	574.2
655.019	581.6
655.438	576.6
655.857	585.8
656.275	581
656.673	573.2
657.091	578.4
657.51	575.6
657.908	587.8
658.327	589
658.746	572.4
659.144	580
659.563	590.8
659.982	582.8
660.38	568.6
660.8	582.4
661.219	590.2
661.617	582.8
662.037	586
662.457	596.4
662.855	567.8
663.275	598.4
663.695	583.6
664.094	583.8
664.514	580.8
664.934	574.4
665.333	585
665.753	570.2
666.152	571.8
666.572	573
666.993	588.6
667.392	575.4
667.812	575.2
668.212	588
668.632	585.6
669.053	577.6
669.453	576.6
669.874	581
670.273	581.4
670.694	567.4
671.116	587.6
671.515	587.8
671.937	574
672.337	574.4
672.758	576.8
673.158	578.6
673.58	562
673.98	578
674.402	584
674.824	579
675.224	573.4
675.646	569
676.047	570.8
676.469	569.8
676.869	578.2
677.292	576.2
677.693	570.8
678.115	567.4
678.516	582.2
678.939	586.4
679.34	567.8
679.762	578.4
680.164	569
680.586	568.2
680.988	581
681.411	597.4
681.812	566.2
682.236	572.6
682.637	566.4
683.061	568.8
683.462	567.8
683.864	570
684.288	573.6
684.69	565.4
685.114	589.8
685.516	573.8
685.94	571
686.342	583.4
686.766	565.2
687.168	564.6
687.571	581.6
687.995	569
688.398	573.2
688.822	571.8
689.225	586.6
689.628	586.4
690.052	571.6
690.456	580.4
690.88	576.4
691.284	571
691.687	581.6
692.112	570.2
692.515	558.6
692.919	573.8
693.344	577.8
693.747	567
694.173	565.4
694.577	583.4
694.98	575.4
695.406	571.4
695.81	575.8
696.214	577.2
696.64	579.4
697.044	575.2
697.448	585.6
697.874	573.4
698.279	572.4
698.684	560.8
699.11	562.2
699.514	569.4
699.919	571.2
700.324	563.4
700.75	576.6
701.156	564.8
701.561	587.2
701.987	572.8
702.393	576.2
702.798	580.4
703.203	572.4
703.63	570.2
704.036	572.4
704.442	570.6
704.847	567.4
705.274	576.6
705.68	578.4
706.086	585
706.492	565.8
706.92	565.4
707.326	581
707.732	566.6
708.139	568.2
708.545	568
708.973	566.8
709.38	577.8
709.786	564.4
710.193	588.8
710.6	571.6
711.028	562.8
711.435	569.4
711.842	569.6
712.249	575
712.656	572.2
713.064	580.8
713.492	564
713.9	573.4
714.307	584
714.715	569.8
715.123	571
715.53	575.4
715.938	583
716.367	580.4
716.775	580.4
717.184	558.2
717.592	574.4
718	585.8
718.408	596.8
718.816	610
719.225	570
719.633	579.6
720.042	565.2
720.472	565.2
720.881	586.4
721.29	576.8
721.699	571.2
722.108	575.2
722.517	573.2
722.926	563.8
723.335	580.8
723.744	571.2
724.154	575.6
724.563	571.4
724.973	577
725.382	571.4
725.792	573.2
726.202	556.4
726.612	584.4
727.022	571.8
727.432	563
779.813	561.2
780.223	611
780.634	564.4
781.044	563.2
781.454	574
781.865	586.6
782.276	564
782.686	578.6
783.097	571.2
783.508	563.8
783.919	576.4
784.33	584.2
784.741	581
785.152	563.8
785.563	559
785.974	569
786.386	586.4
786.776	572.4
787.188	567
787.599	563.4
788.011	574.2
788.423	573.4
788.835	565.6
789.247	560.6
789.659	567.6
790.071	561.6
790.483	607.8
790.874	568.8
791.286	581.2
791.699	562
792.111	575.4
792.524	569.6
792.937	565
793.349	563.4
793.741	566.6
794.154	568
794.567	573
794.98	568.8
795.393	557.2
795.785	575.8
796.198	560.6
796.612	565
797.026	566.6
797.439	552.2
797.831	564.2
798.245	558.4
798.659	565
799.073	559
799.487	559
799.88	561.6
800.294	569.6
800.708	576.6
801.123	571
801.516	586.2
801.93	564.2
802.345	557
802.76	573.2
803.153	578.8
803.568	576.4
803.983	581.2
804.377	572
804.792	557.2
805.207	557
805.601	572.2
806.016	598.8
806.432	566.6
806.826	598.2
807.242	586.2
807.658	581.2
808.052	569.2
808.468	566
808.884	567.4
809.279	572
809.695	571
810.111	593.6
810.506	574.2
810.922	595
811.339	565.8
811.734	580
812.151	567.8
812.546	564.8
812.963	574
813.38	574.4
813.776	572.6
814.193	588.2
814.589	565.6
815.006	571.6
815.402	568.8
815.82	564.6
816.237	570
816.633	572.6
817.051	560.2
817.448	568.2
817.866	560.6
818.262	577.2
818.68	558.4
819.077	570.6
819.495	573.8
819.892	608.8
820.311	569.2
820.708	570
821.127	563.4
821.524	576.4
821.943	569.8
822.34	582
822.759	574
823.157	581.8
823.576	585.6
823.974	571.8
824.393	606.6
824.791	566.2
825.189	554.2
825.609	561.4
826.007	576.8
826.427	553.6
826.826	569
827.246	569
827.644	546.2
828.043	571.4
828.463	563.6
828.862	572.4
829.261	568
829.682	560.2
830.081	575.2
830.502	558.6
830.901	572.6
831.301	576.4
831.722	551.6
832.121	559.6
832.521	564.6
832.943	564.8
833.342	567.4
833.742	559
834.164	560.4
834.564	557.2
834.965	573.6
835.386	561.2
835.787	567.2
836.188	568.2
836.588	562.4
837.01	568.4
837.411	563
837.812	569
838.213	566
838.636	563.4
839.037	626.8
839.438	570.6
839.84	567.2
840.263	572.4
840.664	569.8
841.066	566.6
841.468	574.6
841.891	561.2
842.293	572.8
842.695	576.4
843.098	574.4
843.5	557.2
843.902	569.2
844.326	573.6
844.729	568.8
845.131	584.8
845.534	565
845.937	577.8
846.34	583.2
846.764	563
847.167	572.2
847.571	555.8
847.974	564.2
848.377	564.6
848.781	618
849.184	574
849.588	561.2
849.992	566.8
850.396	566.6
850.821	584
851.225	575.4
851.63	563.6
852.034	578
852.438	568
852.843	634.2
853.247	559.4
853.652	568.4
854.057	585
854.462	571.8
854.867	572.8
855.272	591.8
855.677	574.2
856.082	563.2
856.487	558.4
856.893	567.2
