#lambda/nm	C1
208.295	531.6
208.67	475.4
209.045	443.4
209.419	441.6
209.794	608.2
210.169	597.2
210.544	705
210.919	614.4
211.295	597.8
211.67	611.6
212.045	607.2
212.421	606
212.796	639
213.172	609.8
213.547	598
213.923	600.2
214.299	610.6
214.675	619.4
215.051	619
215.427	620.8
215.803	622.6
216.179	611
216.555	604.8
216.932	609
217.308	605.6
217.684	604.8
218.061	606.8
218.438	621.8
218.814	606
219.191	601.2
219.568	599.6
219.945	601.6
220.322	613.8
220.699	616.4
221.076	616.6
221.453	614
221.83	598
222.208	588.6
222.585	604.6
222.962	610.6
223.34	611
223.717	607.2
224.095	604
224.473	612.8
224.851	601.4
225.229	597.8
225.607	622.6
225.985	596.4
226.363	609.2
226.741	616
227.119	610.8
227.497	621
227.876	602.4
228.254	610.2
228.633	614.8
229.011	610.6
229.39	613.2
229.769	610.6
230.148	610.8
230.527	621.4
230.905	596.4
231.284	611.6
231.664	594.4
232.043	616.6
232.422	614.2
232.801	606.6
233.181	608.6
233.56	609.6
233.94	613.4
234.319	588
234.699	602.6
235.079	635.4
235.458	640.6
235.838	617.2
236.218	599.6
236.598	600.6
236.978	597.2
237.358	605.4
237.738	598.2
238.119	610.4
238.499	590.6
238.88	608.8
239.26	621
239.641	597.6
240.021	598
240.402	611.6
240.783	605.4
241.163	607.6
241.544	610
241.925	605
242.306	625.4
242.687	614
243.069	606.2
243.45	626.8
243.831	607.6
244.212	604.6
244.594	645.4
244.975	615.6
245.357	602.4
245.739	602.8
246.12	607
246.502	615.8
246.884	603.8
247.266	607.4
247.648	605.4
248.03	621.6
248.412	604.8
248.794	614.8
249.176	604.4
249.559	618.4
249.941	599.4
250.323	602.6
250.706	599.2
251.089	603.2
251.471	604.8
251.854	596.2
252.237	603
252.62	607.4
253.002	603.2
253.385	602.8
253.769	612.6
254.152	598.6
254.535	618.2
254.918	603.4
255.301	600.4
255.685	593
256.068	591.2
256.452	622.6
256.835	612.6
257.219	614.4
257.603	614.2
257.986	593.4
258.37	611.2
258.754	596.6
259.138	614.8
259.522	609.8
259.906	606.4
260.29	609.2
260.675	610.4
261.059	607.8
261.443	600.8
261.828	613.8
262.212	611.4
262.597	595
262.981	611.6
263.366	619
263.751	608
264.136	608.6
264.521	606.2
264.906	594
265.291	612.6
265.676	603.6
266.061	611.8
266.446	618
266.831	603.4
267.217	625
267.602	614
267.987	610.8
268.373	607.6
268.759	610.4
269.144	612.4
269.53	611.4
269.916	610.4
270.302	610
270.688	615
271.074	615.8
271.46	619.4
271.846	631.4
272.232	615.6
272.618	607.4
273.004	610.6
273.391	622.2
273.777	626.8
274.164	609.2
274.55	618.2
274.937	608.4
275.324	605.8
275.71	611.6
276.097	613
276.484	608.4
276.871	618.6
277.258	617.2
277.645	606
278.032	602.6
278.419	606.8
278.807	613.4
279.194	603.6
279.581	603.4
279.969	623
280.356	610
280.744	614.2
281.131	624.8
281.519	615
281.907	600.4
282.295	605.6
282.682	619
283.07	609
283.458	617.8
283.846	623.6
284.235	621
284.623	622.4
285.011	600.4
285.399	616.8
285.788	600.6
286.176	603
286.565	624.6
286.953	607.4
287.342	611
287.731	603
288.119	603.2
288.508	602.8
288.897	612.2
289.286	596.6
289.675	610
290.064	611.6
290.453	605.2
290.821	610
291.21	624.8
291.599	602.8
291.989	610.6
292.378	617.6
292.768	627.2
293.157	606.6
293.547	621.2
293.936	611.6
294.326	601.6
294.716	616.4
295.106	603.6
295.496	613.8
295.886	622.6
296.276	607
296.666	608.2
297.056	602.4
297.446	603.6
297.836	629
298.227	594.4
298.617	618.2
299.008	620.2
299.398	613
299.789	605.6
300.179	615.2
300.57	621.6
300.961	606.4
301.352	610
301.742	622
302.133	611.8
302.524	607.8
302.915	613.6
303.307	599.4
303.698	627.2
304.089	606.8
304.48	612.6
304.872	610.6
305.263	610.4
305.655	607.4
306.046	608.8
306.438	615
306.829	603.8
307.221	623.2
307.613	610.2
308.005	619.6
308.397	620.8
308.789	630
309.181	634.8
309.573	625.6
309.965	620.4
310.357	601.2
310.749	619.2
311.142	599.6
311.534	606
311.926	613.8
312.319	613
312.711	601.2
313.104	622
313.497	612
313.889	640.2
314.282	620.6
314.675	635.6
315.068	611.6
315.461	608
315.854	639.4
316.247	611.2
316.64	604.6
317.033	607.6
317.405	612.4
317.798	606.2
318.192	608
318.585	600.8
318.979	613.4
319.372	602
319.766	599.6
320.16	606
320.553	615.2
320.947	629.2
321.341	608
321.735	602
322.129	595.2
322.523	633.8
322.917	604.2
323.311	618.2
323.705	618.2
324.099	609.2
324.494	629
324.888	620
325.282	606.6
325.677	622.2
326.071	613
326.466	629.8
326.861	616.2
327.255	619.4
327.65	620.8
328.045	621.6
328.44	617
328.835	616.6
329.23	606.4
329.625	627.4
330.02	602.2
330.415	636.8
330.81	613.4
331.206	609.4
331.601	612.8
331.996	613.8
332.37	633.2
332.766	600.4
333.161	626
333.557	608.2
333.953	615.8
334.348	877.4
334.744	607.6
335.14	609.6
335.536	604.2
335.932	622.8
336.328	614.4
336.724	626.6
337.12	609.4
337.516	613.4
337.913	605.2
338.309	614.4
338.705	603.2
339.102	619
339.498	610.6
339.895	625.2
340.291	609.4
340.688	615
341.085	600.6
341.481	605.6
341.878	617.4
342.275	631.8
342.672	604.8
343.069	602.2
343.466	596
343.842	611.4
344.239	606.6
344.636	603.2
345.033	602
345.431	599.2
345.828	607.2
346.225	603.2
346.623	639.6
347.02	607
347.418	609.4
347.816	609.6
348.213	601.4
348.611	605.6
349.009	603.2
349.407	617.2
349.805	586.6
350.203	591.8
350.601	615.4
350.999	605.6
351.397	639.2
351.795	601.4
352.193	603.8
352.57	606.2
352.969	616.4
353.367	596
353.766	593
354.164	601.4
354.563	614
354.961	605.6
355.36	601.8
355.759	612
356.158	593
356.557	598.6
356.956	599.6
357.355	588.2
357.754	611
358.153	609.8
358.552	619.4
358.951	599.2
359.35	613.2
359.75	603
360.149	593.2
360.527	597.6
360.926	598.6
361.326	607.6
361.726	605
362.125	595
362.525	611.2
362.925	597.6
363.325	596.6
363.724	602.6
364.124	604.8
364.524	595.6
364.924	605
365.324	617.6
365.725	594.8
366.125	602.4
366.525	605.6
366.904	594
367.304	586.2
367.705	617.8
368.105	617.4
368.506	606.2
368.906	606
369.307	599.8
369.708	607.6
370.108	602.4
370.509	608
370.91	595
371.311	603.8
371.712	607.6
372.113	603
372.514	589.6
372.894	611.2
373.295	598.6
373.696	613.8
374.097	611.4
374.499	627.2
374.9	602
375.301	592.4
375.703	600
376.105	594.6
376.506	609.6
376.908	605
377.309	595.4
377.711	612.2
378.113	594.4
378.493	605
378.895	595.6
379.297	608.4
379.699	590
380.102	614
380.504	602.4
380.906	595.4
381.308	630.6
381.71	603
382.113	613.8
382.515	611.4
382.918	607.6
383.299	602.6
383.701	612
384.104	608.8
384.507	580
384.909	608.4
385.312	586.2
385.715	589.8
386.118	600
386.521	586
386.924	616
387.327	596.8
387.709	590.4
388.112	586
388.515	605
388.918	600.2
389.322	605.6
389.725	600.8
390.129	615.4
390.532	603.6
390.936	607.4
391.339	595.4
391.743	610.8
392.125	602
392.529	620
392.933	610.8
393.337	610.4
393.74	604
394.144	596.6
394.548	598.4
394.953	605
395.357	607.4
395.761	599.6
396.144	597.8
396.548	592.8
396.952	598.8
397.357	603
397.761	591.8
398.166	607.2
398.57	593.8
398.975	592
399.379	599.2
399.763	640.8
400.168	598.4
400.572	602.4
400.977	594.2
401.382	622.8
401.787	611.8
402.192	611
402.597	615.4
403.002	595.6
403.386	620.4
403.791	621.2
404.197	593
404.602	600.2
405.007	604.6
405.413	608
405.818	602
406.224	598.4
406.608	597.8
407.014	592.4
407.42	611.6
407.825	599
408.231	608.4
408.637	604.8
409.043	617.4
409.449	600.2
409.834	596.2
410.24	609.8
410.646	609.4
411.052	611
411.458	605.8
411.865	614.4
412.271	611.4
412.677	601.2
413.062	611.4
413.469	586.2
413.875	627.2
414.282	609
414.689	602.2
415.095	604.6
415.502	594.4
415.888	606.8
416.294	593.8
416.701	637.8
417.108	602.2
417.515	604
417.923	597.6
418.33	621.2
418.715	602.2
419.123	595.8
419.53	599.8
419.937	606.2
420.345	617.8
420.752	597
421.16	606.6
421.546	596.4
421.953	611
422.361	591
422.769	601.4
423.177	600.8
423.585	626.8
423.992	620.8
424.379	617.4
424.787	615
425.195	614.4
425.603	601
426.011	608.8
426.419	615
426.806	603.8
427.214	592.8
427.623	619.6
428.031	624.2
428.44	612
428.848	619.2
429.235	624.6
429.644	609
430.053	607.4
430.461	631.4
430.87	634
431.279	633.4
431.666	617.6
432.075	625.2
432.484	630.2
432.893	626.6
433.302	657.4
433.711	680.2
434.099	645.8
434.508	655.2
434.918	645.8
435.327	659.2
435.737	664.2
436.125	673.2
436.534	684
436.944	692.4
437.353	692.6
437.763	709.2
438.173	696.2
438.561	721.6
438.971	692.4
439.381	722.4
439.791	727.6
440.201	722.2
440.589	739.2
440.999	762
441.409	759.4
441.819	735.8
442.23	768
442.619	768
443.029	777.2
443.439	769.8
443.85	779
444.26	781.6
444.649	787
445.06	784.2
445.471	776.2
445.881	783.2
446.292	805.8
446.682	811.2
447.092	775.8
447.503	846
447.914	803.4
448.325	790.8
448.715	803.6
449.126	793.6
449.537	806.6
449.948	805.8
450.338	816
450.75	820.2
451.161	812.8
451.572	830
451.984	808.8
452.374	810
452.786	812.8
453.197	825.6
453.609	818.8
453.999	816
454.411	824.6
454.823	837.2
455.235	826.2
455.647	825.8
456.037	833
456.449	825
456.862	826
457.274	825.8
457.665	834.4
458.077	835.4
458.489	867.2
458.902	822.6
459.293	833
459.705	835.4
460.118	818.6
460.53	832.4
460.921	836.2
461.334	835.4
461.747	833.2
462.16	848.6
462.551	845.8
462.964	848.6
463.377	823.8
463.79	836.2
464.182	853
464.595	835.2
465.008	835.2
465.421	835.2
465.813	831.6
466.226	846
466.64	833
467.053	885
467.445	856.2
467.859	856.2
468.272	839
468.686	846.6
469.078	844.6
469.492	822
469.906	834.6
470.298	837.6
470.712	842.8
471.126	884.2
471.54	823.6
471.933	825
472.347	838.2
472.761	829.8
473.175	818.4
473.568	828.8
473.982	823.8
474.397	830
474.79	833
475.204	841
475.619	835.2
476.033	831.2
476.426	826.2
476.841	830.4
477.256	857.4
477.649	813.4
478.064	815.8
478.479	814.4
478.872	806.8
479.287	809
479.702	812
480.118	817
480.511	824.2
480.927	817
481.342	813
481.736	825
482.151	814.4
482.566	817.4
482.96	818.8
483.376	816
483.792	803.8
484.186	804.2
484.602	815.4
485.017	809.6
485.412	803.6
485.827	800
486.243	804.6
486.638	819.2
487.054	807.4
487.47	824.4
487.865	794
488.281	788.2
488.697	788.8
489.092	794.4
489.508	785.8
489.925	799.6
490.32	776
490.736	792.4
491.153	791
491.548	790.4
491.964	792
492.381	774.2
492.776	782.6
493.193	785.6
493.61	782.4
494.006	782.8
494.422	788.2
494.84	763.2
495.235	775.8
495.652	773.6
496.069	769.4
496.465	757.2
496.883	768.6
497.3	793.6
497.696	765.2
498.113	763.4
498.509	759.2
498.927	750.6
499.344	758
499.741	754.6
500.158	767.4
500.576	766.2
500.973	762.2
501.39	740.6
501.787	747.4
502.205	753
502.623	737
503.02	743.6
503.438	735
503.856	741.4
504.253	742.8
504.671	744.6
505.068	742.4
505.486	725.4
505.905	757
506.302	732.2
506.72	749.2
507.118	718.4
507.536	735.2
507.955	732.8
508.352	732.2
508.771	726
509.169	729.6
509.587	721.2
510.006	725.8
510.404	714.2
510.823	709
511.221	717.6
511.64	714.6
512.038	718.4
512.457	706.2
512.877	705.2
513.275	693.8
513.694	705
514.092	705
514.512	707.2
514.91	718.2
515.33	713.4
515.749	703.8
516.148	707.6
516.568	699.4
516.966	701.4
517.386	697.4
517.785	698.8
518.205	699.8
518.603	700.2
519.024	685.2
519.444	684.6
519.843	697.8
520.263	697.6
520.662	698.6
521.082	691.2
521.481	691.2
521.902	687.8
522.301	688.8
522.722	689.6
523.121	687.4
523.542	676.2
523.963	679.6
524.362	682.4
524.783	690
525.183	678.8
525.604	680.6
526.003	680.6
526.425	673.2
526.824	680.2
527.246	686.8
527.646	678.4
528.067	679.2
528.467	674.6
528.888	681.2
529.289	671.2
529.71	667.2
530.11	662.4
530.532	667.8
530.932	668.2
531.354	661
531.755	689.2
532.176	670.2
532.577	660
532.999	666
533.4	656.4
533.822	672.6
534.223	664.8
534.645	655.8
535.046	661.2
535.468	651.4
535.869	674
536.292	652.2
536.693	691
537.115	653
537.516	653.6
537.939	660.2
538.34	679.2
538.742	666
539.165	652.2
539.566	645.8
539.989	647
540.391	646.8
540.814	649.6
541.216	646.4
541.639	643
542.041	659
542.464	641.4
542.866	641.6
543.268	639
543.691	645.6
544.093	645.2
544.517	656
544.919	636.8
545.343	670.8
545.745	637.2
546.147	651.4
546.571	636
546.974	632.2
547.398	638
547.8	647.4
548.224	630.4
548.627	629
549.03	646.2
549.454	631.4
549.857	628.2
550.281	626.8
550.684	636.2
551.087	645.2
551.512	630.6
551.915	642
552.34	636.8
552.743	631.6
553.146	638.8
553.571	631.4
553.975	646
554.399	623
554.803	676.8
555.207	627.2
555.632	622.8
556.036	638.6
556.461	623
556.865	633.8
557.268	624.8
557.694	619.4
558.098	633.2
558.502	626.2
558.927	622.6
559.332	627.2
559.736	625.8
560.162	636.4
560.566	631.6
560.992	624.6
561.396	637.8
561.801	620.4
562.227	628
562.631	631.6
563.036	629.8
563.462	625.4
563.867	624
564.272	616.4
564.698	637.2
565.103	615.2
565.508	639.8
565.935	617
566.34	620.6
566.745	627.4
567.172	617.2
567.577	638
567.982	627.2
568.409	623.6
568.815	611
569.22	620.2
569.626	629.2
570.053	603.6
570.459	620.8
570.865	618.4
571.292	628.2
571.698	616.4
572.104	600.2
572.531	609
572.937	620
573.343	611
573.75	612.6
574.177	609.4
574.583	617.4
574.99	604.8
575.396	616.4
575.824	615
576.231	615.8
576.637	612.2
577.065	634.6
577.472	612.8
577.879	607.8
578.286	619
578.714	601.2
579.121	612.2
579.528	608.4
579.935	617.4
580.364	607.6
580.771	583.6
581.178	603
581.585	612.4
582.014	609.2
582.421	609.8
582.829	606.8
583.236	608.4
583.644	602.2
584.073	608
584.481	602.2
584.889	605
585.296	615.4
585.726	607.8
586.134	593.8
586.542	602.4
586.95	617
587.358	596.4
587.787	611.6
588.196	617.4
588.604	592.6
589.012	602.6
589.421	593.4
589.851	597.2
590.259	596.2
590.668	601
591.076	636.2
591.485	596.4
591.894	602.8
592.324	620.6
592.733	614
593.142	586.6
593.551	606.8
593.96	628.4
594.369	588
594.8	588.4
595.209	594.4
595.618	589.8
596.028	592.6
596.437	592
596.847	589.2
597.256	597.8
597.687	594.8
598.097	601
598.507	588
598.917	598.2
599.327	599
599.736	608.8
600.146	605.4
600.556	605.2
600.988	604.6
601.398	590.8
601.808	596.6
602.219	583
602.629	598
603.039	598
603.45	624.2
603.86	587.6
604.271	605.2
604.703	603
605.114	595.2
605.525	586
605.935	606.2
606.346	617.4
606.757	597.6
607.168	596.4
607.579	584.8
607.99	604.2
608.402	596.2
608.813	588.4
609.224	587.4
609.636	586.4
610.047	593.8
610.48	594.8
610.892	601.6
611.303	600.8
611.715	587
612.127	583.2
612.539	594.8
612.95	600.4
613.362	584.8
613.774	585.4
614.186	588.8
614.599	588.6
615.011	605.2
615.423	590
615.835	588.6
616.248	577.6
616.66	603
617.073	586
617.485	587.6
617.898	601.8
618.311	589.8
618.723	595.6
619.136	617.8
619.549	605
619.962	611
620.375	587.8
620.788	596
621.201	590
621.614	594.2
622.028	584.8
622.441	593.4
622.854	607.2
623.268	585.6
623.681	591.4
624.095	592.2
624.509	595.4
624.922	593.4
625.336	577.4
625.728	595.2
626.142	600.6
626.556	605
626.97	595
627.384	590.6
627.799	592
628.213	597.4
628.627	590.2
629.041	590.4
629.456	587.8
629.87	594.4
630.285	604.2
630.699	601.8
631.093	590.4
631.507	601.2
631.922	592
632.337	602
632.752	581.6
633.167	585.4
633.582	585
633.997	582.2
634.412	583.8
634.806	593.2
635.221	577.8
635.637	595.6
636.052	585.4
636.468	588
636.883	603.6
637.299	593.2
637.715	574.2
638.109	582.8
638.525	572.8
638.941	600.6
639.357	592.6
639.773	602
640.189	581.8
640.584	581.8
641	589.4
641.416	571.6
641.832	581.2
642.249	570.2
642.665	584.4
643.06	580
643.477	595
643.894	572.2
644.31	582
644.727	588.2
645.123	579.6
645.54	581.4
645.957	586.8
646.374	601.6
646.77	579.4
647.187	611.2
647.604	585.6
648.021	576.6
648.439	578.4
648.835	591.4
649.252	581.4
649.67	594
650.088	585.4
650.484	589.2
650.902	590.6
651.32	599.4
651.738	583.2
652.134	585.8
652.552	599.2
652.971	590.2
653.389	595.4
653.786	596.8
654.204	607.6
654.622	581.6
655.019	591.2
655.438	595.6
655.857	593.8
656.275	586.6
656.673	575.2
657.091	591.2
657.51	581.4
657.908	599.6
658.327	598
658.746	580.2
659.144	588.6
659.563	593
659.982	590.4
660.38	584.6
660.8	590.4
661.219	589
661.617	585.6
662.037	592.2
662.457	595.8
662.855	576.2
663.275	611.6
663.695	582.6
664.094	587.2
664.514	586.6
664.934	577.8
665.333	596.8
665.753	586.2
666.152	580.4
666.572	584
666.993	594
667.392	584.4
667.812	581.8
668.212	587.4
668.632	602
669.053	581
669.453	587
669.874	590.4
670.273	590.4
670.694	578.8
671.116	596.2
671.515	597.8
671.937	587.2
672.337	585
672.758	580
673.158	591.4
673.58	580.8
673.98	583.4
674.402	591.8
674.824	581.6
675.224	583
675.646	578
676.047	581.2
676.469	587.4
676.869	593.6
677.292	592.6
677.693	578.8
678.115	577.2
678.516	591
678.939	584.2
679.34	583.4
679.762	588.4
680.164	593.6
680.586	582
680.988	586.6
681.411	606.2
681.812	583.2
682.236	573.4
682.637	578
683.061	576.4
683.462	591.4
683.864	584.8
684.288	586
684.69	580.4
685.114	590
685.516	596.6
685.94	575.8
686.342	592.4
686.766	577.4
687.168	575.4
687.571	595.2
687.995	582.8
688.398	567.2
688.822	582.4
689.225	600.8
689.628	595
690.052	587.2
690.456	591.8
690.88	577.4
691.284	576.6
691.687	584.2
692.112	567.8
692.515	575
692.919	589.4
693.344	578.2
693.747	576
694.173	577.8
694.577	595.4
694.98	581.6
695.406	576.8
695.81	588
696.214	585.4
696.64	583.6
697.044	589.2
697.448	596.2
697.874	579.4
698.279	579.8
698.684	571.4
699.11	585.8
699.514	576
699.919	574
700.324	569.6
700.75	590.2
701.156	578.2
701.561	593.2
701.987	582.2
702.393	591.4
702.798	594
703.203	575.8
703.63	579.6
704.036	568.6
704.442	583.8
704.847	570.6
705.274	577.6
705.68	584.6
706.086	590
706.492	576.2
706.92	569.2
707.326	590.8
707.732	584.2
708.139	580
708.545	579.2
708.973	584.2
709.38	574.6
709.786	575.2
710.193	605.8
710.6	587.8
711.028	577.8
711.435	579.2
711.842	583.8
712.249	582.2
712.656	570.8
713.064	590.8
713.492	577.6
713.9	577.4
714.307	583.4
714.715	585.6
715.123	581.8
715.53	580.8
715.938	588.8
716.367	585.4
716.775	576.2
717.184	570.8
717.592	581.8
718	585.4
718.408	604
718.816	626.8
719.225	574
719.633	585.8
720.042	574.4
720.472	582.4
720.881	599.4
721.29	577.2
721.699	572.2
722.108	580
722.517	582.8
722.926	579.8
723.335	590.4
723.744	577
724.154	581.4
724.563	580.8
724.973	581.2
725.382	582.4
725.792	587.8
726.202	568.6
726.612	593.2
727.022	582.6
727.432	580.6
779.813	574.6
780.223	626.6
780.634	583.4
781.044	582.4
781.454	579
781.865	588.4
782.276	571.2
782.686	586.4
783.097	582.2
783.508	578.2
783.919	579.6
784.33	587
784.741	589
785.152	572.4
785.563	561.6
785.974	576.8
786.386	594.6
786.776	576.4
787.188	576.6
787.599	574.2
788.011	582.4
788.423	582.6
788.835	573
789.247	557.6
789.659	568.4
790.071	574.4
790.483	615.8
790.874	568.8
791.286	582
791.699	565.6
792.111	580.8
792.524	580.2
792.937	576
793.349	573.6
793.741	573
794.154	569.2
794.567	589.2
794.98	573.4
795.393	561
795.785	589.8
796.198	572.2
796.612	576.2
797.026	567.4
797.439	565.8
797.831	575
798.245	570.8
798.659	576.8
799.073	567
799.487	571
799.88	577.2
800.294	578.4
800.708	586.2
801.123	583.2
801.516	592
801.93	572.6
802.345	564.4
802.76	578.6
803.153	593.4
803.568	595.6
803.983	590.6
804.377	581.8
804.792	573
805.207	563.4
805.601	588.2
806.016	610.2
806.432	572.8
806.826	617.2
807.242	583.6
807.658	593.8
808.052	569.8
808.468	579.8
808.884	579.2
809.279	574.8
809.695	586.6
810.111	597.2
810.506	578
810.922	599.6
811.339	573.8
811.734	580.8
812.151	574.2
812.546	576.8
812.963	578.4
813.38	581.4
813.776	583.4
814.193	601.2
814.589	580.4
815.006	580.2
815.402	578.4
815.82	580.6
816.237	578
816.633	579.2
817.051	573.6
817.448	582.8
817.866	573.2
818.262	590.6
818.68	573.6
819.077	576.8
819.495	572.8
819.892	606.8
820.311	563.8
820.708	578.2
821.127	572
821.524	588.8
821.943	580.6
822.34	592
822.759	575.4
823.157	586.6
823.576	586.2
823.974	591.2
824.393	615
824.791	575.8
825.189	573.2
825.609	572
826.007	575.2
826.427	570.2
826.826	580
827.246	581.2
827.644	561.4
828.043	584.8
828.463	573.2
828.862	587.4
829.261	584.4
829.682	578.4
830.081	584.4
830.502	574.4
830.901	584.4
831.301	599.2
831.722	573.2
832.121	575
832.521	574
832.943	579
833.342	574.2
833.742	575.2
834.164	574
834.564	571.8
834.965	585.6
835.386	572.4
835.787	578.2
836.188	576.4
836.588	574.4
837.01	575.4
837.411	572
837.812	577.6
838.213	582.8
838.636	576.4
839.037	640.6
839.438	572.2
839.84	573.4
840.263	573.4
840.664	578.4
841.066	577.6
841.468	582.6
841.891	570.6
842.293	586.8
842.695	582.2
843.098	589.4
843.5	575.8
843.902	578.6
844.326	578.8
844.729	578
845.131	587
845.534	577.8
845.937	581.2
846.34	590.4
846.764	576
847.167	580.4
847.571	566
847.974	576.6
848.377	569.8
848.781	617.6
849.184	586.8
849.588	579.6
849.992	574.4
850.396	573.8
850.821	596.6
851.225	579.6
851.63	573.2
852.034	596.4
852.438	575.2
852.843	639.8
853.247	574.4
853.652	567.6
854.057	590.8
854.462	582
854.867	581.4
855.272	604.6
855.677	583.4
856.082	568.6
856.487	565
856.893	582.4
