#lambda/nm	C1
208.295	573.8
208.67	511.6
209.045	471.2
209.419	473.8
209.794	588
210.169	571.8
210.544	663
210.919	586.8
211.295	573.4
211.67	575
212.045	577.4
212.421	571.8
212.796	600.8
213.172	576.8
213.547	571
213.923	575.2
214.299	573.6
214.675	572.6
215.051	582.2
215.427	587.8
215.803	594
216.179	588.8
216.555	576.2
216.932	581.6
217.308	575.2
217.684	584.6
218.061	585.2
218.438	579.6
218.814	578.4
219.191	586
219.568	580.2
219.945	573.2
220.322	579.4
220.699	589.2
221.076	582.2
221.453	580.2
221.83	577.8
222.208	572.8
222.585	576.6
222.962	581.4
223.34	582.6
223.717	575.6
224.095	571.8
224.473	577.2
224.851	570.8
225.229	569.8
225.607	587.4
225.985	569.2
226.363	572.6
226.741	575.6
227.119	573
227.497	594.4
227.876	564
228.254	581.6
228.633	580
229.011	579.8
229.39	583.8
229.769	578.8
230.148	584
230.527	589.8
230.905	582
231.284	580
231.664	571
232.043	591.8
232.422	588
232.801	577.2
233.181	581.4
233.56	570.2
233.94	580
234.319	564.4
234.699	572.8
235.079	612
235.458	604
235.838	584
236.218	572.8
236.598	573.2
236.978	573
237.358	576.2
237.738	568.2
238.119	581
238.499	571.4
238.88	572.2
239.26	585.4
239.641	571.4
240.021	574.2
240.402	574.8
240.783	581.6
241.163	578
241.544	580.6
241.925	575.6
242.306	583.6
242.687	578.8
243.069	579.4
243.45	582.2
243.831	563.6
244.212	569.2
244.594	604
244.975	584.4
245.357	572.8
245.739	569.6
246.12	575.6
246.502	581.4
246.884	577.4
247.266	570.2
247.648	580.4
248.03	589.8
248.412	572
248.794	579.4
249.176	575.6
249.559	579.8
249.941	570.8
250.323	570.6
250.706	567.8
251.089	575
251.471	575.6
251.854	574.2
252.237	570.4
252.62	580.8
253.002	570
253.385	569.6
253.769	583.8
254.152	577.6
254.535	582.4
254.918	573.4
255.301	573.6
255.685	574
256.068	567.2
256.452	593
256.835	581
257.219	583.2
257.603	594
257.986	572.8
258.37	582.4
258.754	572.8
259.138	584.6
259.522	582.2
259.906	574.4
260.29	570
260.675	569.6
261.059	577.8
261.443	568
261.828	574.4
262.212	575
262.597	564
262.981	576.4
263.366	577.8
263.751	575.8
264.136	563.2
264.521	573
264.906	572.2
265.291	587.6
265.676	567.4
266.061	581.8
266.446	590.8
266.831	573.8
267.217	597.2
267.602	581.6
267.987	575.4
268.373	577
268.759	589.4
269.144	586.4
269.53	570.8
269.916	571.6
270.302	565.2
270.688	579.4
271.074	574.4
271.46	592.6
271.846	598.8
272.232	580.6
272.618	572.4
273.004	575.6
273.391	584.2
273.777	585.2
274.164	578.6
274.55	590.6
274.937	572.6
275.324	571.6
275.71	586.6
276.097	574.6
276.484	572
276.871	576.8
277.258	576.8
277.645	569.6
278.032	578.8
278.419	577.6
278.807	579.6
279.194	565.6
279.581	574.2
279.969	584.4
280.356	578.2
280.744	580.6
281.131	594.4
281.519	582
281.907	572.6
282.295	567.2
282.682	581.8
283.07	577.4
283.458	577.8
283.846	587.6
284.235	580.2
284.623	587.6
285.011	568.2
285.399	582.4
285.788	581.8
286.176	574
286.565	586.6
286.953	577.8
287.342	575
287.731	577.2
288.119	576
288.508	576.6
288.897	570
289.286	568.2
289.675	576
290.064	579.6
290.453	575.6
290.821	571
291.21	590
291.599	574.4
291.989	570
292.378	580.2
292.768	593
293.157	583.2
293.547	576.8
293.936	577.2
294.326	572.2
294.716	582.6
295.106	578
295.496	582.6
295.886	587.6
296.276	576.2
296.666	566.2
297.056	573.6
297.446	565.6
297.836	580.2
298.227	579
298.617	577.4
299.008	591.4
299.398	575
299.789	569.8
300.179	574.8
300.57	587.6
300.961	574.2
301.352	575.4
301.742	577.6
302.133	577.2
302.524	572.2
302.915	568
303.307	573.8
303.698	585.4
304.089	580.6
304.48	574.6
304.872	573.2
305.263	567.8
305.655	570.6
306.046	580.6
306.438	579
306.829	572.4
307.221	586.2
307.613	574.6
308.005	575.6
308.397	587.2
308.789	596.6
309.181	597.6
309.573	584.4
309.965	578.8
310.357	574.2
310.749	581.8
311.142	574
311.534	571.8
311.926	579.6
312.319	573.8
312.711	567
313.104	589.8
313.497	569.6
313.889	604
314.282	583.4
314.675	600.4
315.068	585
315.461	583
315.854	593.2
316.247	579.8
316.64	575
317.033	578
317.405	586.8
317.798	570.4
318.192	579.2
318.585	572.8
318.979	576.6
319.372	574.6
319.766	568.6
320.16	579.4
320.553	587.4
320.947	588.8
321.341	569
321.735	581.2
322.129	571.2
322.523	590
322.917	566
323.311	579
323.705	574
324.099	577
324.494	588.4
324.888	576.8
325.282	575.2
325.677	578
326.071	581
326.466	572
326.861	582.8
327.255	583.8
327.65	587
328.045	590.6
328.44	582.4
328.835	579.2
329.23	567.6
329.625	590.2
330.02	575.2
330.415	590.6
330.81	577.6
331.206	575.4
331.601	570.6
331.996	586.8
332.37	591.8
332.766	570.6
333.161	598.6
333.557	573.6
333.953	579.6
334.348	780.4
334.744	573.2
335.14	571
335.536	564
335.932	585.6
336.328	574.6
336.724	582.6
337.12	574.2
337.516	586
337.913	577.2
338.309	584.8
338.705	581.6
339.102	584.6
339.498	570.8
339.895	585.8
340.291	571.2
340.688	589.4
341.085	565.4
341.481	571.2
341.878	567
342.275	591
342.672	568.4
343.069	570.6
343.466	569
343.842	578.8
344.239	568.6
344.636	584.4
345.033	574.4
345.431	571
345.828	582.4
346.225	564.6
346.623	600.6
347.02	576.8
347.418	572
347.816	587
348.213	569.6
348.611	577
349.009	571.6
349.407	586.4
349.805	573.8
350.203	564.6
350.601	578.2
350.999	569.2
351.397	616.2
351.795	578
352.193	577
352.57	576
352.969	582
353.367	565
353.766	565.4
354.164	570
354.563	578.2
354.961	575.8
355.36	570
355.759	567.4
356.158	573.6
356.557	567.8
356.956	567
357.355	562
357.754	573
358.153	581.6
358.552	589.4
358.951	571.8
359.35	584.6
359.75	567.2
360.149	561.4
360.527	551.2
360.926	570.4
361.326	571
361.726	573.4
362.125	560.2
362.525	571.6
362.925	569.4
363.325	572
363.724	572.2
364.124	563.6
364.524	564.8
364.924	565.6
365.324	575.8
365.725	556.2
366.125	575.4
366.525	577.8
366.904	569.4
367.304	557.2
367.705	579.2
368.105	576
368.506	574
368.906	573.6
369.307	570.2
369.708	566.6
370.108	566.8
370.509	578.4
370.91	569.2
371.311	567.6
371.712	569.8
372.113	574.6
372.514	564
372.894	563.8
373.295	571
373.696	573.2
374.097	575.2
374.499	593.2
374.9	568.4
375.301	561.4
375.703	569
376.105	565.6
376.506	574.4
376.908	573.8
377.309	572.2
377.711	572.4
378.113	570.8
378.493	571
378.895	556
379.297	571
379.699	562.4
380.102	574.4
380.504	561.8
380.906	569.4
381.308	586.8
381.71	570.8
382.113	574.6
382.515	563.6
382.918	576.2
383.299	568.6
383.701	577.4
384.104	569.8
384.507	556
384.909	569.2
385.312	563.6
385.715	567
386.118	567.4
386.521	561
386.924	574.4
387.327	571.2
387.709	555.2
388.112	559
388.515	571
388.918	566.2
389.322	573.4
389.725	567
390.129	580.6
390.532	570.6
390.936	565
391.339	563.4
391.743	564.4
392.125	566.8
392.529	576.4
392.933	578.2
393.337	578
393.74	568.4
394.144	572.8
394.548	560.4
394.953	573.8
395.357	572.2
395.761	573
396.144	573.4
396.548	565.2
396.952	563.4
397.357	574.8
397.761	564
398.166	567
398.57	569
398.975	558.4
399.379	562.2
399.763	607
400.168	566.4
400.572	567.4
400.977	565
401.382	578.6
401.787	570
402.192	574.8
402.597	575
403.002	558.6
403.386	567.4
403.791	579.6
404.197	560.2
404.602	564.4
405.007	563.6
405.413	565.2
405.818	567.8
406.224	569.2
406.608	568.6
407.014	557.6
407.42	580
407.825	558.2
408.231	574.8
408.637	573.6
409.043	573.6
409.449	568
409.834	566.8
410.24	570.8
410.646	577.2
411.052	576.2
411.458	572
411.865	570.6
412.271	570.4
412.677	572.2
413.062	575.2
413.469	561.6
413.875	586.2
414.282	569.2
414.689	574
415.095	566.2
415.502	568.6
415.888	577.8
416.294	557
416.701	599
417.108	563.4
417.515	572.6
417.923	570.6
418.33	588
418.715	576.6
419.123	576.4
419.53	563.6
419.937	581
420.345	582.4
420.752	563
421.16	577.2
421.546	569.4
421.953	578.6
422.361	562
422.769	564.2
423.177	558.2
423.585	583.8
423.992	588.4
424.379	573
424.787	570.2
425.195	588.8
425.603	568.6
426.011	574.8
426.419	580.4
426.806	570
427.214	570.4
427.623	581.4
428.031	577.2
428.44	574.6
428.848	571
429.235	584.6
429.644	574.4
430.053	580.6
430.461	595.8
430.87	595.4
431.279	589
431.666	576.8
432.075	593.2
432.484	598.4
432.893	605.4
433.302	617.6
433.711	639.6
434.099	615
434.508	618.6
434.918	622.8
435.327	637.6
435.737	634.4
436.125	643.4
436.534	652.4
436.944	654.6
437.353	661.4
437.763	678.4
438.173	659
438.561	677.8
438.971	665.4
439.381	689.2
439.791	698.6
440.201	685
440.589	702.6
440.999	715.4
441.409	721.6
441.819	703.8
442.23	725.8
442.619	738.6
443.029	720.6
443.439	728.8
443.85	748
444.26	753.4
444.649	746
445.06	750.8
445.471	744
445.881	753.6
446.292	765
446.682	773.2
447.092	749
447.503	797
447.914	777.2
448.325	769
448.715	773.2
449.126	766.4
449.537	775.4
449.948	776.2
450.338	769.2
450.75	783.2
451.161	791.6
451.572	787.2
451.984	788.6
452.374	782
452.786	782.6
453.197	791.8
453.609	787
453.999	779.4
454.411	774
454.823	786.2
455.235	782.6
455.647	789.2
456.037	785.8
456.449	778.4
456.862	786
457.274	789
457.665	789.4
458.077	791.4
458.489	812.4
458.902	787.4
459.293	799.2
459.705	792.2
460.118	780.6
460.53	797.4
460.921	799.8
461.334	795
461.747	793.2
462.16	804
462.551	802.8
462.964	800
463.377	792.2
463.79	791.4
464.182	797.8
464.595	795
465.008	791
465.421	792.2
465.813	780.6
466.226	797.2
466.64	788.4
467.053	828.4
467.445	792.8
467.859	815
468.272	785.4
468.686	804
469.078	795.2
469.492	785.2
469.906	785
470.298	797.4
470.712	783.8
471.126	818.4
471.54	773.6
471.933	783.2
472.347	791.2
472.761	791.6
473.175	788.4
473.568	782.6
473.982	778.6
474.397	789.6
474.79	784
475.204	794.8
475.619	783.6
476.033	784.8
476.426	779.4
476.841	771
477.256	790.4
477.649	777
478.064	764.2
478.479	764.4
478.872	767.6
479.287	757.4
479.702	765.6
480.118	770.4
480.511	770.6
480.927	766.2
481.342	765.6
481.736	771
482.151	759
482.566	778.4
482.96	763.2
483.376	776.4
483.792	759
484.186	764.8
484.602	768.4
485.017	760
485.412	754
485.827	760.2
486.243	760.4
486.638	773
487.054	758.4
487.47	767
487.865	757
488.281	749.6
488.697	748.4
489.092	751.6
489.508	749.4
489.925	755.6
490.32	736.4
490.736	751.6
491.153	730.2
491.548	745.2
491.964	749.8
492.381	730.4
492.776	741.2
493.193	732.4
493.61	738.8
494.006	738.2
494.422	732.6
494.84	732.2
495.235	729.8
495.652	733.8
496.069	727.6
496.465	715.2
496.883	714.6
497.3	743.8
497.696	710.2
498.113	721.2
498.509	711.4
498.927	716.2
499.344	707.8
499.741	714
500.158	716.4
500.576	720.2
500.973	708.8
501.39	707.6
501.787	705.2
502.205	705.8
502.623	706
503.02	698
503.438	695.4
503.856	703.4
504.253	702.8
504.671	704.2
505.068	687.2
505.486	693.8
505.905	702.6
506.302	694.4
506.72	699.4
507.118	682.4
507.536	695.6
507.955	687.2
508.352	692.6
508.771	696
509.169	694.6
509.587	676.8
510.006	684.2
510.404	673.4
510.823	684.2
511.221	681
511.64	675.6
512.038	693
512.457	675
512.877	686.4
513.275	672.6
513.694	673
514.092	678
514.512	675.6
514.91	675.6
515.33	660.8
515.749	677.4
516.148	668.2
516.568	669.8
516.966	664.2
517.386	656.6
517.785	663.8
518.205	661.2
518.603	653.2
519.024	654
519.444	656.4
519.843	656.4
520.263	664.8
520.662	652.2
521.082	658.2
521.481	655.8
521.902	649.2
522.301	656.4
522.722	649
523.121	647.6
523.542	647.8
523.963	644.8
524.362	643.4
524.783	662
525.183	643.6
525.604	650.6
526.003	646.8
526.425	642.4
526.824	648.8
527.246	654.2
527.646	653
528.067	642.2
528.467	644.6
528.888	634.6
529.289	640.8
529.71	636.8
530.11	642.2
530.532	618.2
530.932	626.6
531.354	624.8
531.755	655
532.176	646.4
532.577	626.2
532.999	631.4
533.4	627.4
533.822	642.2
534.223	632.4
534.645	630.4
535.046	623.2
535.468	618
535.869	636
536.292	610.2
536.693	649
537.115	625.4
537.516	620
537.939	616.4
538.34	630.6
538.742	628.4
539.165	617.2
539.566	622.6
539.989	614.2
540.391	620.6
540.814	623.8
541.216	615.2
541.639	613.2
542.041	625.6
542.464	611.8
542.866	608.8
543.268	614.8
543.691	614
544.093	621.8
544.517	632.2
544.919	610.4
545.343	624.6
545.745	609.2
546.147	618.8
546.571	611.2
546.974	606
547.398	606.2
547.8	620
548.224	609.4
548.627	611.2
549.03	613
549.454	602.4
549.857	602.4
550.281	598.8
550.684	591.2
551.087	614.4
551.512	600.4
551.915	609.6
552.34	600
552.743	601
553.146	600
553.571	596.4
553.975	609.6
554.399	590.2
554.803	637
555.207	592.6
555.632	594.4
556.036	601.4
556.461	591.4
556.865	603.4
557.268	591.6
557.694	593.6
558.098	597.8
558.502	597.4
558.927	594.2
559.332	587.6
559.736	592.4
560.162	597.8
560.566	591.8
560.992	596.8
561.396	591
561.801	596.8
562.227	597.8
562.631	600
563.036	592
563.462	602.2
563.867	590.8
564.272	590.4
564.698	597.6
565.103	584.8
565.508	609
565.935	585.8
566.34	588.8
566.745	596.4
567.172	593.2
567.577	604.2
567.982	597
568.409	585.4
568.815	580
569.22	589.6
569.626	584.8
570.053	574.4
570.459	585.4
570.865	595.4
571.292	586
571.698	584
572.104	571.8
572.531	581.2
572.937	588
573.343	580.6
573.75	583
574.177	579.2
574.583	589
574.99	576
575.396	589.8
575.824	572
576.231	585.2
576.637	578
577.065	601.2
577.472	577
577.879	575
578.286	587.8
578.714	571
579.121	580.2
579.528	583
579.935	579.8
580.364	580
580.771	565.4
581.178	567.8
581.585	577.8
582.014	580.8
582.421	574.8
582.829	574.4
583.236	586.4
583.644	568.6
584.073	571
584.481	580.4
584.889	574.4
585.296	586.6
585.726	575.8
586.134	564.6
586.542	579.8
586.95	588.8
587.358	568.2
587.787	573.4
588.196	584.2
588.604	580.6
589.012	573.4
589.421	570.6
589.851	568.2
590.259	569.6
590.668	575.2
591.076	600.8
591.485	573.6
591.894	572.2
592.324	582.2
592.733	580.6
593.142	562.6
593.551	568
593.96	607
594.369	569
594.8	570.2
595.209	571
595.618	561
596.028	574
596.437	566
596.847	573.2
597.256	575.4
597.687	582.4
598.097	576.2
598.507	567.6
598.917	583
599.327	583
599.736	574.6
600.146	575.6
600.556	579.6
600.988	579.6
601.398	571.8
601.808	581.2
602.219	566.8
602.629	575.2
603.039	583.8
603.45	592.8
603.86	571.2
604.271	586.8
604.703	583.4
605.114	569.8
605.525	578.8
605.935	583
606.346	586.6
606.757	583.6
607.168	575.4
607.579	571.6
607.99	583
608.402	579.6
608.813	577.4
609.224	570.2
609.636	575.4
610.047	577
610.48	574.6
610.892	587.4
611.303	587.6
611.715	573.6
612.127	573.4
612.539	573
612.95	572.6
613.362	567
613.774	565.4
614.186	573.4
614.599	577
615.011	580.2
615.423	578.2
615.835	572.2
616.248	570.6
616.66	582.4
617.073	568.2
617.485	571.6
617.898	579.6
618.311	572.8
618.723	578
619.136	595.8
619.549	582.8
619.962	592.2
620.375	575
620.788	583.6
621.201	561.6
621.614	579.2
622.028	572.6
622.441	568.6
622.854	576.2
623.268	564.2
623.681	579.4
624.095	577
624.509	578.8
624.922	577
625.336	571.2
625.728	574.2
626.142	581
626.556	587.8
626.97	578.4
627.384	565.4
627.799	572
628.213	577.6
628.627	570.6
629.041	574
629.456	571
629.87	568
630.285	584.2
630.699	577.2
631.093	578.8
631.507	574.6
631.922	577.8
632.337	584.2
632.752	561.8
633.167	580.2
633.582	566.2
633.997	568
634.412	569.2
634.806	569.4
635.221	561.4
635.637	577
636.052	562.8
636.468	573.8
636.883	585
637.299	567.4
637.715	558
638.109	570.8
638.525	563
638.941	577.8
639.357	576.6
639.773	576.2
640.189	574.4
640.584	569.4
641	578.6
641.416	554.8
641.832	568.6
642.249	562.6
642.665	569.4
643.06	578
643.477	576.8
643.894	562.6
644.31	564
644.727	566.6
645.123	564.6
645.54	562.4
645.957	570.2
646.374	576.6
646.77	567
647.187	586.2
647.604	575.6
648.021	553.8
648.439	565.6
648.835	565.2
649.252	557.4
649.67	563.8
650.088	555.6
650.484	570.8
650.902	571.6
651.32	568
651.738	556.6
652.134	565.2
652.552	574.8
652.971	565
653.389	571.4
653.786	578.8
654.204	582.8
654.622	560
655.019	564.8
655.438	569
655.857	566
656.275	570.6
656.673	564
657.091	570
657.51	565.4
657.908	564.4
658.327	573.4
658.746	551.8
659.144	559.2
659.563	577.2
659.982	564.6
660.38	557.8
660.8	569.2
661.219	574.2
661.617	567.8
662.037	565.2
662.457	573.8
662.855	555.8
663.275	591.8
663.695	568.6
664.094	560
664.514	559.4
664.934	558.6
665.333	569
665.753	560.2
666.152	563.6
666.572	556.2
666.993	575.8
667.392	560.6
667.812	564.8
668.212	561.8
668.632	564.2
669.053	564
669.453	567.4
669.874	561.2
670.273	560
670.694	559.2
671.116	568.6
671.515	568.6
671.937	556.4
672.337	556.2
672.758	556.2
673.158	558
673.58	550.6
673.98	555.4
674.402	565.2
674.824	564.8
675.224	554.8
675.646	552.2
676.047	548.2
676.469	554.2
676.869	569.6
677.292	563
677.693	555.4
678.115	553.6
678.516	559.2
678.939	559.2
679.34	557
679.762	568.6
680.164	570
680.586	553.4
680.988	563.2
681.411	578.4
681.812	555.6
682.236	555
682.637	552.4
683.061	554
683.462	561.2
683.864	549
684.288	565.8
684.69	556.2
685.114	567.8
685.516	566.2
685.94	549.8
686.342	559
686.766	554
687.168	559
687.571	562.6
687.995	570.6
688.398	545.8
688.822	553
689.225	573.2
689.628	572.8
690.052	558.4
690.456	554
690.88	555.6
691.284	548.6
691.687	557
692.112	545.6
692.515	551.4
692.919	551.4
693.344	556.8
693.747	553.8
694.173	550.4
694.577	565.2
694.98	550.6
695.406	551.6
695.81	555.2
696.214	558.4
696.64	557.8
697.044	553.8
697.448	565.2
697.874	555.4
698.279	555
698.684	544.8
699.11	544.2
699.514	548.8
699.919	544.2
700.324	547.8
700.75	547.6
701.156	560.2
701.561	568.8
701.987	563.6
702.393	561.8
702.798	565.2
703.203	556.2
703.63	552.2
704.036	553
704.442	556.6
704.847	554.8
705.274	554.6
705.68	560.6
706.086	560
706.492	544.4
706.92	549.4
707.326	559.2
707.732	549.4
708.139	548.4
708.545	547.8
708.973	546.6
709.38	551
709.786	547.4
710.193	563.2
710.6	555.6
711.028	549.2
711.435	549.6
711.842	555.2
712.249	551.4
712.656	551
713.064	552.8
713.492	543.4
713.9	542.4
714.307	557.2
714.715	554
715.123	551.2
715.53	553.6
715.938	563.2
716.367	554.6
716.775	553
717.184	553
717.592	554.6
718	555
718.408	585.4
718.816	584.6
719.225	554.8
719.633	553.8
720.042	543
720.472	550.4
720.881	561.8
721.29	559.6
721.699	549.6
722.108	550
722.517	558.2
722.926	551.4
723.335	561.2
723.744	557
724.154	549
724.563	552.6
724.973	553
725.382	556.6
725.792	552.6
726.202	536
726.612	567.2
727.022	553.4
727.432	554.6
779.813	556.8
780.223	583.4
780.634	546
781.044	545.2
781.454	555.4
781.865	565.2
782.276	538.2
782.686	550.6
783.097	549.4
783.508	547.8
783.919	547
784.33	559.4
784.741	555.6
785.152	540.8
785.563	534.2
785.974	541.4
786.386	561
786.776	548.8
787.188	549.2
787.599	551.2
788.011	552.6
788.423	544.8
788.835	551.8
789.247	539
789.659	555.2
790.071	549.2
790.483	582
790.874	549.6
791.286	556.2
791.699	541.8
792.111	550
792.524	550
792.937	543.2
793.349	541.8
793.741	535.2
794.154	548.2
794.567	554.8
794.98	546
795.393	541.4
795.785	562
796.198	542.2
796.612	549
797.026	546.8
797.439	534.2
797.831	537
798.245	543.6
798.659	548
799.073	549.2
799.487	549.6
799.88	542
800.294	546.8
800.708	545.6
801.123	545.6
801.516	555.6
801.93	542.2
802.345	540
802.76	548
803.153	560
803.568	559
803.983	556.8
804.377	555.4
804.792	539.2
805.207	543.4
805.601	547
806.016	572
806.432	543.8
806.826	579.2
807.242	557.2
807.658	550.4
808.052	548.8
808.468	550.6
808.884	544.8
809.279	548.6
809.695	562
810.111	563.2
810.506	548
810.922	564.8
811.339	540.2
811.734	560.8
812.151	540.6
812.546	549
812.963	544.4
813.38	553.8
813.776	550.8
814.193	569
814.589	547
815.006	547.8
815.402	550.2
815.82	542.2
816.237	553.2
816.633	543.8
817.051	536.8
817.448	549.2
817.866	542.8
818.262	567.6
818.68	546.2
819.077	543.2
819.495	559.4
819.892	580
820.311	543.6
820.708	549.4
821.127	538
821.524	555.2
821.943	550.2
822.34	560.8
822.759	552
823.157	547
823.576	555
823.974	554.6
824.393	567.6
824.791	546
825.189	540.4
825.609	543.4
826.007	550.8
826.427	536.8
826.826	538.6
827.246	544.6
827.644	536.8
828.043	555
828.463	547.2
828.862	558.8
829.261	555.8
829.682	546.6
830.081	546.4
830.502	540.4
830.901	551.8
831.301	561.4
831.722	541.8
832.121	551.4
832.521	542.6
832.943	543.2
833.342	554.8
833.742	544.2
834.164	544.2
834.564	542.6
834.965	546.2
835.386	549.6
835.787	538.4
836.188	544
836.588	548
837.01	546.8
837.411	538.6
837.812	549
838.213	553.8
838.636	552.6
839.037	596.4
839.438	540.8
839.84	547.4
840.263	548.2
840.664	557.8
841.066	546.6
841.468	543.8
841.891	535.6
842.293	558
842.695	544.8
843.098	549.6
843.5	538.6
843.902	551.4
844.326	546.6
844.729	543.4
845.131	551.2
845.534	548.8
845.937	555.8
846.34	558.6
846.764	539.6
847.167	549.8
847.571	545.8
847.974	548
848.377	545.4
848.781	584.6
849.184	550
849.588	539.2
849.992	541.6
850.396	549.6
850.821	555
851.225	550.8
851.63	543.4
852.034	561
852.438	549.6
852.843	568.8
853.247	547.8
853.652	542.4
854.057	557.4
854.462	547.6
854.867	555.8
855.272	565.4
855.677	550.4
856.082	543.2
856.487	542.8
856.893	546.2
857.298	539.8
857.704	542.2
858.11	552.4
