#lambda/nm	C1
208.295	577.4
208.67	507.8
209.045	474
209.419	466.4
209.794	585
210.169	572.4
210.544	663.8
210.919	586.6
211.295	574.8
211.67	588.8
212.045	581.8
212.421	569.8
212.796	603
213.172	574.4
213.547	573.8
213.923	580
214.299	573
214.675	582.8
215.051	583.8
215.427	579.4
215.803	587.2
216.179	581.4
216.555	577.4
216.932	581.2
217.308	575.4
217.684	577.2
218.061	579.4
218.438	584.8
218.814	574.8
219.191	579.6
219.568	571.2
219.945	571.6
220.322	582.6
220.699	584.6
221.076	579.2
221.453	576
221.83	573.6
222.208	576.8
222.585	573.4
222.962	576.8
223.34	579.8
223.717	577.8
224.095	579.8
224.473	574.6
224.851	575
225.229	577.4
225.607	582.8
225.985	575
226.363	575.8
226.741	576.8
227.119	577
227.497	591.6
227.876	566
228.254	581.2
228.633	581.4
229.011	577.4
229.39	580.2
229.769	578.4
230.148	581.8
230.527	587
230.905	574.2
231.284	577.8
231.664	570.2
232.043	581.4
232.422	577.4
232.801	574.6
233.181	576
233.56	575.4
233.94	573.8
234.319	568
234.699	579
235.079	598.8
235.458	603.8
235.838	583.4
236.218	572.4
236.598	567
236.978	579.2
237.358	575.6
237.738	574
238.119	581.2
238.499	569
238.88	571
239.26	588
239.641	567.2
240.021	575.8
240.402	575.2
240.783	567.6
241.163	574.2
241.544	580.8
241.925	572
242.306	581
242.687	574.8
243.069	583
243.45	576.8
243.831	574.2
244.212	570.2
244.594	607.4
244.975	586.6
245.357	580.4
245.739	575.2
246.12	572.8
246.502	589.8
246.884	582
247.266	570.2
247.648	584.8
248.03	588.4
248.412	583
248.794	574.4
249.176	573.6
249.559	586.8
249.941	569.4
250.323	566.2
250.706	569.6
251.089	577.8
251.471	577.2
251.854	575.8
252.237	575.8
252.62	585.8
253.002	574
253.385	573.4
253.769	577.8
254.152	564.6
254.535	573
254.918	564.6
255.301	572.4
255.685	582.4
256.068	561.2
256.452	585.2
256.835	578.2
257.219	574
257.603	577.8
257.986	570.4
258.37	579.4
258.754	565.8
259.138	576
259.522	578.8
259.906	565.8
260.29	576.2
260.675	565.4
261.059	575.2
261.443	567.6
261.828	578.2
262.212	583
262.597	563.8
262.981	568.2
263.366	576.6
263.751	574.6
264.136	570.8
264.521	571.4
264.906	568.8
265.291	585.4
265.676	569.6
266.061	579.6
266.446	588.6
266.831	582.4
267.217	595.8
267.602	580.4
267.987	576.8
268.373	570.2
268.759	585.8
269.144	578
269.53	574.8
269.916	572.6
270.302	571
270.688	578.6
271.074	573.4
271.46	584
271.846	603
272.232	573.6
272.618	568.2
273.004	573.4
273.391	582
273.777	582.4
274.164	573.8
274.55	575
274.937	573
275.324	579.6
275.71	579.8
276.097	574
276.484	573.6
276.871	575.6
277.258	585.8
277.645	560.6
278.032	572.6
278.419	568
278.807	572.6
279.194	572.6
279.581	566.2
279.969	579
280.356	582.8
280.744	574
281.131	593.4
281.519	590
281.907	575.6
282.295	577.6
282.682	588.8
283.07	573
283.458	577.2
283.846	586
284.235	585.2
284.623	582
285.011	569
285.399	582.2
285.788	581.2
286.176	571.4
286.565	580.2
286.953	571.8
287.342	570.2
287.731	564.6
288.119	571.2
288.508	570.2
288.897	581.4
289.286	566.2
289.675	576.8
290.064	588
290.453	573.8
290.821	572
291.21	586.6
291.599	573
291.989	572.8
292.378	591.4
292.768	585.4
293.157	585
293.547	580.2
293.936	572
294.326	565
294.716	578.6
295.106	577
295.496	584.6
295.886	576.8
296.276	567.2
296.666	565.2
297.056	568
297.446	571.4
297.836	591.2
298.227	573
298.617	576.4
299.008	584.2
299.398	564
299.789	574.4
300.179	575.8
300.57	580.2
300.961	575
301.352	572.4
301.742	578.8
302.133	578.2
302.524	575.4
302.915	581.4
303.307	564.4
303.698	582.4
304.089	585.6
304.48	571.6
304.872	581.6
305.263	571.4
305.655	572.2
306.046	585
306.438	583.2
306.829	571.4
307.221	590.2
307.613	584.6
308.005	582.2
308.397	585.2
308.789	590.4
309.181	604
309.573	587.4
309.965	593.4
310.357	580.6
310.749	585.6
311.142	568
311.534	575.4
311.926	575.4
312.319	577.6
312.711	578.6
313.104	585.6
313.497	572
313.889	601.8
314.282	584.8
314.675	591
315.068	579.8
315.461	586
315.854	596.4
316.247	578
316.64	581
317.033	576
317.405	584.4
317.798	577.8
318.192	582.6
318.585	570.8
318.979	580.8
319.372	570.2
319.766	572.6
320.16	586.6
320.553	583
320.947	588.6
321.341	573
321.735	574.2
322.129	564.6
322.523	590.6
322.917	567.8
323.311	586.6
323.705	576.2
324.099	577.6
324.494	586.8
324.888	577
325.282	573.4
325.677	579
326.071	585
326.466	580.8
326.861	577.2
327.255	579
327.65	581
328.045	589.2
328.44	573.6
328.835	572.2
329.23	574.2
329.625	592
330.02	566
330.415	590.2
330.81	574.8
331.206	568.6
331.601	567.6
331.996	584.4
332.37	585.8
332.766	563.8
333.161	590.4
333.557	572.6
333.953	572.4
334.348	775
334.744	573.6
335.14	568.6
335.536	572.6
335.932	588.6
336.328	577.6
336.724	588.4
337.12	575.4
337.516	578.2
337.913	580.8
338.309	588.6
338.705	579
339.102	582.8
339.498	577.8
339.895	581.4
340.291	569.4
340.688	583.2
341.085	562.8
341.481	574.2
341.878	578.2
342.275	586.6
342.672	568
343.069	571.2
343.466	567.8
343.842	582
344.239	577
344.636	575
345.033	569.8
345.431	577
345.828	573.2
346.225	572.6
346.623	600.4
347.02	568.8
347.418	586
347.816	586.4
348.213	563.2
348.611	573.2
349.009	569.6
349.407	578
349.805	572.6
350.203	561.4
350.601	579.2
350.999	571.8
351.397	614.4
351.795	576.6
352.193	585.2
352.57	572.8
352.969	581.2
353.367	567.8
353.766	560.4
354.164	566.8
354.563	578
354.961	566.4
355.36	564.6
355.759	570.6
356.158	565.2
356.557	564.6
356.956	560.2
357.355	554
357.754	571.6
358.153	568.4
358.552	584.8
358.951	569
359.35	579
359.75	565.2
360.149	557.6
360.527	555.4
360.926	563.6
361.326	567.2
361.726	564.4
362.125	568
362.525	571
362.925	574.4
363.325	572.4
363.724	568
364.124	559.8
364.524	561.4
364.924	572
365.324	577.6
365.725	567.8
366.125	570.2
366.525	572.4
366.904	563.2
367.304	556.4
367.705	586.2
368.105	583.8
368.506	564.8
368.906	564.2
369.307	561.6
369.708	574.2
370.108	561
370.509	574
370.91	559.8
371.311	569.8
371.712	566.4
372.113	567.2
372.514	557.8
372.894	565.2
373.295	568.4
373.696	574.4
374.097	575.6
374.499	593.6
374.9	571.4
375.301	566.4
375.703	565
376.105	563.2
376.506	573
376.908	570.2
377.309	566.6
377.711	575.4
378.113	565.6
378.493	571.8
378.895	567.2
379.297	576.4
379.699	558.8
380.102	573
380.504	567.4
380.906	568.6
381.308	586.4
381.71	569.2
382.113	582.4
382.515	567.2
382.918	570.8
383.299	562.2
383.701	583.2
384.104	570
384.507	552.2
384.909	570
385.312	566.4
385.715	565.4
386.118	564.4
386.521	565.2
386.924	576.2
387.327	567.2
387.709	557.2
388.112	558.4
388.515	563.8
388.918	566.6
389.322	574.6
389.725	566.2
390.129	587.6
390.532	569.4
390.936	566.2
391.339	562.8
391.743	570.2
392.125	561.8
392.529	574
392.933	577
393.337	562.4
393.74	565.6
394.144	563.8
394.548	566.6
394.953	564
395.357	578.8
395.761	567.6
396.144	568.2
396.548	574.4
396.952	559.8
397.357	565
397.761	564.4
398.166	560.2
398.57	568.2
398.975	567
399.379	569.6
399.763	607.2
400.168	559
400.572	561.2
400.977	563.6
401.382	581.2
401.787	569
402.192	574.8
402.597	581
403.002	562.2
403.386	583.8
403.791	581.4
404.197	561.6
404.602	565.4
405.007	564.2
405.413	562
405.818	561.2
406.224	559
406.608	567.2
407.014	556.4
407.42	580
407.825	563
408.231	573.6
408.637	568
409.043	577.4
409.449	558.8
409.834	565.2
410.24	572.2
410.646	570.4
411.052	572.4
411.458	568.2
411.865	572.4
412.271	571.6
412.677	562.8
413.062	569.8
413.469	558.6
413.875	587
414.282	577
414.689	575.4
415.095	567
415.502	565.2
415.888	564.2
416.294	557.6
416.701	593.6
417.108	567.2
417.515	578.2
417.923	570.4
418.33	580.8
418.715	574.6
419.123	566.4
419.53	563.4
419.937	568
420.345	578.4
420.752	567.4
421.16	581
421.546	572.6
421.953	579.6
422.361	567.6
422.769	566.8
423.177	565.6
423.585	595.4
423.992	590.2
424.379	576.6
424.787	580.6
425.195	587.8
425.603	569.2
426.011	574.2
426.419	583.2
426.806	567
427.214	569.2
427.623	582.4
428.031	582.2
428.44	576.6
428.848	585.4
429.235	584.8
429.644	583
430.053	581.4
430.461	594.6
430.87	601.8
431.279	596.6
431.666	588.4
432.075	595.6
432.484	610.4
432.893	600
433.302	623.2
433.711	643.8
434.099	618
434.508	623.8
434.918	624.4
435.327	647
435.737	642.6
436.125	648.2
436.534	655.2
436.944	661.2
437.353	668.6
437.763	680.2
438.173	664.8
438.561	690.6
438.971	671.8
439.381	689.2
439.791	697.2
440.201	693.8
440.589	705.8
440.999	723
441.409	722.8
441.819	714
442.23	731.6
442.619	738.2
443.029	742.8
443.439	753.8
443.85	756.4
444.26	752
444.649	756.2
445.06	764.2
445.471	758.8
445.881	764.2
446.292	774.2
446.682	793.4
447.092	759.2
447.503	812.6
447.914	775.2
448.325	773
448.715	777
449.126	773.2
449.537	771.2
449.948	783.4
450.338	788.2
450.75	797.8
451.161	791
451.572	798.6
451.984	785
452.374	783.8
452.786	786.2
453.197	792.6
453.609	794.8
453.999	788
454.411	789
454.823	809.6
455.235	800
455.647	800.2
456.037	789.8
456.449	784.4
456.862	797.6
457.274	795
457.665	789.4
458.077	808.6
458.489	823
458.902	788
459.293	800.4
459.705	794.4
460.118	793
460.53	804.4
460.921	792.4
461.334	794.8
461.747	793.4
462.16	803.8
462.551	807
462.964	807.6
463.377	788.4
463.79	794.6
464.182	801
464.595	797.2
465.008	801.8
465.421	802
465.813	796.6
466.226	794.6
466.64	796.4
467.053	834.4
467.445	803.2
467.859	814
468.272	803.2
468.686	806.6
469.078	800
469.492	790.6
469.906	799.8
470.298	806.6
470.712	794.2
471.126	829
471.54	783.6
471.933	788.8
472.347	802
472.761	791.4
473.175	798.2
473.568	779.8
473.982	781
474.397	801.2
474.79	780.6
475.204	799
475.619	786.4
476.033	785
476.426	784.2
476.841	785.4
477.256	801
477.649	776.2
478.064	774.6
478.479	772
478.872	785
479.287	768.2
479.702	781.6
480.118	771.6
480.511	783
480.927	769.4
481.342	776.2
481.736	776.6
482.151	762.4
482.566	776.6
482.96	774.8
483.376	778.4
483.792	773.2
484.186	772.6
484.602	769.6
485.017	769.2
485.412	764.2
485.827	774.2
486.243	767.2
486.638	782.2
487.054	764.2
487.47	762.2
487.865	756.2
488.281	746
488.697	762.6
489.092	754
489.508	748.2
489.925	749.8
490.32	735.4
490.736	750.4
491.153	747
491.548	750.2
491.964	754.4
492.381	733.8
492.776	744.6
493.193	745.6
493.61	748.2
494.006	738.4
494.422	741.8
494.84	727.6
495.235	743.8
495.652	741.8
496.069	730
496.465	729.2
496.883	735.2
497.3	747.8
497.696	721.8
498.113	729.8
498.509	719.2
498.927	725.4
499.344	717.2
499.741	718.2
500.158	728
500.576	727
500.973	717
501.39	714.8
501.787	703.8
502.205	712
502.623	708
503.02	691.4
503.438	713.2
503.856	697.2
504.253	710.8
504.671	699.2
505.068	695.8
505.486	702.4
505.905	712.2
506.302	704.4
506.72	704
507.118	688.4
507.536	692.2
507.955	689.2
508.352	692.2
508.771	695.2
509.169	687.6
509.587	678.4
510.006	691.8
510.404	678.4
510.823	681.6
511.221	684.6
511.64	677.8
512.038	699.4
512.457	691.8
512.877	679.4
513.275	673.8
513.694	681.8
514.092	683
514.512	679.8
514.91	679.4
515.33	690
515.749	665
516.148	680
516.568	674.8
516.966	670.6
517.386	656.6
517.785	662.6
518.205	663
518.603	659.8
519.024	665.2
519.444	668
519.843	669.2
520.263	670.2
520.662	662
521.082	655.6
521.481	653.8
521.902	658.6
522.301	661
522.722	648.2
523.121	653.4
523.542	657.8
523.963	653.4
524.362	650.8
524.783	649
525.183	651.8
525.604	647.2
526.003	640.2
526.425	641
526.824	642.2
527.246	650.2
527.646	645.6
528.067	648.2
528.467	639.8
528.888	647.4
529.289	640.6
529.71	630.8
530.11	629.2
530.532	631
530.932	634.2
531.354	635.4
531.755	662.8
532.176	641
532.577	629.4
532.999	633.4
533.4	629
533.822	632.8
534.223	634.2
534.645	624.4
535.046	631.4
535.468	627.6
535.869	638.6
536.292	623.8
536.693	642.6
537.115	623.6
537.516	620.8
537.939	625.8
538.34	639.8
538.742	635
539.165	624.4
539.566	621.4
539.989	624.6
540.391	620.2
540.814	611
541.216	619.2
541.639	615.8
542.041	627.4
542.464	610
542.866	616
543.268	610
543.691	621
544.093	628.2
544.517	636.8
544.919	604.6
545.343	638.2
545.745	602.4
546.147	619.4
546.571	608
546.974	602.6
547.398	617.6
547.8	619.2
548.224	603.2
548.627	603.4
549.03	615.4
549.454	603.4
549.857	598.4
550.281	600.8
550.684	604.8
551.087	612.6
551.512	603.2
551.915	608.6
552.34	605
552.743	598
553.146	595.2
553.571	596.6
553.975	614.2
554.399	587
554.803	629.8
555.207	604.6
555.632	593.8
556.036	599.4
556.461	590.2
556.865	593.6
557.268	598
557.694	597.4
558.098	599.6
558.502	605.6
558.927	598.8
559.332	598.8
559.736	595
560.162	594.4
560.566	591.8
560.992	596
561.396	591
561.801	593.8
562.227	599.2
562.631	592.6
563.036	590.6
563.462	597.6
563.867	592.6
564.272	577.6
564.698	597.6
565.103	580.8
565.508	602.2
565.935	588.6
566.34	581
566.745	606
567.172	582.6
567.577	604.4
567.982	589.6
568.409	591.4
568.815	576.4
569.22	585.2
569.626	591
570.053	580.2
570.459	590.4
570.865	584.6
571.292	602.8
571.698	584.6
572.104	576.8
572.531	580.8
572.937	593.2
573.343	589.6
573.75	579.2
574.177	581
574.583	584.8
574.99	587.6
575.396	590.8
575.824	582.8
576.231	592.4
576.637	579
577.065	604.2
577.472	580.4
577.879	578.6
578.286	591
578.714	573.4
579.121	584.2
579.528	579.2
579.935	587.6
580.364	580.4
580.771	563.2
581.178	575.2
581.585	580.4
582.014	581.4
582.421	579.2
582.829	576.8
583.236	579.6
583.644	580.2
584.073	576.4
584.481	584.4
584.889	574.2
585.296	577.4
585.726	579
586.134	572.6
586.542	567.4
586.95	582.8
587.358	564.8
587.787	579
588.196	581.6
588.604	575.6
589.012	577
589.421	568.8
589.851	566
590.259	583.6
590.668	577.2
591.076	603.4
591.485	572.4
591.894	576.2
592.324	590.4
592.733	578.4
593.142	572.4
593.551	578.2
593.96	567.8
594.369	569
594.8	575
595.209	576.2
595.618	568.6
596.028	572.2
596.437	567.2
596.847	577.6
597.256	581.2
597.687	570.2
598.097	571
598.507	578.2
598.917	570.4
599.327	582.4
599.736	580.4
600.146	587
600.556	577.8
600.988	581.2
601.398	572.6
601.808	585
602.219	564
602.629	577
603.039	573.2
603.45	596.4
603.86	579
604.271	576.4
604.703	568.6
605.114	579
605.525	575.8
605.935	575.4
606.346	591
606.757	584.6
607.168	575.8
607.579	569.6
607.99	580.6
608.402	574
608.813	580.6
609.224	579
609.636	570.8
610.047	579.4
610.48	575.8
610.892	571.4
611.303	590
611.715	576
612.127	564
612.539	572.2
612.95	574
613.362	578.4
613.774	572.4
614.186	572.2
614.599	574.6
615.011	587.8
615.423	584.2
615.835	570.4
616.248	570.2
616.66	582.8
617.073	576.6
617.485	574.6
617.898	581.6
618.311	576.6
618.723	582.4
619.136	604
619.549	592.6
619.962	596.2
620.375	573.2
620.788	579.6
621.201	576
621.614	578.4
622.028	573
622.441	576.6
622.854	588.8
623.268	565.8
623.681	581.6
624.095	560.8
624.509	583
624.922	578
625.336	564.4
625.728	576
626.142	579.4
626.556	586
626.97	577.2
627.384	571.2
627.799	574.4
628.213	582.4
628.627	573.4
629.041	575.2
629.456	571.8
629.87	573.2
630.285	591.6
630.699	575.6
631.093	573.6
631.507	579.6
631.922	576.8
632.337	582.2
632.752	568.4
633.167	573.4
633.582	572
633.997	570
634.412	564.2
634.806	578.6
635.221	569.4
635.637	581.6
636.052	567.6
636.468	583.2
636.883	587.8
637.299	573.4
637.715	556.4
638.109	575.6
638.525	562
638.941	581
639.357	579
639.773	577.4
640.189	570.2
640.584	573.6
641	573
641.416	566.6
641.832	564.2
642.249	569
642.665	564.8
643.06	578.2
643.477	579
643.894	557.6
644.31	574.2
644.727	568.4
645.123	567.2
645.54	565.2
645.957	569.8
646.374	580
646.77	565.4
647.187	590.4
647.604	567.8
648.021	559
648.439	562
648.835	568.2
649.252	565.8
649.67	560.6
650.088	566.6
650.484	565.6
650.902	565.8
651.32	562
651.738	560.6
652.134	563.6
652.552	585
652.971	574.6
653.389	564.2
653.786	578.4
654.204	584.8
654.622	566.4
655.019	573
655.438	565.4
655.857	562.6
656.275	574.2
656.673	564.2
657.091	568.6
657.51	559.2
657.908	574
658.327	573.6
658.746	560.4
659.144	562.6
659.563	571.4
659.982	568.4
660.38	565.6
660.8	557.6
661.219	566.4
661.617	567.4
662.037	561.6
662.457	575.2
662.855	554.4
663.275	582.6
663.695	560.8
664.094	558.8
664.514	563
664.934	556.8
665.333	563
665.753	562.8
666.152	553
666.572	551.8
666.993	573.4
667.392	559.2
667.812	564.2
668.212	561.2
668.632	570.2
669.053	557
669.453	567.4
669.874	569.2
670.273	566.8
670.694	558.8
671.116	571.4
671.515	560.6
671.937	562.2
672.337	555.4
672.758	556.6
673.158	555.8
673.58	563.4
673.98	564.2
674.402	573.2
674.824	551
675.224	557.4
675.646	554.4
676.047	553.6
676.469	570.2
676.869	562.6
677.292	556.4
677.693	557.2
678.115	560
678.516	569
678.939	558.4
679.34	557.4
679.762	574.8
680.164	564.6
680.586	554.2
680.988	559
681.411	577.6
681.812	553.8
682.236	554.6
682.637	547
683.061	550
683.462	561
683.864	557
684.288	559.6
684.69	547.8
685.114	567
685.516	566
685.94	553.2
686.342	560.8
686.766	556.6
687.168	555.6
687.571	562.6
687.995	562
688.398	552.2
688.822	551
689.225	567.4
689.628	572.4
690.052	555.4
690.456	562.4
690.88	558.2
691.284	547
691.687	558
692.112	548.2
692.515	552
692.919	552.2
693.344	566.4
693.747	561
694.173	552
694.577	560
694.98	559.2
695.406	556.4
695.81	557.8
696.214	558.4
696.64	558.6
697.044	550
697.448	562.8
697.874	552.4
698.279	547.4
698.684	545.8
699.11	546
699.514	553.4
699.919	556.4
700.324	545.6
700.75	551.4
701.156	552.2
701.561	557.8
701.987	553.6
702.393	557.4
702.798	558.2
703.203	555.6
703.63	550.6
704.036	553.6
704.442	559.2
704.847	549.8
705.274	548.2
705.68	550.2
706.086	557
706.492	540.4
706.92	553.4
707.326	558.4
707.732	554.8
708.139	545.6
708.545	541.8
708.973	549.6
709.38	548.4
709.786	542.4
710.193	563.8
710.6	553.2
711.028	549.6
711.435	552.2
711.842	547.8
712.249	550
712.656	557.6
713.064	562.6
713.492	549.6
713.9	552
714.307	550.2
714.715	555.2
715.123	551.8
715.53	550.4
715.938	559.8
716.367	557.8
716.775	542.4
717.184	553.6
717.592	551
718	552.4
718.408	575.8
718.816	581.2
719.225	554.6
719.633	554.8
720.042	538.8
720.472	548.6
720.881	563.6
721.29	545.4
721.699	544.8
722.108	557.4
722.517	545.8
722.926	553.4
723.335	557.4
723.744	545
724.154	551.4
724.563	551.2
724.973	551.2
725.382	544.6
725.792	551.8
726.202	549.4
726.612	567.4
727.022	547
727.432	552.4
779.813	548.4
780.223	580.2
780.634	547.6
781.044	546.8
781.454	550.6
781.865	569
782.276	540.4
782.686	561.8
783.097	557.2
783.508	557
783.919	557
784.33	554
784.741	561.6
785.152	548
785.563	544.4
785.974	549
786.386	555.2
786.776	548.6
787.188	551
787.599	540.2
788.011	553
788.423	556.8
788.835	546
789.247	543.6
789.659	547.6
790.071	554
790.483	579.2
790.874	550
791.286	548
791.699	549.2
792.111	557.8
792.524	551.8
792.937	548.4
793.349	541.8
793.741	545.2
794.154	539
794.567	558.2
794.98	536
795.393	543
795.785	558
796.198	545
796.612	553.6
797.026	545
797.439	533.6
797.831	549.4
798.245	535.6
798.659	544.6
799.073	538.6
799.487	545.4
799.88	550.4
800.294	547.6
800.708	547.8
801.123	548.4
801.516	561.4
801.93	546.8
802.345	537.6
802.76	550
803.153	558.6
803.568	560
803.983	556.2
804.377	548.4
804.792	544.4
805.207	539.4
805.601	554.2
806.016	568
806.432	542.8
806.826	577.6
807.242	551.2
807.658	555.6
808.052	545.2
808.468	540.2
808.884	541.8
809.279	545.4
809.695	562.4
810.111	564.8
810.506	547.2
810.922	557
811.339	538.6
811.734	549.4
812.151	548.4
812.546	545.2
812.963	551.6
813.38	549.4
813.776	550.8
814.193	563.2
814.589	547
815.006	542.2
815.402	552
815.82	542.2
816.237	548.4
816.633	551.2
817.051	544.4
817.448	554.6
817.866	547.2
818.262	558
818.68	547.2
819.077	544.2
819.495	550.2
819.892	587
820.311	540
820.708	538.8
821.127	546.4
821.524	552.6
821.943	545.8
822.34	557
822.759	551
823.157	544.8
823.576	560.6
823.974	555.8
824.393	581.6
824.791	547.2
825.189	544
825.609	537.6
826.007	544.8
826.427	539.4
826.826	544
827.246	551
827.644	531.6
828.043	555.8
828.463	547.2
828.862	552.6
829.261	551.2
829.682	537.8
830.081	550.6
830.502	542.2
830.901	546.6
831.301	566.2
831.722	540.2
832.121	551.8
832.521	541.4
832.943	546
833.342	547.8
833.742	543
834.164	543.2
834.564	539.4
834.965	545.2
835.386	542.8
835.787	545
836.188	546
836.588	547.6
837.01	547.4
837.411	541.8
837.812	551.4
838.213	552
838.636	539.2
839.037	593.8
839.438	546.2
839.84	549.6
840.263	547
840.664	553.2
841.066	545.2
841.468	549.4
841.891	547.4
842.293	554
842.695	557.4
843.098	558.8
843.5	544.8
843.902	553
844.326	551.4
844.729	547.6
845.131	552
845.534	542.8
845.937	557
846.34	554.4
846.764	536
847.167	555
847.571	546.8
847.974	556.4
848.377	541.6
848.781	578.2
849.184	555.8
849.588	539.2
849.992	550.8
850.396	541.6
850.821	556.2
851.225	545.8
851.63	548.8
852.034	557.8
852.438	548.2
852.843	566.2
853.247	544.8
853.652	548
854.057	558.2
854.462	546.8
854.867	552.4
855.272	568.8
855.677	542.6
856.082	539.4
856.487	539.4
856.893	544.4
857.298	546.4
