#lambda/nm	C1
208.295	556
208.67	495.2
209.045	458
209.419	452.8
209.794	594.6
210.169	575.8
210.544	679.6
210.919	598.4
211.295	574.8
211.67	592.4
212.045	590
212.421	588.8
212.796	616.8
213.172	587.6
213.547	584.6
213.923	584.6
214.299	583.4
214.675	598.6
215.051	595.4
215.427	599.2
215.803	607.2
216.179	597
216.555	590.6
216.932	597.4
217.308	594.2
217.684	591.8
218.061	593.4
218.438	596.4
218.814	587.6
219.191	595.2
219.568	581.2
219.945	584.6
220.322	593
220.699	592
221.076	594.6
221.453	596.4
221.83	588
222.208	591.8
222.585	589
222.962	590.8
223.34	596.4
223.717	588
224.095	583.8
224.473	596.6
224.851	582
225.229	587.4
225.607	596
225.985	587.4
226.363	587.2
226.741	593.4
227.119	588.8
227.497	603.6
227.876	576.2
228.254	591.6
228.633	591.6
229.011	585.6
229.39	596.4
229.769	596
230.148	596.2
230.527	604.8
230.905	588.4
231.284	590.2
231.664	579.6
232.043	598.6
232.422	594.4
232.801	585.4
233.181	594
233.56	589.2
233.94	583.8
234.319	582.8
234.699	582.2
235.079	623.8
235.458	617.8
235.838	602.6
236.218	584.2
236.598	582.4
236.978	584.2
237.358	586
237.738	574.8
238.119	592
238.499	580.4
238.88	594.2
239.26	599.4
239.641	574.6
240.021	589.2
240.402	588.6
240.783	587.8
241.163	595.6
241.544	594
241.925	588.4
242.306	602.8
242.687	593.6
243.069	583
243.45	594.4
243.831	583.6
244.212	585
244.594	616.4
244.975	593.6
245.357	585.4
245.739	582.4
246.12	589.6
246.502	597.8
246.884	586.2
247.266	583.4
247.648	588.4
248.03	604.6
248.412	583
248.794	592.4
249.176	595
249.559	602
249.941	579.8
250.323	578.2
250.706	591
251.089	592
251.471	589.8
251.854	587.4
252.237	586.4
252.62	595.4
253.002	588.4
253.385	591.6
253.769	599.6
254.152	597.4
254.535	594.4
254.918	580.2
255.301	582.6
255.685	584.2
256.068	583
256.452	617.6
256.835	588.4
257.219	590.2
257.603	600.4
257.986	581.6
258.37	597
258.754	582.8
259.138	592.8
259.522	598.6
259.906	591.4
260.29	598.2
260.675	590.2
261.059	593
261.443	576.2
261.828	602.4
262.212	585.2
262.597	577.4
262.981	584.2
263.366	584.2
263.751	592.8
264.136	585.8
264.521	588.6
264.906	580.8
265.291	591.2
265.676	583.6
266.061	589.8
266.446	603.4
266.831	587.4
267.217	599.6
267.602	594.6
267.987	584
268.373	582.6
268.759	593.6
269.144	591.4
269.53	586.6
269.916	584.8
270.302	578
270.688	590.2
271.074	598.4
271.46	598.6
271.846	613.2
272.232	588.6
272.618	581.6
273.004	589.2
273.391	593.4
273.777	600.6
274.164	593
274.55	603.4
274.937	589.2
275.324	578
275.71	595
276.097	596
276.484	585.2
276.871	597.6
277.258	595.4
277.645	583
278.032	590.8
278.419	590.2
278.807	594.2
279.194	581.4
279.581	574.4
279.969	600.2
280.356	592.2
280.744	586.8
281.131	609.4
281.519	595.4
281.907	591.6
282.295	588.2
282.682	603.6
283.07	597.8
283.458	599.4
283.846	603.2
284.235	600.4
284.623	596.2
285.011	580.4
285.399	591.6
285.788	588.4
286.176	586.4
286.565	596.8
286.953	586.4
287.342	585
287.731	583.4
288.119	583.8
288.508	583.2
288.897	595.6
289.286	579.2
289.675	591.2
290.064	590.4
290.453	590.6
290.821	591.6
291.21	605.4
291.599	587.2
291.989	586.2
292.378	597
292.768	602.8
293.157	595.2
293.547	593
293.936	590.2
294.326	585.8
294.716	593.4
295.106	598.6
295.496	585.8
295.886	601.6
296.276	588.8
296.666	583.2
297.056	581.8
297.446	577.6
297.836	606.4
298.227	578.6
298.617	580.2
299.008	595.8
299.398	579.2
299.789	580
300.179	587.2
300.57	593.2
300.961	587.8
301.352	590.2
301.742	595.2
302.133	599.4
302.524	587.8
302.915	594.8
303.307	586.4
303.698	592.6
304.089	598
304.48	591.6
304.872	593.4
305.263	594.4
305.655	589.8
306.046	596.2
306.438	593.6
306.829	592
307.221	605
307.613	591.6
308.005	598.2
308.397	603.8
308.789	603.2
309.181	613.6
309.573	606.8
309.965	600.4
310.357	585.6
310.749	602.8
311.142	586.4
311.534	588
311.926	598.8
312.319	586.4
312.711	586.4
313.104	592.6
313.497	592.2
313.889	616.4
314.282	614.6
314.675	613
315.068	588.8
315.461	598.2
315.854	618.6
316.247	593.8
316.64	591
317.033	588
317.405	596
317.798	587.2
318.192	591.2
318.585	584.2
318.979	591.4
319.372	583.2
319.766	590.8
320.16	598.4
320.553	593.2
320.947	603.6
321.341	588.2
321.735	588.6
322.129	580.4
322.523	616.6
322.917	591.2
323.311	593.4
323.705	592.6
324.099	597
324.494	602
324.888	600
325.282	591.6
325.677	598
326.071	600.6
326.466	599.6
326.861	598
327.255	603.4
327.65	604.4
328.045	599.8
328.44	593.6
328.835	590.8
329.23	582.6
329.625	605.4
330.02	577.4
330.415	604.2
330.81	592.4
331.206	594.8
331.601	586
331.996	600.6
332.37	607.4
332.766	581.2
333.161	616
333.557	585.4
333.953	600.2
334.348	842.8
334.744	594
335.14	582
335.536	582.4
335.932	601
336.328	589.2
336.724	601.2
337.12	583.2
337.516	593.4
337.913	588.4
338.309	596
338.705	592.8
339.102	591
339.498	591
339.895	599
340.291	591.6
340.688	592.4
341.085	580.6
341.481	581.4
341.878	587.6
342.275	599.8
342.672	584.8
343.069	592.4
343.466	579.2
343.842	605.4
344.239	580.8
344.636	579.6
345.033	579.4
345.431	576.8
345.828	585
346.225	579.2
346.623	617.4
347.02	587.8
347.418	599.8
347.816	598.2
348.213	578.2
348.611	595
349.009	584.4
349.407	593.8
349.805	586.6
350.203	579
350.601	594.4
350.999	575.4
351.397	639.4
351.795	583.6
352.193	593.2
352.57	598.6
352.969	605.2
353.367	575.4
353.766	577.2
354.164	592.8
354.563	590.6
354.961	590.4
355.36	586.8
355.759	590
356.158	583.2
356.557	580.8
356.956	578.2
357.355	575.6
357.754	593
358.153	591.8
358.552	605.6
358.951	581.4
359.35	590.8
359.75	580
360.149	580
360.527	569.6
360.926	572.6
361.326	582.4
361.726	579.8
362.125	580.2
362.525	586
362.925	585.2
363.325	591
363.724	588.8
364.124	566.8
364.524	579
364.924	581.6
365.324	593
365.725	566
366.125	583
366.525	588.6
366.904	578.8
367.304	575
367.705	603
368.105	595.4
368.506	584.6
368.906	576.6
369.307	578.6
369.708	592.2
370.108	571.2
370.509	596.6
370.91	583.4
371.311	587.2
371.712	585.8
372.113	580.2
372.514	571.6
372.894	581.6
373.295	581.6
373.696	597.4
374.097	590.6
374.499	614
374.9	584.6
375.301	581.8
375.703	593.6
376.105	578.6
376.506	582.6
376.908	584.4
377.309	587
377.711	584.4
378.113	580
378.493	588.4
378.895	578.8
379.297	591.8
379.699	578.2
380.102	595.2
380.504	585.8
380.906	579.6
381.308	603
381.71	583.4
382.113	588
382.515	581.6
382.918	580.2
383.299	589
383.701	587.2
384.104	585.4
384.507	575.2
384.909	581.8
385.312	579.6
385.715	567.4
386.118	576.2
386.521	570.2
386.924	587
387.327	585.6
387.709	572.8
388.112	574.8
388.515	574.4
388.918	583.8
389.322	587.2
389.725	576.4
390.129	596.4
390.532	581.4
390.936	582.2
391.339	575.2
391.743	589.6
392.125	578.4
392.529	597
392.933	590
393.337	583.8
393.74	575.8
394.144	581.4
394.548	577.4
394.953	584.8
395.357	577.4
395.761	579.2
396.144	584.4
396.548	576.2
396.952	579.8
397.357	569.6
397.761	573
398.166	563.8
398.57	577.6
398.975	570.2
399.379	581.2
399.763	619
400.168	585
400.572	573.4
400.977	575.4
401.382	600.8
401.787	588.8
402.192	596.2
402.597	593.8
403.002	575.2
403.386	596.8
403.791	594.8
404.197	578
404.602	576.4
405.007	581.6
405.413	582.8
405.818	574.6
406.224	575.8
406.608	573.8
407.014	571.2
407.42	594.2
407.825	576.6
408.231	587.6
408.637	582.2
409.043	589
409.449	577.4
409.834	568.2
410.24	582
410.646	591.8
411.052	595.2
411.458	587.4
411.865	580.4
412.271	588.2
412.677	581
413.062	587
413.469	575
413.875	607
414.282	585
414.689	585.6
415.095	585.2
415.502	579
415.888	583.6
416.294	570.8
416.701	620.8
417.108	572.2
417.515	585.2
417.923	587.2
418.33	600.2
418.715	590.6
419.123	579.6
419.53	584.8
419.937	585.6
420.345	589
420.752	583.8
421.16	594.4
421.546	585
421.953	592.4
422.361	576.2
422.769	583.2
423.177	581.6
423.585	595.2
423.992	598.2
424.379	591.6
424.787	603
425.195	595.4
425.603	586.4
426.011	584.6
426.419	589.2
426.806	589
427.214	583.2
427.623	598.2
428.031	602.6
428.44	588.8
428.848	595.2
429.235	601.2
429.644	582.6
430.053	587.4
430.461	607.8
430.87	610.2
431.279	601.6
431.666	598.8
432.075	592.4
432.484	608.8
432.893	610.2
433.302	623
433.711	646.4
434.099	617.4
434.508	620.2
434.918	626.2
435.327	640.2
435.737	645.2
436.125	646.4
436.534	657.4
436.944	651.2
437.353	667.2
437.763	675.8
438.173	666
438.561	683
438.971	666.2
439.381	686.8
439.791	685.8
440.201	666
440.589	697.4
440.999	707.2
441.409	699.6
441.819	697.4
442.23	715.6
442.619	717.2
443.029	713.4
443.439	728.8
443.85	728.6
444.26	739.2
444.649	727.4
445.06	726.4
445.471	735.4
445.881	731
446.292	752.8
446.682	756.8
447.092	736.4
447.503	793
447.914	749.2
448.325	746.2
448.715	746.4
449.126	743.4
449.537	761.8
449.948	751.8
450.338	761.4
450.75	760.8
451.161	757.4
451.572	771.2
451.984	757.6
452.374	746.6
452.786	757.4
453.197	765
453.609	766.8
453.999	750.8
454.411	764.8
454.823	774
455.235	780.4
455.647	762.4
456.037	777.2
456.449	767.8
456.862	777.6
457.274	777
457.665	763.2
458.077	780.6
458.489	784.6
458.902	760.6
459.293	767.2
459.705	766.8
460.118	781.4
460.53	773.4
460.921	771.4
461.334	766.4
461.747	774.8
462.16	785.4
462.551	781.8
462.964	781.8
463.377	768.8
463.79	775.2
464.182	780.6
464.595	767.2
465.008	776.8
465.421	784
465.813	762.2
466.226	774.6
466.64	772.2
467.053	816.6
467.445	781.4
467.859	790.4
468.272	779.8
468.686	778.4
469.078	771.6
469.492	755.6
469.906	773.4
470.298	776.4
470.712	757.4
471.126	815.6
471.54	757
471.933	765.8
472.347	785.4
472.761	770.8
473.175	766.6
473.568	777
473.982	761.4
474.397	774.8
474.79	769
475.204	768
475.619	773.8
476.033	765.2
476.426	763.6
476.841	755.4
477.256	784
477.649	758
478.064	762
478.479	755.4
478.872	766.6
479.287	744.8
479.702	748.2
480.118	760.8
480.511	760.6
480.927	756.8
481.342	757.8
481.736	759
482.151	748.8
482.566	767
482.96	754.4
483.376	758.8
483.792	748.4
484.186	747.6
484.602	747
485.017	749.4
485.412	743.2
485.827	752.8
486.243	761.8
486.638	770.2
487.054	752
487.47	757.8
487.865	738
488.281	741.6
488.697	728
489.092	739.6
489.508	725
489.925	749.6
490.32	724.8
490.736	733.4
491.153	732.8
491.548	728.8
491.964	740.2
492.381	711.8
492.776	732.6
493.193	725.6
493.61	720.4
494.006	723.4
494.422	724.8
494.84	711.6
495.235	725
495.652	717.2
496.069	722
496.465	708
496.883	715.4
497.3	734.6
497.696	713.8
498.113	718.2
498.509	708.4
498.927	705.4
499.344	703.8
499.741	707.4
500.158	712.8
500.576	712.8
500.973	701.2
501.39	704.2
501.787	691
502.205	702.2
502.623	691.6
503.02	685.4
503.438	684.2
503.856	692.6
504.253	691.4
504.671	696.6
505.068	688.8
505.486	683.6
505.905	711.2
506.302	693.8
506.72	708
507.118	681
507.536	682
507.955	682.6
508.352	687.2
508.771	690.8
509.169	688.4
509.587	675.8
510.006	685.4
510.404	668
510.823	677
511.221	677.2
511.64	679
512.038	690.2
512.457	677
512.877	667.2
513.275	664.8
513.694	677.6
514.092	663.2
514.512	668.6
514.91	664
515.33	658.6
515.749	666.8
516.148	664.6
516.568	665
516.966	668
517.386	661.6
517.785	662.6
518.205	656.8
518.603	652.4
519.024	651.8
519.444	660
519.843	669
520.263	670.2
520.662	661
521.082	652.6
521.481	661.4
521.902	647.6
522.301	649.4
522.722	657.4
523.121	652
523.542	644
523.963	643.6
524.362	647.2
524.783	649.4
525.183	640.2
525.604	645.6
526.003	630.6
526.425	638.6
526.824	637.6
527.246	648.4
527.646	636.8
528.067	636.8
528.467	632.2
528.888	636.2
529.289	646
529.71	639.4
530.11	629.4
530.532	638
530.932	629.4
531.354	624.8
531.755	657.8
532.176	640.6
532.577	635.6
532.999	628.2
533.4	626.2
533.822	640.6
534.223	637.8
534.645	625.2
535.046	625.8
535.468	624.4
535.869	629.4
536.292	628.6
536.693	649.6
537.115	624.6
537.516	618.2
537.939	619
538.34	634
538.742	633.4
539.165	624.4
539.566	624.8
539.989	612
540.391	615.2
540.814	623.4
541.216	620.6
541.639	617
542.041	623.2
542.464	607
542.866	615
543.268	609.8
543.691	606.4
544.093	623.4
544.517	627.2
544.919	613.4
545.343	640.6
545.745	612.6
546.147	617.4
546.571	615.6
546.974	607.8
547.398	614.4
547.8	634.6
548.224	613.2
548.627	600
549.03	619
549.454	608
549.857	606
550.281	607.8
550.684	607.2
551.087	601
551.512	605
551.915	606
552.34	607.2
552.743	609
553.146	608.6
553.571	608.8
553.975	618.2
554.399	594
554.803	641
555.207	601.6
555.632	590.8
556.036	602.8
556.461	593.8
556.865	593
557.268	593.8
557.694	600.4
558.098	611.2
558.502	601
558.927	595.8
559.332	595.4
559.736	595.8
560.162	607.4
560.566	601
560.992	598.8
561.396	597.2
561.801	597.4
562.227	607.8
562.631	601.8
563.036	602.8
563.462	608.8
563.867	605.8
564.272	589.6
564.698	603.6
565.103	585.6
565.508	607.6
565.935	599.8
566.34	595
566.745	604.2
567.172	591.4
567.577	609.4
567.982	598
568.409	593.6
568.815	588.2
569.22	597.8
569.626	599
570.053	585
570.459	592.4
570.865	594.8
571.292	609
571.698	592.4
572.104	577.6
572.531	590.4
572.937	594
573.343	590.4
573.75	588.6
574.177	595.8
574.583	594.6
574.99	593.2
575.396	596.2
575.824	589.6
576.231	595
576.637	588.2
577.065	608
577.472	580.6
577.879	584
578.286	600.8
578.714	586.4
579.121	587.4
579.528	593.4
579.935	592.2
580.364	594.2
580.771	575.8
581.178	578.8
581.585	589
582.014	586.8
582.421	580
582.829	586.4
583.236	592.6
583.644	582.2
584.073	575.2
584.481	590.8
584.889	581.2
585.296	591.2
585.726	583.4
586.134	583.6
586.542	576.8
586.95	591.6
587.358	577.6
587.787	584.6
588.196	589
588.604	579.8
589.012	571
589.421	572.6
589.851	575.4
590.259	583
590.668	580
591.076	614
591.485	581.6
591.894	575.6
592.324	594.8
592.733	588
593.142	571.2
593.551	577.4
593.96	582
594.369	573.2
594.8	573.4
595.209	581.4
595.618	562.6
596.028	576.8
596.437	580
596.847	573.8
597.256	581
597.687	580
598.097	575.2
598.507	570.8
598.917	577.2
599.327	581.8
599.736	582.6
600.146	593.4
600.556	575.2
600.988	583.6
601.398	575.8
601.808	580.6
602.219	569.8
602.629	579.8
603.039	577.8
603.45	596.2
603.86	574.8
604.271	601.4
604.703	572.8
605.114	580.6
605.525	580.8
605.935	583.8
606.346	601.2
606.757	584.8
607.168	585.4
607.579	574.2
607.99	587.4
608.402	577.2
608.813	595
609.224	580.4
609.636	576
610.047	575.4
610.48	586.8
610.892	591.2
611.303	594.8
611.715	588.8
612.127	576.6
612.539	577.6
612.95	583.4
613.362	577
613.774	580
614.186	585.2
614.599	579.2
615.011	597.6
615.423	579.8
615.835	588.8
616.248	576.8
616.66	597.2
617.073	583
617.485	582.8
617.898	594.6
618.311	583.6
618.723	583.4
619.136	610.4
619.549	597
619.962	607.4
620.375	585
620.788	584.4
621.201	582.2
621.614	600.8
622.028	581
622.441	587.6
622.854	595.8
623.268	575.8
623.681	593.2
624.095	595.6
624.509	592.2
624.922	591.6
625.336	583
625.728	591.6
626.142	594.4
626.556	595.6
626.97	601.6
627.384	589.4
627.799	584
628.213	598.4
628.627	595
629.041	583.2
629.456	586.4
629.87	584
630.285	594.4
630.699	595.6
631.093	588
631.507	599
631.922	588.8
632.337	600.4
632.752	587
633.167	594.4
633.582	586
633.997	584.8
634.412	583.8
634.806	587.6
635.221	577.8
635.637	593
636.052	572.2
636.468	586.2
636.883	594
637.299	581.2
637.715	567.4
638.109	577.4
638.525	576.2
638.941	595
639.357	584
639.773	594
640.189	576.8
640.584	581.8
641	594.4
641.416	572.2
641.832	582.6
642.249	575.6
642.665	583
643.06	592.4
643.477	582.6
643.894	574.8
644.31	580.4
644.727	580.8
645.123	578
645.54	580.6
645.957	589
646.374	585.6
646.77	583.6
647.187	610.8
647.604	578
648.021	566
648.439	575.4
648.835	583
649.252	576.4
649.67	579.4
650.088	574.6
650.484	574
650.902	575
651.32	574.4
651.738	566.8
652.134	570.6
652.552	593.8
652.971	579.2
653.389	577.4
653.786	583.2
654.204	589.6
654.622	565.2
655.019	575.2
655.438	567.8
655.857	575
656.275	577.2
656.673	562.8
657.091	587.6
657.51	564.8
657.908	583.8
658.327	585.8
658.746	561.6
659.144	573.8
659.563	580
659.982	572.6
660.38	570.4
660.8	570
661.219	580.4
661.617	574.2
662.037	572.2
662.457	583.4
662.855	566.8
663.275	593.6
663.695	567.6
664.094	566.4
664.514	575
664.934	570.8
665.333	576.8
665.753	564.4
666.152	565.6
666.572	565.2
666.993	574.2
667.392	569
667.812	565.8
668.212	569.2
668.632	581.4
669.053	566.2
669.453	578.8
669.874	577.6
670.273	574.2
670.694	568.2
671.116	579.8
671.515	579.2
671.937	572.2
672.337	562.8
672.758	567.4
673.158	573.4
673.58	571
673.98	563.2
674.402	579.4
674.824	570.6
675.224	567.6
675.646	565.6
676.047	567.2
676.469	570.2
676.869	566
677.292	570.4
677.693	561.6
678.115	564
678.516	569
678.939	575
679.34	564.6
679.762	578.4
680.164	574.4
680.586	562
680.988	565
681.411	581.6
681.812	562.6
682.236	568
682.637	554.2
683.061	559
683.462	562.8
683.864	568.2
684.288	576.4
684.69	558.8
685.114	578.8
685.516	570
685.94	559.4
686.342	565.6
686.766	559.8
687.168	553.4
687.571	581.6
687.995	560.2
688.398	560
688.822	564.2
689.225	571.6
689.628	579.2
690.052	560.8
690.456	576
690.88	563
691.284	550.6
691.687	571.2
692.112	559.2
692.515	555.4
692.919	559.6
693.344	562.2
693.747	561.8
694.173	562
694.577	580.2
694.98	561.6
695.406	561.8
695.81	568.6
696.214	556
696.64	563.8
697.044	561.8
697.448	570.4
697.874	562
698.279	556
698.684	554.2
699.11	565.6
699.514	561.2
699.919	563.2
700.324	553.8
700.75	566.4
701.156	563.2
701.561	576.4
701.987	568.4
702.393	570
702.798	574.6
703.203	570.4
703.63	559.2
704.036	557.2
704.442	567.8
704.847	561.2
705.274	563.2
705.68	566
706.086	570.2
706.492	553.8
706.92	560.6
707.326	569.6
707.732	561.2
708.139	554.6
708.545	556.4
708.973	558.8
709.38	563.4
709.786	549.6
710.193	576.8
710.6	574.6
711.028	556.4
711.435	564.2
711.842	568
712.249	560
712.656	565.8
713.064	570.2
713.492	561.2
713.9	559
714.307	571
714.715	558.4
715.123	568.6
715.53	569.6
715.938	568.6
716.367	568.8
716.775	557.4
717.184	555.8
717.592	558.8
718	563
718.408	586
718.816	603.8
719.225	565.8
719.633	562
720.042	552.4
720.472	558.8
720.881	582.2
721.29	565.6
721.699	549.2
722.108	557.4
722.517	561.8
722.926	558.8
723.335	571.4
723.744	563.4
724.154	564.8
724.563	558.4
724.973	567
725.382	556.6
725.792	558
726.202	549.6
726.612	574.4
727.022	552.6
727.432	562.2
779.813	557
780.223	594.8
780.634	561.4
781.044	561.2
781.454	560.6
781.865	572.4
782.276	562
782.686	565.2
783.097	565.4
783.508	557
783.919	559.6
784.33	564.8
784.741	574.2
785.152	555.8
785.563	556.2
785.974	556.2
786.386	569.8
786.776	560.2
787.188	559.2
787.599	553.8
788.011	560.4
788.423	571
788.835	558.2
789.247	554.6
789.659	560
790.071	556.4
790.483	593.6
790.874	557.2
791.286	574.8
791.699	552.4
792.111	557.2
792.524	557.8
792.937	558.8
793.349	548
793.741	558.2
794.154	552.6
794.567	567.8
794.98	554.2
795.393	553.4
795.785	577.8
796.198	551.8
796.612	566
797.026	554.2
797.439	551
797.831	552
798.245	553.6
798.659	567.2
799.073	560.4
799.487	552.8
799.88	554.8
800.294	560.2
800.708	559.6
801.123	552
801.516	566.8
801.93	553.2
802.345	553
802.76	562.2
803.153	569.4
803.568	571.8
803.983	569.6
804.377	569.2
804.792	553.6
805.207	558.8
805.601	558.4
806.016	588.6
806.432	556.4
806.826	582.6
807.242	569.4
807.658	563.2
808.052	554
808.468	560.6
808.884	561.2
809.279	555.4
809.695	572.6
810.111	573
810.506	564.2
810.922	575
811.339	554
811.734	570.2
812.151	556.6
812.546	560.4
812.963	557
813.38	565.4
813.776	569.4
814.193	575.8
814.589	561.6
815.006	560.8
815.402	551.2
815.82	563.8
816.237	567.4
816.633	574.4
817.051	554.6
817.448	562
817.866	554.2
818.262	576.2
818.68	556.6
819.077	562.2
819.495	561.6
819.892	599
820.311	557.2
820.708	558.4
821.127	553.2
821.524	569
821.943	563.6
822.34	574.8
822.759	560.6
823.157	555.8
823.576	569.8
823.974	567.4
824.393	579
824.791	559.6
825.189	545
825.609	557
826.007	561.6
826.427	547.6
826.826	552.8
827.246	564.6
827.644	551.2
828.043	569
828.463	554.4
828.862	569.8
829.261	560.4
829.682	544.6
830.081	566.6
830.502	558.6
830.901	563.4
831.301	577
831.722	550.4
832.121	561.4
832.521	556.4
832.943	561.4
833.342	557.6
833.742	556
834.164	559.2
834.564	556.2
834.965	562.6
835.386	554.4
835.787	557.8
836.188	558
836.588	556.4
837.01	559.8
837.411	554.2
837.812	558.8
838.213	564.8
838.636	552
839.037	604.6
839.438	555
839.84	564
840.263	558.8
840.664	556.4
841.066	556.6
841.468	558.4
841.891	556
842.293	563
842.695	565.8
843.098	561.4
843.5	553.4
843.902	557.6
844.326	551.6
844.729	565.8
845.131	565
845.534	562
845.937	569.6
846.34	568
846.764	553.6
847.167	560.4
847.571	551.2
847.974	557
848.377	558.2
848.781	607.8
849.184	564.2
849.588	551.4
849.992	552
850.396	558.2
850.821	569.4
851.225	563.8
851.63	554
852.034	564.2
852.438	561.8
852.843	625.2
853.247	547.4
853.652	556
854.057	577.8
854.462	564
854.867	564.8
855.272	591.6
855.677	562.2
856.082	553.4
