#lambda/nm	C1
208.295	568.4
208.67	504.4
209.045	464.4
209.419	459.2
209.794	584.8
210.169	574.6
210.544	673
210.919	596.4
211.295	580.8
211.67	585.8
212.045	585.4
212.421	582
212.796	612.4
213.172	585
213.547	574.8
213.923	576.6
214.299	579
214.675	589.8
215.051	591.8
215.427	585.6
215.803	599.2
216.179	577.8
216.555	581.2
216.932	587.4
217.308	582.4
217.684	586
218.061	581.8
218.438	589
218.814	576.6
219.191	596
219.568	578.6
219.945	577.2
220.322	585.4
220.699	582.6
221.076	583.6
221.453	578.2
221.83	579.4
222.208	582
222.585	580.2
222.962	585.8
223.34	576.6
223.717	579.8
224.095	577.4
224.473	577.4
224.851	570.8
225.229	574
225.607	588
225.985	571.6
226.363	578.8
226.741	581.8
227.119	577.6
227.497	588.2
227.876	575.4
228.254	587.4
228.633	588.6
229.011	578.6
229.39	592
229.769	587.2
230.148	588.8
230.527	592
230.905	578.8
231.284	586.4
231.664	578.6
232.043	596.6
232.422	589
232.801	578
233.181	582.2
233.56	580.8
233.94	580.6
234.319	576.8
234.699	580.2
235.079	607.8
235.458	619
235.838	600.4
236.218	575.2
236.598	576.2
236.978	575.6
237.358	575
237.738	578.6
238.119	586.6
238.499	573.4
238.88	584.6
239.26	590.4
239.641	573.2
240.021	582.4
240.402	579.2
240.783	578.2
241.163	583
241.544	586.8
241.925	577.4
242.306	587.4
242.687	586.2
243.069	575.6
243.45	587.6
243.831	580.6
244.212	576.8
244.594	607.2
244.975	590.6
245.357	578.2
245.739	579.2
246.12	582.6
246.502	586.8
246.884	581.2
247.266	583.8
247.648	587
248.03	601.4
248.412	581.2
248.794	585.4
249.176	584.6
249.559	591.6
249.941	574.8
250.323	570.2
250.706	580
251.089	581
251.471	588
251.854	578.2
252.237	576.2
252.62	587.4
253.002	580.4
253.385	583.8
253.769	590.6
254.152	578.6
254.535	583.2
254.918	579.4
255.301	573.6
255.685	579
256.068	577.8
256.452	588.2
256.835	581.8
257.219	583.8
257.603	588.4
257.986	577.6
258.37	582.8
258.754	575.6
259.138	593.2
259.522	586.4
259.906	577.8
260.29	583.8
260.675	584.2
261.059	582.6
261.443	575.4
261.828	579
262.212	589
262.597	569.2
262.981	588.8
263.366	591.6
263.751	588.8
264.136	587.2
264.521	579.4
264.906	572.2
265.291	587.2
265.676	575.6
266.061	584
266.446	596.4
266.831	581
267.217	600.4
267.602	583.8
267.987	586.6
268.373	580.6
268.759	592.6
269.144	581.8
269.53	574
269.916	582.2
270.302	581.8
270.688	585.6
271.074	583.2
271.46	586.8
271.846	601.2
272.232	580.2
272.618	577.4
273.004	579.6
273.391	579.6
273.777	595.6
274.164	580.8
274.55	584.6
274.937	586
275.324	576
275.71	584
276.097	585.6
276.484	567.6
276.871	587.4
277.258	582.4
277.645	566.6
278.032	575.2
278.419	580.6
278.807	584.6
279.194	571.8
279.581	578.8
279.969	585
280.356	580.6
280.744	580.6
281.131	596.6
281.519	582.2
281.907	580.8
282.295	576.6
282.682	591.6
283.07	586.4
283.458	588.6
283.846	589.4
284.235	597
284.623	589.6
285.011	583.8
285.399	588
285.788	587.2
286.176	572
286.565	587.4
286.953	575.6
287.342	575.8
287.731	579.8
288.119	575.2
288.508	577.6
288.897	581.2
289.286	573
289.675	584.2
290.064	586.4
290.453	577.6
290.821	580.2
291.21	597.2
291.599	575.2
291.989	578.4
292.378	586.2
292.768	597.4
293.157	587.2
293.547	585.2
293.936	577.6
294.326	569.4
294.716	586.4
295.106	584.4
295.496	582.2
295.886	589.4
296.276	583.4
296.666	570.8
297.056	580.6
297.446	569.8
297.836	598.8
298.227	580
298.617	582
299.008	586.6
299.398	579.6
299.789	578
300.179	577.2
300.57	594.8
300.961	582.4
301.352	582.4
301.742	581.8
302.133	583.8
302.524	583.8
302.915	578.8
303.307	569.4
303.698	595.2
304.089	586.6
304.48	581
304.872	577.6
305.263	583.6
305.655	577.8
306.046	583.4
306.438	581
306.829	575
307.221	597.2
307.613	591.4
308.005	592.6
308.397	587.8
308.789	598
309.181	602.4
309.573	595
309.965	598.2
310.357	576
310.749	588.8
311.142	570.2
311.534	583.2
311.926	579.2
312.319	575.4
312.711	574.2
313.104	596.2
313.497	573.4
313.889	614
314.282	592
314.675	602.2
315.068	586
315.461	583.2
315.854	604.6
316.247	581.6
316.64	582
317.033	581
317.405	579.4
317.798	579
318.192	577.4
318.585	573.2
318.979	582.6
319.372	571.6
319.766	577.6
320.16	591
320.553	594.4
320.947	590.6
321.341	581.2
321.735	580.6
322.129	573.6
322.523	599.4
322.917	577.4
323.311	586.4
323.705	575.4
324.099	576.6
324.494	592.8
324.888	584.6
325.282	574.6
325.677	587.2
326.071	583.8
326.466	595.6
326.861	577
327.255	587.4
327.65	592
328.045	583.4
328.44	576
328.835	582.4
329.23	575
329.625	600.2
330.02	579.8
330.415	598
330.81	577
331.206	576.6
331.601	573
331.996	588.4
332.37	599.8
332.766	571.4
333.161	602.2
333.557	573.6
333.953	584
334.348	864.2
334.744	585
335.14	573.8
335.536	572
335.932	595
336.328	582.2
336.724	589
337.12	579
337.516	580
337.913	587.4
338.309	592.2
338.705	582
339.102	590
339.498	581.2
339.895	595.2
340.291	572
340.688	589
341.085	582.6
341.481	578.6
341.878	584.2
342.275	594.6
342.672	575.4
343.069	575.2
343.466	568
343.842	591.6
344.239	580
344.636	580.4
345.033	576.8
345.431	570.6
345.828	585.8
346.225	575.4
346.623	609.6
347.02	576.8
347.418	586.4
347.816	589.8
348.213	578.6
348.611	591.6
349.009	582.6
349.407	587
349.805	571.2
350.203	571.6
350.601	582.2
350.999	571
351.397	627.6
351.795	568.2
352.193	590.2
352.57	581.4
352.969	588.2
353.367	563.8
353.766	577
354.164	575.8
354.563	585.8
354.961	580.4
355.36	573.4
355.759	567.4
356.158	570.4
356.557	571.4
356.956	569.8
357.355	574
357.754	577.2
358.153	584
358.552	600.8
358.951	574.4
359.35	588.8
359.75	569.4
360.149	570.2
360.527	571.6
360.926	571.2
361.326	584.4
361.726	575
362.125	574.8
362.525	581.2
362.925	575.4
363.325	582.8
363.724	583.4
364.124	575.6
364.524	574.4
364.924	565.4
365.324	585.2
365.725	568.4
366.125	583.4
366.525	574.2
366.904	574.8
367.304	563
367.705	588.2
368.105	590.6
368.506	584.6
368.906	576.6
369.307	576
369.708	574.6
370.108	567.4
370.509	575.6
370.91	574.4
371.311	577.8
371.712	572.6
372.113	576.8
372.514	561.6
372.894	570
373.295	573.4
373.696	584.6
374.097	580
374.499	592.4
374.9	578.6
375.301	568.2
375.703	577.2
376.105	573.8
376.506	578.4
376.908	580
377.309	579.2
377.711	578.4
378.113	567
378.493	577.4
378.895	569.8
379.297	584.4
379.699	566.6
380.102	575.2
380.504	573.4
380.906	570.8
381.308	594.2
381.71	577.8
382.113	579
382.515	580.6
382.918	579.8
383.299	570.8
383.701	583.2
384.104	584
384.507	556.6
384.909	575.4
385.312	567.2
385.715	574
386.118	569
386.521	563.4
386.924	578.6
387.327	574.8
387.709	564.6
388.112	564.4
388.515	573.8
388.918	570.8
389.322	578.8
389.725	573.8
390.129	586.4
390.532	574.4
390.936	574
391.339	565.6
391.743	570.4
392.125	570.6
392.529	577.2
392.933	582.6
393.337	574.8
393.74	571
394.144	572
394.548	569
394.953	564
395.357	583.4
395.761	571
396.144	578
396.548	572.6
396.952	576.2
397.357	573
397.761	566.4
398.166	569.6
398.57	579.4
398.975	569.6
399.379	573
399.763	615.4
400.168	571.4
400.572	571.4
400.977	573.8
401.382	584.4
401.787	575.8
402.192	589.8
402.597	590
403.002	559
403.386	582.2
403.791	592
404.197	574.6
404.602	573.8
405.007	577.4
405.413	568
405.818	571.6
406.224	566
406.608	571.2
407.014	565.8
407.42	587
407.825	570.4
408.231	580.8
408.637	572.6
409.043	583.8
409.449	573.4
409.834	571.8
410.24	568.4
410.646	584.8
411.052	581.4
411.458	575.6
411.865	580.8
412.271	582.2
412.677	572.2
413.062	578.2
413.469	568.2
413.875	586.6
414.282	583.8
414.689	571.2
415.095	573.6
415.502	561.2
415.888	575
416.294	561.8
416.701	596.8
417.108	566.4
417.515	577.6
417.923	564.4
418.33	589.4
418.715	576.2
419.123	572.2
419.53	575.2
419.937	566.4
420.345	579.4
420.752	568.2
421.16	582
421.546	573.4
421.953	577.2
422.361	570.2
422.769	569.2
423.177	571.6
423.585	586.8
423.992	588.2
424.379	581.2
424.787	581.8
425.195	586.2
425.603	573.8
426.011	587.6
426.419	575.6
426.806	578
427.214	581.8
427.623	582.4
428.031	591.8
428.44	582.4
428.848	590.2
429.235	598.6
429.644	581.4
430.053	576.2
430.461	600
430.87	607.8
431.279	594.2
431.666	587.8
432.075	594.6
432.484	601.4
432.893	593.4
433.302	625.2
433.711	641.8
434.099	618.8
434.508	614.4
434.918	614.4
435.327	629.6
435.737	621.6
436.125	640.8
436.534	649.8
436.944	653.8
437.353	662.2
437.763	668.4
438.173	653.4
438.561	669.2
438.971	659.4
439.381	678.8
439.791	682
440.201	683.6
440.589	694.6
440.999	695.6
441.409	701.4
441.819	697.2
442.23	725.4
442.619	724.6
443.029	714
443.439	722.8
443.85	729.2
444.26	733.4
444.649	736.8
445.06	735.2
445.471	730.6
445.881	739.4
446.292	750.6
446.682	760.8
447.092	728
447.503	790.4
447.914	750
448.325	747.2
448.715	752.6
449.126	739.4
449.537	753.4
449.948	754.4
450.338	747.2
450.75	768.8
451.161	760.8
451.572	769.4
451.984	757.4
452.374	741
452.786	766.6
453.197	767.2
453.609	765
453.999	748.2
454.411	750.8
454.823	770
455.235	776
455.647	760
456.037	769
456.449	762.2
456.862	778.8
457.274	768
457.665	758.8
458.077	776.6
458.489	794.4
458.902	774.2
459.293	781.6
459.705	785.8
460.118	772
460.53	771.2
460.921	775.6
461.334	785
461.747	769.4
462.16	792.4
462.551	792
462.964	789.2
463.377	778.4
463.79	764.4
464.182	780.8
464.595	769
465.008	787.2
465.421	786
465.813	772.4
466.226	773.4
466.64	773.8
467.053	802.6
467.445	782.4
467.859	791.6
468.272	775.4
468.686	780
469.078	768.8
469.492	762
469.906	777
470.298	773.2
470.712	770.4
471.126	803.2
471.54	756.6
471.933	764.8
472.347	763.8
472.761	771.8
473.175	766.6
473.568	773.8
473.982	762.4
474.397	766
474.79	767.8
475.204	781.4
475.619	771.2
476.033	770.4
476.426	767.2
476.841	772.8
477.256	784
477.649	758.6
478.064	760
478.479	766
478.872	758.4
479.287	753.2
479.702	754.6
480.118	760.8
480.511	748.2
480.927	751.2
481.342	757.6
481.736	753.6
482.151	746.8
482.566	766.6
482.96	754.2
483.376	761.8
483.792	745.8
484.186	756.8
484.602	741.6
485.017	738.2
485.412	754
485.827	744.4
486.243	739.6
486.638	756.2
487.054	743.2
487.47	756
487.865	733.4
488.281	733
488.697	729.4
489.092	739.4
489.508	731.4
489.925	737.4
490.32	727.6
490.736	730.8
491.153	735.4
491.548	726.2
491.964	737.2
492.381	723
492.776	737
493.193	721
493.61	731.4
494.006	722.2
494.422	725.4
494.84	719
495.235	734.4
495.652	713
496.069	720
496.465	711.4
496.883	722.8
497.3	733.8
497.696	702.2
498.113	717
498.509	702.8
498.927	696.8
499.344	705.2
499.741	712
500.158	712.8
500.576	717.2
500.973	708
501.39	706.8
501.787	692.8
502.205	703
502.623	701.4
503.02	692
503.438	692.2
503.856	681.2
504.253	699.2
504.671	692.6
505.068	685.8
505.486	688.6
505.905	699.6
506.302	685.4
506.72	684
507.118	685.2
507.536	688.2
507.955	691.8
508.352	681.2
508.771	682.4
509.169	684.4
509.587	671.6
510.006	681
510.404	669
510.823	667.4
511.221	665.8
511.64	657
512.038	679.6
512.457	669.6
512.877	662
513.275	661.8
513.694	661.4
514.092	657.2
514.512	666.6
514.91	673.6
515.33	658.8
515.749	655.4
516.148	666.8
516.568	663.6
516.966	656
517.386	655.6
517.785	647.6
518.205	650.6
518.603	644.8
519.024	650.2
519.444	654
519.843	650.2
520.263	652.6
520.662	643
521.082	644.4
521.481	653.2
521.902	646.6
522.301	651.8
522.722	645
523.121	644.6
523.542	632.6
523.963	637.4
524.362	635.6
524.783	647.4
525.183	638
525.604	643.4
526.003	627
526.425	633
526.824	637.8
527.246	643
527.646	642
528.067	636.2
528.467	638.2
528.888	639.2
529.289	632.4
529.71	635.6
530.11	626.4
530.532	633.4
530.932	631.2
531.354	632.2
531.755	654.2
532.176	633
532.577	629.2
532.999	627.4
533.4	619
533.822	635
534.223	628.8
534.645	621.6
535.046	613.8
535.468	621.4
535.869	642.4
536.292	627.4
536.693	645.4
537.115	627
537.516	621.6
537.939	610.4
538.34	634
538.742	626.6
539.165	615.6
539.566	626.6
539.989	621.4
540.391	617.6
540.814	617.8
541.216	613.6
541.639	622.8
542.041	626
542.464	619.4
542.866	609.2
543.268	607.2
543.691	617.2
544.093	619.6
544.517	626.8
544.919	607.2
545.343	630.6
545.745	606.2
546.147	613.6
546.571	611.6
546.974	603.2
547.398	609.2
547.8	618
548.224	602.8
548.627	596.2
549.03	604.6
549.454	592.8
549.857	598.6
550.281	597.4
550.684	602.8
551.087	607.2
551.512	603
551.915	609.8
552.34	597.2
552.743	602.6
553.146	595.4
553.571	597.2
553.975	609.4
554.399	593.4
554.803	637
555.207	596.6
555.632	594.8
556.036	599
556.461	592.6
556.865	596.8
557.268	605
557.694	588.2
558.098	594.6
558.502	603
558.927	590.8
559.332	589.8
559.736	596.6
560.162	596.8
560.566	592.6
560.992	598.6
561.396	591.4
561.801	591.2
562.227	594
562.631	590.8
563.036	587.4
563.462	607.8
563.867	592.4
564.272	572.4
564.698	585.8
565.103	578.2
565.508	603.8
565.935	585.4
566.34	583
566.745	599.6
567.172	581.6
567.577	599.2
567.982	589.2
568.409	593.4
568.815	576.8
569.22	585.6
569.626	585.6
570.053	574.8
570.459	583.4
570.865	589
571.292	592.2
571.698	589.6
572.104	578.6
572.531	580.8
572.937	586.2
573.343	578.4
573.75	589.8
574.177	590.2
574.583	581.8
574.99	576.2
575.396	588.6
575.824	582.6
576.231	590.8
576.637	579.8
577.065	599.8
577.472	584
577.879	588.4
578.286	592.4
578.714	573.6
579.121	576.6
579.528	579.2
579.935	589.6
580.364	582.4
580.771	564.6
581.178	580
581.585	584.4
582.014	582.2
582.421	576.2
582.829	575
583.236	584.2
583.644	565.8
584.073	573.2
584.481	576.2
584.889	569.4
585.296	579.2
585.726	567.6
586.134	571.8
586.542	571.8
586.95	588.2
587.358	572.2
587.787	577
588.196	583.2
588.604	576.2
589.012	571.6
589.421	562
589.851	571.2
590.259	572
590.668	570.4
591.076	603
591.485	569
591.894	570.4
592.324	584.6
592.733	589.2
593.142	565.2
593.551	570.6
593.96	585.4
594.369	557.4
594.8	562.2
595.209	574.2
595.618	558.6
596.028	559.8
596.437	567.6
596.847	572.8
597.256	568.6
597.687	569.6
598.097	571
598.507	566.6
598.917	569.8
599.327	568
599.736	571
600.146	583.2
600.556	572.8
600.988	582.8
601.398	575.6
601.808	575.4
602.219	564.6
602.629	574.6
603.039	568.8
603.45	586.2
603.86	571.4
604.271	581.2
604.703	570.2
605.114	561.4
605.525	567.8
605.935	566.2
606.346	579.6
606.757	568
607.168	564
607.579	561.2
607.99	571.2
608.402	564.8
608.813	569
609.224	564.6
609.636	567
610.047	566.6
610.48	567.2
610.892	571.2
611.303	567
611.715	570.2
612.127	559.4
612.539	564.8
612.95	565.4
613.362	553
613.774	555.6
614.186	556.4
614.599	556.4
615.011	563.8
615.423	561.2
615.835	558
616.248	552
616.66	568
617.073	556.6
617.485	563.4
617.898	573.8
618.311	558.8
618.723	565.8
619.136	590.2
619.549	575.8
619.962	582.6
620.375	562.6
620.788	566.6
621.201	569
621.614	573
622.028	558.4
622.441	571.4
622.854	568.4
623.268	560.4
623.681	558.4
624.095	568.4
624.509	574.8
624.922	565.6
625.336	557.6
625.728	568
626.142	567.4
626.556	582.2
626.97	564.4
627.384	559.8
627.799	558.4
628.213	567.8
628.627	561
629.041	561.2
629.456	561.2
629.87	559.8
630.285	574.2
630.699	573
631.093	565.6
631.507	568.6
631.922	572.8
632.337	576.6
632.752	562.2
633.167	564.8
633.582	556.2
633.997	555.6
634.412	559.8
634.806	562.8
635.221	554.4
635.637	572.8
636.052	563
636.468	560.6
636.883	580.2
637.299	568.8
637.715	550.2
638.109	556.4
638.525	555
638.941	573.8
639.357	566
639.773	574.6
640.189	566
640.584	561.6
641	557.4
641.416	556.4
641.832	562.8
642.249	565.6
642.665	561.4
643.06	562
643.477	571.6
643.894	554
644.31	558
644.727	548.4
645.123	559.4
645.54	562.2
645.957	563
646.374	570.8
646.77	561
647.187	584.2
647.604	557.8
648.021	551.8
648.439	560
648.835	561.6
649.252	556.4
649.67	566.4
650.088	551.2
650.484	558.4
650.902	556.6
651.32	567.2
651.738	559.2
652.134	559.6
652.552	577.6
652.971	565.2
653.389	555.4
653.786	567
654.204	580.4
654.622	561.6
655.019	557.2
655.438	565.6
655.857	558
656.275	566.6
656.673	559.6
657.091	563
657.51	562.2
657.908	561
658.327	573
658.746	555.4
659.144	559.4
659.563	573.6
659.982	564
660.38	552.4
660.8	562.4
661.219	566.6
661.617	567.4
662.037	554
662.457	573
662.855	552.2
663.275	576.6
663.695	562.4
664.094	560.8
664.514	559.2
664.934	557
665.333	568
665.753	553.8
666.152	559.2
666.572	554
666.993	572
667.392	558.8
667.812	553.8
668.212	557.8
668.632	567.2
669.053	548.6
669.453	561.8
669.874	557.6
670.273	569
670.694	556.4
671.116	560.8
671.515	564
671.937	557.4
672.337	560.8
672.758	556
673.158	566.2
673.58	555.8
673.98	560
674.402	572.2
674.824	565.6
675.224	558.4
675.646	546.6
676.047	549.8
676.469	563.2
676.869	562.8
677.292	558.6
677.693	552.2
678.115	550.6
678.516	563.6
678.939	556
679.34	555.8
679.762	561.4
680.164	564.2
680.586	552.4
680.988	562
681.411	570.2
681.812	550.4
682.236	547.4
682.637	541.2
683.061	552.2
683.462	552.6
683.864	550.4
684.288	563
684.69	550
685.114	560.6
685.516	562.8
685.94	547
686.342	558.8
686.766	554.4
687.168	555.6
687.571	572.2
687.995	556
688.398	547.4
688.822	553.4
689.225	572
689.628	573.6
690.052	557.8
690.456	565.8
690.88	555.2
691.284	548.4
691.687	564.4
692.112	552
692.515	555.2
692.919	562.2
693.344	569.2
693.747	551.2
694.173	554.8
694.577	557.8
694.98	558.8
695.406	553
695.81	562
696.214	560.6
696.64	561.8
697.044	556.8
697.448	564.6
697.874	560.4
698.279	554.8
698.684	549.8
699.11	550.8
699.514	562
699.919	551.8
700.324	553.4
700.75	564.2
701.156	560.6
701.561	565.4
701.987	559.2
702.393	565.8
702.798	561.2
703.203	557.2
703.63	541.4
704.036	552.4
704.442	558.4
704.847	546.6
705.274	548.6
705.68	558.2
706.086	557.4
706.492	544.6
706.92	553.4
707.326	567.6
707.732	551.4
708.139	551
708.545	545.6
708.973	549.2
709.38	551.6
709.786	547.4
710.193	565.2
710.6	558
711.028	546.6
711.435	562.8
711.842	559.8
712.249	542.2
712.656	549.6
713.064	554.6
713.492	550.4
713.9	554.4
714.307	561.2
714.715	551.6
715.123	560.6
715.53	554.6
715.938	562.6
716.367	555.2
716.775	555.6
717.184	550
717.592	547
718	564.4
718.408	582.2
718.816	591.2
719.225	561.2
719.633	559.2
720.042	551.4
720.472	559.2
720.881	570
721.29	561.2
721.699	552.8
722.108	553.8
722.517	561
722.926	550.4
723.335	560.4
723.744	552.2
724.154	543.8
724.563	557.6
724.973	557
725.382	557.2
725.792	555.6
726.202	549
726.612	567.4
727.022	551.2
727.432	552.2
779.813	557.2
780.223	585.4
780.634	551.4
781.044	547.6
781.454	557
781.865	564.4
782.276	550.8
782.686	565.6
783.097	552.4
783.508	554.4
783.919	563
784.33	565.8
784.741	564.8
785.152	547.6
785.563	551
785.974	551
786.386	562
786.776	549.2
787.188	548.4
787.599	542.2
788.011	563.6
788.423	558.4
788.835	547.2
789.247	547.6
789.659	547.8
790.071	550.2
790.483	581.6
790.874	549.8
791.286	551.6
791.699	548
792.111	552.2
792.524	555
792.937	550
793.349	547.6
793.741	550
794.154	549
794.567	568.8
794.98	549.6
795.393	539
795.785	562
796.198	548
796.612	551.6
797.026	551.8
797.439	544.4
797.831	552
798.245	545.8
798.659	551.6
799.073	540.2
799.487	550.6
799.88	553.6
800.294	553
800.708	554.6
801.123	552
801.516	565.2
801.93	550.8
802.345	546
802.76	545.4
803.153	566.8
803.568	558.8
803.983	553.6
804.377	555.6
804.792	547.4
805.207	535.8
805.601	554.2
806.016	583
806.432	549.4
806.826	573.6
807.242	560.8
807.658	554.6
808.052	546.2
808.468	547.8
808.884	548.4
809.279	554.4
809.695	565.2
810.111	560.8
810.506	559.6
810.922	560.4
811.339	543.4
811.734	559.8
812.151	552
812.546	542.6
812.963	544.6
813.38	552.2
813.776	551.2
814.193	567.2
814.589	545.6
815.006	546.2
815.402	542.4
815.82	548.4
816.237	555.8
816.633	551.6
817.051	541.2
817.448	555.6
817.866	542
818.262	575.6
818.68	551.4
819.077	549
819.495	549.8
819.892	576.2
820.311	549.4
820.708	549.6
821.127	552.2
821.524	561
821.943	557.4
822.34	565
822.759	550.2
823.157	562.8
823.576	563.6
823.974	559.6
824.393	576.2
824.791	548.2
825.189	551.2
825.609	549.4
826.007	548
826.427	543.2
826.826	544.8
827.246	555.2
827.644	539.4
828.043	554.4
828.463	551.4
828.862	550.8
829.261	549.8
829.682	542.6
830.081	557
830.502	542.2
830.901	553.4
831.301	558
831.722	549
832.121	548.4
832.521	550.6
832.943	552
833.342	554.4
833.742	544
834.164	551.6
834.564	538.4
834.965	548.4
835.386	549.4
835.787	553.6
836.188	556.6
836.588	552
837.01	554.6
837.411	549
837.812	557.4
838.213	557.8
838.636	548.8
839.037	606.4
839.438	555.2
839.84	552
840.263	558.8
840.664	547.8
841.066	547
841.468	551.4
841.891	544.6
842.293	565
842.695	554.8
843.098	560.4
843.5	543.2
843.902	551.4
844.326	555.6
844.729	549.6
845.131	557.8
845.534	559
845.937	556.2
846.34	567.4
846.764	540.6
847.167	549.8
847.571	546.6
847.974	557.8
848.377	551.4
848.781	588.4
849.184	553.8
849.588	552.6
849.992	550.4
850.396	549.4
850.821	563.4
851.225	558.2
851.63	554.2
852.034	562.8
852.438	552.2
852.843	604.6
853.247	544.8
853.652	547
854.057	567.2
854.462	545
854.867	559
855.272	583.2
855.677	557.4
