#lambda/nm	C1
208.295	561.6
208.67	501.2
209.045	459.6
209.419	454.4
209.794	601.8
210.169	584.4
210.544	685.4
210.919	602.6
211.295	592.4
211.67	597.4
212.045	590.4
212.421	595
212.796	619.4
213.172	585.4
213.547	588.8
213.923	581.8
214.299	595.8
214.675	600
215.051	597.6
215.427	595.2
215.803	599.2
216.179	598.2
216.555	583.6
216.932	592.8
217.308	589
217.684	596
218.061	599.4
218.438	596.2
218.814	582.6
219.191	596.4
219.568	587.4
219.945	591.8
220.322	589
220.699	588.4
221.076	591.6
221.453	597.8
221.83	576.8
222.208	580
222.585	582.4
222.962	597.6
223.34	588
223.717	593.4
224.095	584
224.473	590.6
224.851	586.8
225.229	577.6
225.607	603.4
225.985	586.8
226.363	589.6
226.741	588.2
227.119	585.8
227.497	601
227.876	580.4
228.254	593.6
228.633	592.8
229.011	601
229.39	593
229.769	592.4
230.148	602.2
230.527	602.2
230.905	588.2
231.284	593
231.664	576.4
232.043	598
232.422	593.2
232.801	577.4
233.181	597.6
233.56	586.6
233.94	587.6
234.319	582.2
234.699	590.6
235.079	620
235.458	623.2
235.838	614
236.218	591.2
236.598	583.2
236.978	588.8
237.358	584.2
237.738	582
238.119	597
238.499	584.6
238.88	589.8
239.26	606
239.641	582.8
240.021	586.8
240.402	587.2
240.783	587.4
241.163	593
241.544	595.8
241.925	587.6
242.306	599
242.687	594
243.069	586.8
243.45	596
243.831	582.4
244.212	584.6
244.594	616.8
244.975	595.2
245.357	594
245.739	583
246.12	590
246.502	600.8
246.884	594.4
247.266	583.8
247.648	584.4
248.03	606.4
248.412	594.6
248.794	590.8
249.176	589.2
249.559	596
249.941	582
250.323	586.4
250.706	586
251.089	587.6
251.471	594
251.854	587.6
252.237	595
252.62	593.4
253.002	588.2
253.385	583.8
253.769	608.8
254.152	588
254.535	598
254.918	585.4
255.301	594.4
255.685	589.2
256.068	589.4
256.452	615.4
256.835	594.4
257.219	599.2
257.603	606.8
257.986	583.2
258.37	600.4
258.754	581.4
259.138	594.8
259.522	610.4
259.906	586.6
260.29	591.6
260.675	594.6
261.059	591.6
261.443	582.6
261.828	590.8
262.212	603.6
262.597	589.8
262.981	583.2
263.366	594
263.751	589.8
264.136	580.4
264.521	594.4
264.906	588
265.291	593.2
265.676	588.4
266.061	600
266.446	601.6
266.831	583
267.217	602
267.602	599.2
267.987	586.2
268.373	587.2
268.759	597
269.144	603.8
269.53	589.6
269.916	586.6
270.302	589
270.688	601.8
271.074	592.2
271.46	597.4
271.846	616
272.232	596.2
272.618	587.6
273.004	590
273.391	602.4
273.777	604
274.164	589.8
274.55	602.4
274.937	594.6
275.324	584.6
275.71	595.4
276.097	593.6
276.484	587.2
276.871	595.4
277.258	588.4
277.645	578
278.032	589.8
278.419	589
278.807	589
279.194	584.8
279.581	585.2
279.969	595.6
280.356	591.6
280.744	589.4
281.131	609.8
281.519	592
281.907	580.6
282.295	583
282.682	604.2
283.07	589
283.458	596.2
283.846	596.8
284.235	602.4
284.623	604.2
285.011	583.4
285.399	597.4
285.788	591.6
286.176	585.8
286.565	598.8
286.953	587.4
287.342	593.2
287.731	582.4
288.119	578
288.508	581.8
288.897	592.4
289.286	579.8
289.675	594.4
290.064	594.4
290.453	583.8
290.821	583.8
291.21	612.6
291.599	590.2
291.989	590.4
292.378	594.6
292.768	610.8
293.157	600.2
293.547	594
293.936	586.2
294.326	578
294.716	590
295.106	584.4
295.496	600.2
295.886	592.8
296.276	600
296.666	588
297.056	587.8
297.446	577.6
297.836	606.6
298.227	581.8
298.617	594
299.008	603.2
299.398	588.8
299.789	590.6
300.179	593.6
300.57	600.6
300.961	582.6
301.352	590
301.742	597.8
302.133	591
302.524	589.4
302.915	600.4
303.307	585.4
303.698	600.8
304.089	596.8
304.48	593.6
304.872	599.8
305.263	589.6
305.655	587.6
306.046	602.2
306.438	589.4
306.829	586
307.221	599.2
307.613	587.6
308.005	603.2
308.397	595.2
308.789	611
309.181	610
309.573	601.2
309.965	598.6
310.357	589.8
310.749	608.4
311.142	584.4
311.534	587.2
311.926	593
312.319	590.4
312.711	587.4
313.104	606
313.497	586.4
313.889	625
314.282	607.2
314.675	610.4
315.068	594.4
315.461	597.8
315.854	613.4
316.247	591.6
316.64	593.8
317.033	582
317.405	599.4
317.798	593
318.192	590.8
318.585	580.2
318.979	591.6
319.372	583
319.766	589.2
320.16	602
320.553	593.6
320.947	610.4
321.341	587.4
321.735	590
322.129	575.6
322.523	611.4
322.917	585.8
323.311	596.6
323.705	593.6
324.099	592
324.494	604.4
324.888	593
325.282	589.8
325.677	592.6
326.071	600
326.466	604
326.861	596.6
327.255	593
327.65	604
328.045	595.8
328.44	594.4
328.835	581.4
329.23	586.2
329.625	609.2
330.02	586.8
330.415	611.8
330.81	594
331.206	594.4
331.601	592
331.996	602.6
332.37	611.2
332.766	577.6
333.161	606
333.557	584.4
333.953	590
334.348	898.6
334.744	593.8
335.14	594.2
335.536	588.2
335.932	594.6
336.328	594.4
336.724	602.4
337.12	595
337.516	594.4
337.913	602.2
338.309	599
338.705	599.8
339.102	600
339.498	584.6
339.895	599.6
340.291	585.4
340.688	602.2
341.085	585
341.481	590.6
341.878	588.2
342.275	607.8
342.672	582.4
343.069	585
343.466	576
343.842	598.8
344.239	578.8
344.636	584.2
345.033	585.8
345.431	579.2
345.828	593.2
346.225	580.8
346.623	615.6
347.02	590
347.418	592
347.816	604.6
348.213	583.4
348.611	590.2
349.009	590.8
349.407	597.4
349.805	582.2
350.203	578.2
350.601	604.8
350.999	591.4
351.397	623.8
351.795	585.8
352.193	598.2
352.57	590.8
352.969	595.4
353.367	588.4
353.766	578.4
354.164	588.6
354.563	592
354.961	589.4
355.36	589.2
355.759	590
356.158	580
356.557	579.4
356.956	582
357.355	575.4
357.754	590.6
358.153	600.8
358.552	603.4
358.951	592.8
359.35	597.4
359.75	587
360.149	580.2
360.527	576.4
360.926	578
361.326	583.6
361.726	582.8
362.125	585
362.525	591.2
362.925	590.2
363.325	592
363.724	587.2
364.124	579.8
364.524	582.4
364.924	587.6
365.324	598.4
365.725	576
366.125	594.6
366.525	579
366.904	577.8
367.304	578
367.705	598.2
368.105	597
368.506	588
368.906	577.6
369.307	587.4
369.708	583.6
370.108	582.6
370.509	587.6
370.91	574.2
371.311	587.8
371.712	586
372.113	576.6
372.514	576
372.894	586.8
373.295	582.2
373.696	588.6
374.097	589.6
374.499	609.6
374.9	592
375.301	578.8
375.703	581.4
376.105	576.2
376.506	585.6
376.908	590.4
377.309	586.6
377.711	582.6
378.113	582
378.493	587.4
378.895	575.2
379.297	589
379.699	573
380.102	591
380.504	579.6
380.906	578.6
381.308	598.8
381.71	584.6
382.113	590.2
382.515	584
382.918	590
383.299	579
383.701	591.8
384.104	581.4
384.507	563.2
384.909	585.8
385.312	568.8
385.715	577.4
386.118	580.6
386.521	570
386.924	583.2
387.327	576.4
387.709	576.2
388.112	572.2
388.515	575
388.918	579.8
389.322	585.4
389.725	576.6
390.129	601.4
390.532	588.2
390.936	580.8
391.339	574
391.743	585.4
392.125	575
392.529	594.8
392.933	590.6
393.337	578.4
393.74	584.4
394.144	583.6
394.548	574.4
394.953	577.6
395.357	588.2
395.761	588.4
396.144	586.4
396.548	583.2
396.952	576.2
397.357	586.6
397.761	573
398.166	580
398.57	589.4
398.975	582
399.379	589.8
399.763	625
400.168	580.6
400.572	587.8
400.977	578.4
401.382	596
401.787	580.6
402.192	595
402.597	595.2
403.002	566.8
403.386	596
403.791	593.8
404.197	583
404.602	587.4
405.007	588.2
405.413	574.8
405.818	588
406.224	581
406.608	576.6
407.014	582.6
407.42	601.4
407.825	567.8
408.231	600
408.637	584.2
409.043	595.8
409.449	583
409.834	580.6
410.24	586.2
410.646	595.6
411.052	593
411.458	584.8
411.865	592.8
412.271	592.2
412.677	585.6
413.062	583.4
413.469	580
413.875	600.6
414.282	591.2
414.689	588.6
415.095	591.8
415.502	572.4
415.888	580.4
416.294	575.8
416.701	619
417.108	581.6
417.515	588
417.923	581.6
418.33	593
418.715	582.6
419.123	582.2
419.53	574.8
419.937	591.4
420.345	594.2
420.752	579.4
421.16	589.4
421.546	588.4
421.953	598.2
422.361	578.8
422.769	584.8
423.177	581
423.585	600.6
423.992	600.2
424.379	591.6
424.787	592.6
425.195	602
425.603	584.4
426.011	595.2
426.419	602.8
426.806	591.6
427.214	587.4
427.623	595.8
428.031	605.2
428.44	591.8
428.848	597.6
429.235	602.4
429.644	596.2
430.053	599.2
430.461	615.8
430.87	632
431.279	613.6
431.666	608.6
432.075	623.4
432.484	630.2
432.893	629.6
433.302	650
433.711	671.4
434.099	648.6
434.508	654.8
434.918	657.4
435.327	677
435.737	688.4
436.125	687
436.534	699.8
436.944	708.6
437.353	713.8
437.763	742.2
438.173	726.8
438.561	750
438.971	727.2
439.381	758
439.791	769
440.201	756
440.589	778.2
440.999	788.2
441.409	780.6
441.819	772.6
442.23	810
442.619	802.4
443.029	804.4
443.439	805
443.85	827
444.26	834.2
444.649	835.4
445.06	832.6
445.471	835.2
445.881	839.8
446.292	845.2
446.682	853.2
447.092	838
447.503	900.6
447.914	849.4
448.325	855
448.715	863.8
449.126	840.6
449.537	860.2
449.948	867.6
450.338	865.8
450.75	873.2
451.161	863.8
451.572	871.2
451.984	868.2
452.374	861.2
452.786	872.6
453.197	878.8
453.609	887.2
453.999	885.2
454.411	881
454.823	876.4
455.235	886.4
455.647	877.8
456.037	882.8
456.449	871
456.862	886.8
457.274	903.8
457.665	882.6
458.077	896.8
458.489	913.4
458.902	886
459.293	893
459.705	900.2
460.118	894.4
460.53	890.4
460.921	891.4
461.334	881.6
461.747	892.2
462.16	900.6
462.551	900.8
462.964	896.8
463.377	892.8
463.79	902.6
464.182	911
464.595	895.4
465.008	892.8
465.421	903.6
465.813	894
466.226	889.6
466.64	882.2
467.053	929.2
467.445	885.2
467.859	900
468.272	889
468.686	894.2
469.078	889.2
469.492	878
469.906	891.8
470.298	901.6
470.712	892.2
471.126	925.6
471.54	886.2
471.933	885.4
472.347	880.2
472.761	882.8
473.175	883.2
473.568	872.6
473.982	867
474.397	886
474.79	878.2
475.204	890.8
475.619	881.8
476.033	876.2
476.426	880.4
476.841	867.2
477.256	894.6
477.649	852.2
478.064	857.2
478.479	860.6
478.872	857.6
479.287	848
479.702	859
480.118	860
480.511	851.8
480.927	859.2
481.342	849.4
481.736	863
482.151	852.6
482.566	855
482.96	844.8
483.376	855.6
483.792	851.6
484.186	852.8
484.602	844
485.017	833.6
485.412	838.6
485.827	842.6
486.243	845.4
486.638	863
487.054	837.6
487.47	845
487.865	829
488.281	829.2
488.697	818.2
489.092	824.6
489.508	832.6
489.925	837
490.32	818.6
490.736	823.8
491.153	823.8
491.548	821.8
491.964	831.4
492.381	813.8
492.776	823.4
493.193	809.4
493.61	814.2
494.006	808.2
494.422	809
494.84	799.4
495.235	816.4
495.652	805.2
496.069	791.6
496.465	789
496.883	805.8
497.3	807.6
497.696	790.4
498.113	796.8
498.509	777.8
498.927	789.8
499.344	777.8
499.741	781
500.158	796.6
500.576	788.8
500.973	785
501.39	765
501.787	768
502.205	779.8
502.623	761.8
503.02	768.8
503.438	756.8
503.856	757.2
504.253	767
504.671	756
505.068	749.8
505.486	758.8
505.905	773.2
506.302	753.4
506.72	765.4
507.118	745.2
507.536	745.2
507.955	743.6
508.352	750.6
508.771	756
509.169	751
509.587	740.2
510.006	744.6
510.404	715.4
510.823	731.6
511.221	730.4
511.64	722.4
512.038	732.4
512.457	722.8
512.877	725.8
513.275	725.6
513.694	718.2
514.092	720.8
514.512	725.4
514.91	729.8
515.33	709.8
515.749	712.8
516.148	710.6
516.568	711.4
516.966	708.6
517.386	699.4
517.785	699
518.205	704
518.603	688.8
519.024	700.6
519.444	704
519.843	716
520.263	707.8
520.662	701.6
521.082	692.8
521.481	700.6
521.902	696.4
522.301	700
522.722	697
523.121	692.2
523.542	693
523.963	696.2
524.362	680.4
524.783	687.4
525.183	685.4
525.604	690.6
526.003	677.8
526.425	673
526.824	678.6
527.246	682.8
527.646	685.2
528.067	673.6
528.467	672.6
528.888	681.4
529.289	671.8
529.71	678.4
530.11	672.8
530.532	662.6
530.932	657.8
531.354	658.8
531.755	702.6
532.176	671.4
532.577	671.4
532.999	664
533.4	662.2
533.822	666.2
534.223	672
534.645	663
535.046	654.2
535.468	657.6
535.869	664.6
536.292	653
536.693	668
537.115	660.4
537.516	651.6
537.939	656.2
538.34	670.6
538.742	654.6
539.165	651.8
539.566	655.2
539.989	651.8
540.391	642.8
540.814	649.8
541.216	647.4
541.639	646.4
542.041	656.4
542.464	639.6
542.866	643.6
543.268	635
543.691	637.2
544.093	644.6
544.517	655.8
544.919	637.8
545.343	658
545.745	633.2
546.147	644.2
546.571	640.2
546.974	642.6
547.398	627.8
547.8	649
548.224	637.4
548.627	629.6
549.03	638.8
549.454	631.2
549.857	618.8
550.281	633.8
550.684	624.2
551.087	641.4
551.512	626.6
551.915	635.4
552.34	621.6
552.743	624.4
553.146	629.6
553.571	623.6
553.975	639.8
554.399	624.6
554.803	664.2
555.207	618.8
555.632	618.2
556.036	626
556.461	621.4
556.865	620
557.268	619.2
557.694	614
558.098	633.4
558.502	623
558.927	621
559.332	623.8
559.736	623.8
560.162	617.4
560.566	613.4
560.992	619.6
561.396	618.2
561.801	615.6
562.227	610.2
562.631	608.8
563.036	608.6
563.462	617.8
563.867	611.8
564.272	607.4
564.698	607.2
565.103	603.8
565.508	620.8
565.935	607.8
566.34	614
566.745	615.6
567.172	605.2
567.577	622.6
567.982	615.2
568.409	611.4
568.815	591.8
569.22	601.6
569.626	608
570.053	586.8
570.459	610
570.865	609.2
571.292	602.8
571.698	597.4
572.104	586.6
572.531	598.2
572.937	606.6
573.343	600.4
573.75	600.2
574.177	604.2
574.583	606.6
574.99	601.6
575.396	611.6
575.824	601.8
576.231	599
576.637	595.6
577.065	619.8
577.472	594.8
577.879	597
578.286	609.6
578.714	594.2
579.121	593.2
579.528	600.6
579.935	598.6
580.364	596
580.771	583.6
581.178	593.4
581.585	599.8
582.014	600.4
582.421	592
582.829	585.4
583.236	604
583.644	585.6
584.073	586.4
584.481	589
584.889	584.4
585.296	597.8
585.726	594.2
586.134	583.2
586.542	576
586.95	604.4
587.358	587.4
587.787	589
588.196	597.2
588.604	593.4
589.012	587.4
589.421	588
589.851	579
590.259	591.8
590.668	581.4
591.076	618.4
591.485	574.2
591.894	584
592.324	599
592.733	598.4
593.142	573.8
593.551	586
593.96	614.6
594.369	581.4
594.8	581.4
595.209	580.2
595.618	576
596.028	581.8
596.437	585.6
596.847	584.6
597.256	585.6
597.687	583.4
598.097	578.8
598.507	578.8
598.917	585.6
599.327	590.2
599.736	587.2
600.146	598.2
600.556	585.6
600.988	595.6
601.398	576.2
601.808	583
602.219	575.4
602.629	580.8
603.039	584.6
603.45	599.4
603.86	586
604.271	583.4
604.703	576.2
605.114	583.4
605.525	581.2
605.935	586.8
606.346	598.6
606.757	586.4
607.168	582
607.579	570.6
607.99	582
608.402	575.6
608.813	580.6
609.224	568.6
609.636	559.8
610.047	582
610.48	570.6
610.892	574.2
611.303	587.2
611.715	565.2
612.127	567
612.539	569
612.95	576.4
613.362	568.2
613.774	570.2
614.186	568.6
614.599	570.2
615.011	584.8
615.423	572.2
615.835	579.2
616.248	569.8
616.66	577.6
617.073	573.4
617.485	577.8
617.898	581.6
618.311	575.6
618.723	568
619.136	596
619.549	590.2
619.962	591
620.375	574.2
620.788	581.4
621.201	567.8
621.614	583
622.028	578.2
622.441	576.4
622.854	591.4
623.268	571
623.681	575
624.095	573.8
624.509	582.2
624.922	589.8
625.336	571.4
625.728	582.8
626.142	588.2
626.556	591.2
626.97	588.6
627.384	577.6
627.799	579.2
628.213	586.2
628.627	576
629.041	575.2
629.456	573.4
629.87	582.4
630.285	577
630.699	581.2
631.093	568.8
631.507	579.6
631.922	574.2
632.337	585.6
632.752	577.4
633.167	565
633.582	570.8
633.997	572
634.412	567.2
634.806	575.8
635.221	564.8
635.637	576.6
636.052	563.4
636.468	577.4
636.883	587.4
637.299	576
637.715	566.4
638.109	568.2
638.525	570.4
638.941	591.2
639.357	578.8
639.773	581.6
640.189	571.6
640.584	570.2
641	570.2
641.416	559.2
641.832	573.2
642.249	577
642.665	573.8
643.06	578.6
643.477	586.8
643.894	558.6
644.31	573.6
644.727	574.4
645.123	568.4
645.54	570
645.957	574
646.374	586.2
646.77	569.6
647.187	598.6
647.604	571.8
648.021	561.4
648.439	572.6
648.835	582.8
649.252	574
649.67	575.6
650.088	569.4
650.484	571
650.902	573.4
651.32	574.4
651.738	560.4
652.134	569.8
652.552	584.8
652.971	572.2
653.389	570.4
653.786	582.8
654.204	589.6
654.622	565.6
655.019	569.4
655.438	575.4
655.857	581.4
656.275	574.4
656.673	564.6
657.091	575.6
657.51	567.6
657.908	578.4
658.327	584
658.746	561.4
659.144	571.8
659.563	578.4
659.982	567.6
660.38	562.4
660.8	586.2
661.219	579
661.617	574.4
662.037	571.8
662.457	584.4
662.855	558.8
663.275	592.2
663.695	569
664.094	567.8
664.514	573
664.934	567.2
665.333	569.6
665.753	565.6
666.152	561.6
666.572	566.8
666.993	578.4
667.392	565.4
667.812	565.4
668.212	573.4
668.632	570.8
669.053	570.8
669.453	569.8
669.874	570
670.273	567.8
670.694	558.2
671.116	572.8
671.515	578.4
671.937	558
672.337	567.2
672.758	565.6
673.158	577.4
673.58	566.6
673.98	564.6
674.402	578.6
674.824	569.4
675.224	568.6
675.646	575.4
676.047	559.6
676.469	568.2
676.869	573.8
677.292	568.6
677.693	561.6
678.115	561.2
678.516	578.2
678.939	573.2
679.34	570.2
679.762	577
680.164	569
680.586	556
680.988	571.2
681.411	588.4
681.812	563.2
682.236	557
682.637	557
683.061	560.2
683.462	566.8
683.864	565.4
684.288	580.4
684.69	563.4
685.114	569.8
685.516	570.4
685.94	562.8
686.342	578.8
686.766	556.2
687.168	568
687.571	572
687.995	571.2
688.398	565.4
688.822	568
689.225	579.4
689.628	578.2
690.052	570.2
690.456	569.6
690.88	574.4
691.284	555.8
691.687	570
692.112	566.2
692.515	562.2
692.919	560.2
693.344	572.4
693.747	569
694.173	565.4
694.577	577.4
694.98	566.2
695.406	562.6
695.81	571.6
696.214	570.8
696.64	573.6
697.044	570.8
697.448	577.4
697.874	564.4
698.279	565.4
698.684	555.8
699.11	558.4
699.514	561
699.919	572
700.324	560.4
700.75	565.4
701.156	564.8
701.561	568
701.987	578.2
702.393	573.8
702.798	576.6
703.203	562.2
703.63	559.4
704.036	566
704.442	565.4
704.847	550
705.274	560.4
705.68	565.4
706.086	568.6
706.492	554.8
706.92	564.4
707.326	565.6
707.732	566.6
708.139	554.8
708.545	552.6
708.973	558.4
709.38	563.6
709.786	557.2
710.193	576
710.6	561.8
711.028	553.2
711.435	558
711.842	566.4
712.249	560.6
712.656	562
713.064	568.6
713.492	551.6
713.9	555.2
714.307	571
714.715	559.4
715.123	566.2
715.53	563.8
715.938	565.4
716.367	557
716.775	565.8
717.184	562.8
717.592	559.8
718	561.4
718.408	594.6
718.816	598.2
719.225	561.8
719.633	565
720.042	561.8
720.472	559.6
720.881	580.8
721.29	569.8
721.699	554.6
722.108	565.4
722.517	565.4
722.926	560.4
723.335	567.8
723.744	562.4
724.154	572.8
724.563	572.8
724.973	565.4
725.382	565
725.792	566.8
726.202	557.2
726.612	589.6
727.022	560.6
727.432	553
779.813	558
780.223	597.2
780.634	551.8
781.044	564.2
781.454	559.2
781.865	571.4
782.276	558
782.686	570
783.097	569.6
783.508	556.6
783.919	568.8
784.33	578.8
784.741	565
785.152	558
785.563	552.8
785.974	562.6
786.386	570.4
786.776	560
787.188	566.4
787.599	563.4
788.011	572
788.423	571.6
788.835	563.8
789.247	557.8
789.659	559.6
790.071	560.4
790.483	603.2
790.874	564.4
791.286	569.2
791.699	560.2
792.111	561.2
792.524	558.8
792.937	560.8
793.349	548.6
793.741	553
794.154	565
794.567	578.8
794.98	562.4
795.393	558.4
795.785	563.8
796.198	557
796.612	568
797.026	559.8
797.439	540.6
797.831	557.8
798.245	557
798.659	562
799.073	559.4
799.487	558
799.88	563.4
800.294	555.8
800.708	562.2
801.123	563.4
801.516	577
801.93	552.8
802.345	558.2
802.76	563.4
803.153	574.8
803.568	569.2
803.983	573
804.377	564.4
804.792	555.8
805.207	541.8
805.601	568.8
806.016	590.6
806.432	551.8
806.826	587.2
807.242	575.4
807.658	563.8
808.052	559.6
808.468	557
808.884	556.6
809.279	572.4
809.695	575.4
810.111	580.6
810.506	559
810.922	578.8
811.339	557
811.734	570.2
812.151	563.4
812.546	550
812.963	557
813.38	563.2
813.776	565
814.193	582.6
814.589	563.8
815.006	558.4
815.402	556.8
815.82	556.2
816.237	565.4
816.633	567.6
817.051	553.4
817.448	563.4
817.866	548.4
818.262	569.6
818.68	554.4
819.077	554.8
819.495	558
819.892	599.8
820.311	551.8
820.708	552.2
821.127	554.2
821.524	571.6
821.943	562.4
822.34	575.2
822.759	562.8
823.157	559
823.576	572.2
823.974	571.2
824.393	570.4
824.791	557
825.189	559.2
825.609	558
826.007	558.2
826.427	546
826.826	562.4
827.246	557.2
827.644	546.4
828.043	570.6
828.463	559
828.862	558.2
829.261	560.4
829.682	547.6
830.081	564.8
830.502	555.6
830.901	558.2
831.301	572.4
831.722	551.4
832.121	562.4
832.521	554
832.943	564.6
833.342	556.6
833.742	550.6
834.164	556.2
834.564	554.2
834.965	559.4
835.386	561.8
835.787	558.8
836.188	553.2
836.588	561.4
837.01	560.4
837.411	548.8
837.812	561.6
838.213	563.8
838.636	555.4
839.037	614
839.438	556.6
839.84	559.6
840.263	567.6
840.664	567.8
841.066	561.2
841.468	560.2
841.891	559.2
842.293	573.2
842.695	573.4
843.098	575.4
843.5	552.8
843.902	569
844.326	563
844.729	566
845.131	569.2
845.534	564
845.937	575.4
846.34	569
846.764	552.6
847.167	567.4
847.571	552.8
847.974	567.6
848.377	558.2
848.781	602
849.184	569.2
849.588	559.4
849.992	553.2
850.396	561.8
850.821	572
851.225	561.2
851.63	562
852.034	570
852.438	553.8
852.843	619.2
853.247	555.6
853.652	549.4
854.057	578
854.462	564.2
854.867	561.6
855.272	585.4
855.677	557.6
856.082	551.2
856.487	548.2
856.893	563.8
857.298	558.2
