#lambda/nm	C1
208.295	549.2
208.67	486.2
209.045	451.4
209.419	451.6
209.794	603.6
210.169	593
210.544	689.4
210.919	599
211.295	582.6
211.67	601.6
212.045	592.2
212.421	589.2
212.796	623.4
213.172	585.4
213.547	594.2
213.923	600.4
214.299	588.2
214.675	599
215.051	602.4
215.427	612.4
215.803	611.6
216.179	606.6
216.555	591.6
216.932	604.6
217.308	598.8
217.684	602
218.061	601.6
218.438	600.2
218.814	591.4
219.191	596.6
219.568	589.4
219.945	592.8
220.322	591.2
220.699	601.4
221.076	592
221.453	603.2
221.83	595.6
222.208	583.4
222.585	593
222.962	596.2
223.34	598.2
223.717	602.8
224.095	597
224.473	609.2
224.851	591.2
225.229	588
225.607	603.6
225.985	599.4
226.363	598
226.741	594
227.119	593
227.497	609.6
227.876	580.6
228.254	601.4
228.633	602.2
229.011	599
229.39	599.6
229.769	600.2
230.148	604.4
230.527	611.4
230.905	593.6
231.284	598.6
231.664	594.2
232.043	609.2
232.422	603.8
232.801	589.4
233.181	589.8
233.56	592.4
233.94	596.4
234.319	579.6
234.699	595.4
235.079	629.4
235.458	626.6
235.838	608.4
236.218	590
236.598	581
236.978	586.2
237.358	592.4
237.738	589
238.119	602.2
238.499	586
238.88	595.6
239.26	610
239.641	581.4
240.021	590.4
240.402	592
240.783	583
241.163	595.2
241.544	594.2
241.925	603.4
242.306	609
242.687	597.8
243.069	596.2
243.45	605.4
243.831	588.4
244.212	594.6
244.594	635.2
244.975	599
245.357	596.6
245.739	584.2
246.12	602.2
246.502	605.2
246.884	592
247.266	589.4
247.648	602
248.03	619.4
248.412	596.6
248.794	592
249.176	585.8
249.559	607.2
249.941	592
250.323	584.2
250.706	587.4
251.089	593
251.471	594.6
251.854	600.4
252.237	584.6
252.62	612
253.002	599.8
253.385	595.4
253.769	610
254.152	588.6
254.535	604.6
254.918	580.2
255.301	590
255.685	589.4
256.068	590.8
256.452	606.6
256.835	594
257.219	605.4
257.603	612.8
257.986	586.4
258.37	608
258.754	588.2
259.138	605.4
259.522	600
259.906	589.8
260.29	599.8
260.675	600
261.059	601.4
261.443	587.2
261.828	604
262.212	594
262.597	584.8
262.981	591.2
263.366	604.6
263.751	598.8
264.136	588.4
264.521	592.2
264.906	587.6
265.291	606.6
265.676	586.2
266.061	597.4
266.446	601.2
266.831	590
267.217	609.2
267.602	598.4
267.987	605.6
268.373	598.4
268.759	604.8
269.144	600.4
269.53	592
269.916	596.4
270.302	587.8
270.688	598.6
271.074	598.8
271.46	612.4
271.846	622.2
272.232	602.6
272.618	590.2
273.004	599.6
273.391	603.8
273.777	602
274.164	598.8
274.55	607.8
274.937	598.6
275.324	595.8
275.71	606
276.097	600.6
276.484	591.8
276.871	602
277.258	600.2
277.645	588
278.032	597
278.419	584.8
278.807	601.2
279.194	583.4
279.581	583.4
279.969	598.6
280.356	601.2
280.744	594.4
281.131	613.4
281.519	600.8
281.907	596
282.295	587.4
282.682	608
283.07	591.2
283.458	600
283.846	602.8
284.235	600.2
284.623	606.8
285.011	595
285.399	603.4
285.788	595.6
286.176	586
286.565	607.6
286.953	584.8
287.342	595.2
287.731	582.8
288.119	582.4
288.508	590.6
288.897	595.4
289.286	589.8
289.675	590.2
290.064	609.6
290.453	598.6
290.821	590.8
291.21	601
291.599	593.4
291.989	598.6
292.378	606
292.768	610.2
293.157	593.6
293.547	603.8
293.936	595
294.326	594.4
294.716	604.2
295.106	590.4
295.496	604.8
295.886	604.2
296.276	604.2
296.666	590.2
297.056	592.6
297.446	589.8
297.836	614.6
298.227	596.8
298.617	592.6
299.008	608.6
299.398	596
299.789	593.2
300.179	606.4
300.57	612
300.961	594.6
301.352	588
301.742	604.2
302.133	595.8
302.524	601.6
302.915	599.6
303.307	589.2
303.698	600.8
304.089	604.2
304.48	597
304.872	599
305.263	596.6
305.655	593.4
306.046	606.6
306.438	599.6
306.829	586
307.221	604.6
307.613	602
308.005	604.2
308.397	609.4
308.789	609
309.181	615.2
309.573	615
309.965	607
310.357	600.2
310.749	606.2
311.142	590.6
311.534	595
311.926	603.6
312.319	598.4
312.711	590.8
313.104	611
313.497	597
313.889	631.2
314.282	613.8
314.675	614.4
315.068	589.4
315.461	603.2
315.854	625
316.247	599.4
316.64	606
317.033	602
317.405	600.4
317.798	596.4
318.192	604.2
318.585	585.6
318.979	608.6
319.372	597.8
319.766	592.2
320.16	607.6
320.553	611.6
320.947	611.4
321.341	602.8
321.735	595.8
322.129	584.6
322.523	622.4
322.917	589.8
323.311	603.2
323.705	596.6
324.099	600.2
324.494	606.8
324.888	607
325.282	599.2
325.677	610
326.071	607
326.466	597.2
326.861	599
327.255	614.2
327.65	607.4
328.045	608.6
328.44	604.2
328.835	604.2
329.23	590.6
329.625	618.4
330.02	593.6
330.415	616
330.81	600.2
331.206	599.4
331.601	591
331.996	604.4
332.37	621.6
332.766	586.2
333.161	619.4
333.557	590.4
333.953	606.2
334.348	858.6
334.744	585.6
335.14	592.6
335.536	587.4
335.932	606.2
336.328	594
336.724	601.8
337.12	596.6
337.516	605.2
337.913	597.4
338.309	613.8
338.705	598.4
339.102	609.4
339.498	585.2
339.895	603.8
340.291	580.6
340.688	603
341.085	589
341.481	592.2
341.878	590.4
342.275	612.6
342.672	584.8
343.069	591
343.466	579
343.842	598.2
344.239	587.2
344.636	595.6
345.033	579.6
345.431	581.8
345.828	596.8
346.225	589.6
346.623	623.4
347.02	592.6
347.418	608.4
347.816	607.4
348.213	583.2
348.611	591.8
349.009	587
349.407	604.6
349.805	576
350.203	582.6
350.601	600.8
350.999	590.8
351.397	634.2
351.795	595
352.193	598.6
352.57	599
352.969	603.8
353.367	590
353.766	587.4
354.164	593.8
354.563	606
354.961	594
355.36	589.8
355.759	595
356.158	589.8
356.557	594.8
356.956	586.6
357.355	572.6
357.754	595.2
358.153	602.8
358.552	617.2
358.951	592.8
359.35	604.2
359.75	589.4
360.149	589.6
360.527	583.2
360.926	584.4
361.326	589.6
361.726	588
362.125	585.4
362.525	597
362.925	595.6
363.325	594.2
363.724	589.6
364.124	578
364.524	580.4
364.924	587.2
365.324	603.2
365.725	582.2
366.125	603
366.525	587.4
366.904	586.6
367.304	577.2
367.705	606.6
368.105	600.4
368.506	589.6
368.906	593
369.307	595.2
369.708	603.8
370.108	588.6
370.509	597.4
370.91	587.2
371.311	595
371.712	594.2
372.113	592
372.514	585.8
372.894	581.8
373.295	587.8
373.696	597
374.097	597.8
374.499	616
374.9	586.6
375.301	580.2
375.703	591.8
376.105	587.4
376.506	582.8
376.908	592.2
377.309	587.2
377.711	595.4
378.113	579
378.493	589.4
378.895	589.8
379.297	587.8
379.699	573
380.102	589.8
380.504	587.4
380.906	578.6
381.308	606
381.71	581.8
382.113	597.4
382.515	586.2
382.918	588.2
383.299	586.8
383.701	603.4
384.104	590.4
384.507	577.2
384.909	583.6
385.312	580.2
385.715	579.8
386.118	592.8
386.521	576.6
386.924	595.6
387.327	588.4
387.709	580.6
388.112	573
388.515	584.4
388.918	586.4
389.322	596.8
389.725	582
390.129	603.6
390.532	593
390.936	587.6
391.339	590.8
391.743	595.2
392.125	581.6
392.529	598.6
392.933	598.6
393.337	592.4
393.74	589
394.144	591.4
394.548	587.4
394.953	583.8
395.357	597.8
395.761	582.4
396.144	591.6
396.548	589.4
396.952	583.2
397.357	593.6
397.761	589
398.166	588.8
398.57	590.8
398.975	581.4
399.379	586.6
399.763	630.2
400.168	596.2
400.572	589.6
400.977	580.8
401.382	599
401.787	595.4
402.192	607.2
402.597	597.4
403.002	576
403.386	604.2
403.791	602.6
404.197	591.4
404.602	593.2
405.007	591.4
405.413	584.4
405.818	594.4
406.224	586
406.608	585.2
407.014	583.8
407.42	601.6
407.825	586.2
408.231	597.6
408.637	592.6
409.043	602
409.449	583.4
409.834	582.8
410.24	590
410.646	600.4
411.052	598
411.458	589
411.865	599.4
412.271	603.6
412.677	591.4
413.062	593.8
413.469	582
413.875	611
414.282	600.8
414.689	588.4
415.095	594.4
415.502	584
415.888	583.8
416.294	580.4
416.701	632.4
417.108	578
417.515	600.2
417.923	584.8
418.33	605.2
418.715	596.8
419.123	580.4
419.53	588
419.937	587.8
420.345	598.2
420.752	593
421.16	602.4
421.546	587
421.953	600
422.361	588
422.769	587
423.177	588.2
423.585	610.8
423.992	618
424.379	600
424.787	600.6
425.195	607.6
425.603	591.6
426.011	600.8
426.419	601
426.806	598.4
427.214	603.6
427.623	606.4
428.031	612
428.44	603.4
428.848	603.4
429.235	613
429.644	602.2
430.053	602
430.461	621
430.87	649
431.279	628.2
431.666	621.2
432.075	636.6
432.484	644.4
432.893	645.4
433.302	673
433.711	697.4
434.099	669.8
434.508	680.6
434.918	683.2
435.327	709
435.737	711.8
436.125	722.4
436.534	735
436.944	750.6
437.353	758.6
437.763	781.4
438.173	767.8
438.561	793.2
438.971	778
439.381	808.6
439.791	811.4
440.201	808.8
440.589	831.2
440.999	836.2
441.409	851.2
441.819	844.6
442.23	866.4
442.619	868.4
443.029	871.4
443.439	882.2
443.85	898
444.26	898.4
444.649	904
445.06	897.6
445.471	902
445.881	910.6
446.292	934.8
446.682	933.6
447.092	917.8
447.503	973.8
447.914	934.2
448.325	935.2
448.715	943
449.126	942.6
449.537	947.4
449.948	951.4
450.338	946
450.75	954.8
451.161	951.6
451.572	967.8
451.984	947.8
452.374	960.8
452.786	965.2
453.197	972
453.609	965.4
453.999	957.6
454.411	970.2
454.823	972.8
455.235	968.6
455.647	964.6
456.037	986.4
456.449	960.4
456.862	964.8
457.274	968.2
457.665	974.6
458.077	980.6
458.489	993.8
458.902	963
459.293	976.4
459.705	979.6
460.118	957.6
460.53	971.4
460.921	977.4
461.334	970.6
461.747	962.8
462.16	995.4
462.551	1003.4
462.964	984.6
463.377	969.8
463.79	976.2
464.182	980.6
464.595	969.8
465.008	978.2
465.421	981
465.813	982
466.226	977.4
466.64	967
467.053	1015.6
467.445	973.6
467.859	993.8
468.272	977.8
468.686	994
469.078	974.2
469.492	963.4
469.906	977.6
470.298	988.6
470.712	974
471.126	1010.6
471.54	958.6
471.933	973.8
472.347	959.8
472.761	964.6
473.175	969.6
473.568	960.6
473.982	949
474.397	960.4
474.79	967.4
475.204	962.4
475.619	957.2
476.033	957.6
476.426	956.2
476.841	947.6
477.256	965
477.649	949.8
478.064	945.6
478.479	938
478.872	945.2
479.287	929.4
479.702	930.2
480.118	941.4
480.511	942.2
480.927	940.6
481.342	929.8
481.736	935.2
482.151	924.2
482.566	938
482.96	938.8
483.376	934.8
483.792	918.4
484.186	934
484.602	923.4
485.017	908.6
485.412	912.4
485.827	923
486.243	901.2
486.638	930.8
487.054	911.4
487.47	918
487.865	905.2
488.281	903
488.697	903
489.092	898.6
489.508	888.6
489.925	907.4
490.32	885.8
490.736	901.2
491.153	888.4
491.548	892.2
491.964	897.2
492.381	869.6
492.776	891.8
493.193	881
493.61	887
494.006	872
494.422	873.6
494.84	859.4
495.235	877.4
495.652	864.8
496.069	862
496.465	852.4
496.883	866.8
497.3	881
497.696	853
498.113	856.8
498.509	846.8
498.927	835.4
499.344	842.2
499.741	831.4
500.158	837.4
500.576	839.4
500.973	834.8
501.39	818.8
501.787	819.6
502.205	833.4
502.623	825.6
503.02	822.6
503.438	808.6
503.856	818
504.253	824.4
504.671	819.6
505.068	817.2
505.486	812.4
505.905	826.4
506.302	804
506.72	801.6
507.118	803.6
507.536	792.4
507.955	783.4
508.352	810
508.771	792.2
509.169	797.6
509.587	771
510.006	783.4
510.404	787.6
510.823	764.8
511.221	768.8
511.64	775.4
512.038	788.8
512.457	779.6
512.877	766.4
513.275	771.2
513.694	758.4
514.092	760.2
514.512	755.6
514.91	766
515.33	759
515.749	753.4
516.148	762.2
516.568	762.6
516.966	757.2
517.386	749.2
517.785	749.6
518.205	746.2
518.603	732.6
519.024	732
519.444	743.2
519.843	745.8
520.263	746.8
520.662	738.4
521.082	730.4
521.481	736
521.902	727.6
522.301	727.2
522.722	728.4
523.121	722
523.542	721.6
523.963	730.4
524.362	715.6
524.783	722.4
525.183	725
525.604	717.4
526.003	716.2
526.425	702.4
526.824	710
527.246	724.8
527.646	720.6
528.067	706.8
528.467	702.4
528.888	714.6
529.289	701.8
529.71	707.2
530.11	692.6
530.532	690
530.932	690.6
531.354	687.8
531.755	717.4
532.176	699.4
532.577	693
532.999	697
533.4	687.6
533.822	692.2
534.223	697.6
534.645	681
535.046	680.8
535.468	689
535.869	698.8
536.292	668.8
536.693	704.8
537.115	684.2
537.516	677.8
537.939	668
538.34	682.6
538.742	679.6
539.165	669.4
539.566	669.4
539.989	663.2
540.391	668.6
540.814	661
541.216	678.8
541.639	667
542.041	665.4
542.464	660
542.866	659
543.268	656
543.691	676.8
544.093	669.2
544.517	684
544.919	658.6
545.343	685.8
545.745	652
546.147	657.4
546.571	653.4
546.974	657.4
547.398	663
547.8	666.2
548.224	657
548.627	660.6
549.03	668.6
549.454	642.4
549.857	642.6
550.281	646.8
550.684	647
551.087	657.4
551.512	650.8
551.915	649.4
552.34	640
552.743	645.8
553.146	642.6
553.571	648.6
553.975	651.8
554.399	630.4
554.803	683.4
555.207	633.4
555.632	639.4
556.036	643.2
556.461	636.4
556.865	646.4
557.268	638.2
557.694	635.8
558.098	646.6
558.502	627.4
558.927	636.6
559.332	637.8
559.736	627
560.162	638.2
560.566	628.6
560.992	636.6
561.396	638.6
561.801	628.4
562.227	630.6
562.631	624.8
563.036	628.4
563.462	637.6
563.867	640.8
564.272	617.4
564.698	629.2
565.103	619.4
565.508	639.4
565.935	626
566.34	627.2
566.745	629.8
567.172	613
567.577	644.8
567.982	627.8
568.409	624
568.815	613.2
569.22	618
569.626	616.4
570.053	605
570.459	612.2
570.865	624
571.292	625
571.698	623.6
572.104	605
572.531	607.4
572.937	619.4
573.343	618.6
573.75	601
574.177	612
574.583	617.6
574.99	602
575.396	613.8
575.824	608
576.231	624
576.637	606
577.065	632.8
577.472	596.4
577.879	610.4
578.286	621.8
578.714	608.8
579.121	599.4
579.528	605.2
579.935	624.2
580.364	611.6
580.771	589.8
581.178	599.2
581.585	614.8
582.014	602
582.421	603.4
582.829	595.4
583.236	610.4
583.644	604.8
584.073	603.4
584.481	611.6
584.889	595
585.296	605.8
585.726	605.6
586.134	597.2
586.542	594.8
586.95	619.8
587.358	597
587.787	602.6
588.196	611.8
588.604	590.8
589.012	598.6
589.421	594.4
589.851	597.8
590.259	611.2
590.668	599.6
591.076	626.2
591.485	584.4
591.894	602.6
592.324	614.4
592.733	606.4
593.142	594.2
593.551	599.6
593.96	624.4
594.369	595.2
594.8	595.2
595.209	597.4
595.618	584.4
596.028	586.4
596.437	581.6
596.847	599
597.256	588.4
597.687	596.6
598.097	593.4
598.507	589.6
598.917	597
599.327	600.2
599.736	601.8
600.146	601.6
600.556	593.4
600.988	604.6
601.398	591.8
601.808	594.4
602.219	576
602.629	583.2
603.039	587.4
603.45	609.2
603.86	588.2
604.271	606.2
604.703	585.4
605.114	593.2
605.525	594
605.935	592.2
606.346	607.2
606.757	597.8
607.168	585.4
607.579	586.6
607.99	602.6
608.402	593.8
608.813	595
609.224	584.8
609.636	574.6
610.047	584.6
610.48	593.8
610.892	604.6
611.303	595.2
611.715	584.6
612.127	580.2
612.539	584.8
612.95	585.6
613.362	572.2
613.774	576.8
614.186	579
614.599	586
615.011	590.6
615.423	592.4
615.835	586.4
616.248	574.6
616.66	597.4
617.073	580.8
617.485	582.8
617.898	589.2
618.311	583.2
618.723	583.4
619.136	607.2
619.549	597
619.962	605.8
620.375	582.6
620.788	593
621.201	579
621.614	589.6
622.028	585.2
622.441	585
622.854	594.8
623.268	579.6
623.681	583
624.095	583.8
624.509	590
624.922	590.4
625.336	578.8
625.728	592.6
626.142	591
626.556	598.6
626.97	589.4
627.384	581.6
627.799	585.4
628.213	586.6
628.627	580.8
629.041	582.2
629.456	578.4
629.87	584.4
630.285	593.8
630.699	588
631.093	578.8
631.507	582.4
631.922	590.8
632.337	592.2
632.752	570.2
633.167	578.6
633.582	577.6
633.997	579.2
634.412	577.8
634.806	577.8
635.221	566
635.637	586
636.052	571.4
636.468	579
636.883	596
637.299	575.2
637.715	565.4
638.109	574.4
638.525	574.8
638.941	598
639.357	583.6
639.773	594.6
640.189	580
640.584	580.2
641	583.6
641.416	564.8
641.832	584.6
642.249	572.6
642.665	572
643.06	579.8
643.477	584.8
643.894	562
644.31	583.4
644.727	579
645.123	577.4
645.54	579.4
645.957	580.8
646.374	583.4
646.77	582.4
647.187	600
647.604	589
648.021	566.8
648.439	561.4
648.835	576.8
649.252	579.4
649.67	576
650.088	577.8
650.484	569
650.902	582.6
651.32	579.8
651.738	570.6
652.134	582.4
652.552	587
652.971	583
653.389	571
653.786	582.2
654.204	595
654.622	573
655.019	581
655.438	581.6
655.857	578.4
656.275	584.2
656.673	568.8
657.091	582.2
657.51	575.6
657.908	578.4
658.327	591.8
658.746	568.6
659.144	577.4
659.563	591
659.982	577.2
660.38	574
660.8	575.2
661.219	590.6
661.617	587
662.037	577.2
662.457	585.6
662.855	569
663.275	606.6
663.695	574
664.094	577.6
664.514	581.8
664.934	571.4
665.333	588
665.753	570.6
666.152	568
666.572	571.6
666.993	589.6
667.392	567.6
667.812	568.8
668.212	573.2
668.632	582.4
669.053	573.8
669.453	574.6
669.874	575.4
670.273	576.6
670.694	569.8
671.116	575.4
671.515	582.2
671.937	565.8
672.337	564.2
672.758	568.2
673.158	586.4
673.58	574.4
673.98	573
674.402	579.2
674.824	576.2
675.224	570.6
675.646	557.2
676.047	565.2
676.469	571.8
676.869	580
677.292	578
677.693	564.6
678.115	568
678.516	572.6
678.939	575.6
679.34	571.2
679.762	579.4
680.164	579.8
680.586	565.6
680.988	579
681.411	592
681.812	570.8
682.236	575.2
682.637	569.4
683.061	566.8
683.462	573.4
683.864	573.6
684.288	579.8
684.69	568.6
685.114	578
685.516	575
685.94	569.6
686.342	576.4
686.766	567.8
687.168	571.4
687.571	587.2
687.995	570.8
688.398	569.4
688.822	569.8
689.225	581.6
689.628	582.6
690.052	575.4
690.456	573
690.88	573.2
691.284	567
691.687	581.6
692.112	570.4
692.515	565.4
692.919	578.2
693.344	584.8
693.747	570.8
694.173	572.6
694.577	581.2
694.98	569.8
695.406	569.2
695.81	570.2
696.214	579
696.64	580
697.044	581.8
697.448	580.6
697.874	569
698.279	579
698.684	566.4
699.11	566
699.514	565
699.919	570.6
700.324	564.6
700.75	571.2
701.156	569.6
701.561	587.2
701.987	576.2
702.393	584.4
702.798	580
703.203	571.8
703.63	564.6
704.036	567.6
704.442	571.8
704.847	566
705.274	565.8
705.68	569.8
706.086	579
706.492	561.8
706.92	568.4
707.326	583.6
707.732	572
708.139	568.2
708.545	572.6
708.973	573.4
709.38	573
709.786	559.8
710.193	587
710.6	571.2
711.028	567.2
711.435	572
711.842	573.8
712.249	568.8
712.656	567.2
713.064	580.2
713.492	562
713.9	565.2
714.307	573.6
714.715	571
715.123	578.4
715.53	577
715.938	574.6
716.367	575.2
716.775	571
717.184	566.8
717.592	563.4
718	575
718.408	601.2
718.816	605.8
719.225	576.2
719.633	578
720.042	569
720.472	572.4
720.881	587.4
721.29	566.6
721.699	562.8
722.108	568.6
722.517	566.6
722.926	568.6
723.335	581.4
723.744	569
724.154	566.4
724.563	568.6
724.973	573.4
725.382	578.4
725.792	569.2
726.202	563.2
726.612	588
727.022	562.2
727.432	572.8
779.813	561.6
780.223	607.2
780.634	569
781.044	560.8
781.454	551.8
781.865	577.4
782.276	559.8
782.686	575.6
783.097	565.4
783.508	562.2
783.919	561.8
784.33	570.8
784.741	581.6
785.152	562.8
785.563	553.6
785.974	558.2
786.386	574.2
786.776	563.6
787.188	569.6
787.599	562.2
788.011	569.8
788.423	565
788.835	568.4
789.247	564.6
789.659	568
790.071	553.8
790.483	604.2
790.874	567.6
791.286	575.4
791.699	566
792.111	566.4
792.524	574.4
792.937	572.4
793.349	561.4
793.741	565
794.154	569.2
794.567	588.8
794.98	562.4
795.393	554.2
795.785	585
796.198	559.4
796.612	564
797.026	566.8
797.439	555.4
797.831	566.8
798.245	552.6
798.659	567
799.073	569.4
799.487	565.4
799.88	565.8
800.294	573
800.708	563.8
801.123	565.2
801.516	577.4
801.93	551
802.345	562.8
802.76	566.4
803.153	585.4
803.568	570.2
803.983	573.8
804.377	571.6
804.792	555.8
805.207	556.2
805.601	574.6
806.016	596.8
806.432	557.8
806.826	596.2
807.242	574.6
807.658	571
808.052	564.8
808.468	567.6
808.884	569.6
809.279	567.4
809.695	577.2
810.111	587.2
810.506	571.4
810.922	585.4
811.339	564.2
811.734	575.8
812.151	556
812.546	555.4
812.963	558.8
813.38	566
813.776	563.4
814.193	582.4
814.589	553.8
815.006	561.6
815.402	568.6
815.82	559.2
816.237	569.6
816.633	567.6
817.051	562.4
817.448	570.8
817.866	550.6
818.262	580.4
818.68	567.8
819.077	562.4
819.495	568.4
819.892	601.6
820.311	554.6
820.708	564.4
821.127	557.6
821.524	581.4
821.943	564.4
822.34	586
822.759	569.2
823.157	568
823.576	574.6
823.974	567.8
824.393	602
824.791	565.4
825.189	556.6
825.609	567
826.007	564.6
826.427	555.2
826.826	565
827.246	567.8
827.644	555.8
828.043	569.4
828.463	564.8
828.862	573.6
829.261	575
829.682	564.6
830.081	571.6
830.502	559.4
830.901	573.8
831.301	583.2
831.722	564.6
832.121	570.8
832.521	564
832.943	566
833.342	567
833.742	561.2
834.164	563.8
834.564	563.8
834.965	566.2
835.386	563.6
835.787	563
836.188	567
836.588	571
837.01	563.2
837.411	562.6
837.812	574.8
838.213	567
838.636	562.8
839.037	621.2
839.438	571
839.84	570.6
840.263	568
840.664	571.6
841.066	565
841.468	561.2
841.891	560.2
842.293	582.6
842.695	570.4
843.098	579
843.5	564.2
843.902	568.2
844.326	579
844.729	571.8
845.131	571.2
845.534	562.4
845.937	579.4
846.34	586.8
846.764	556.6
847.167	570.6
847.571	556.6
847.974	565.6
848.377	560.8
848.781	609.8
849.184	578.8
849.588	566.6
849.992	566.6
850.396	568
850.821	579.6
851.225	569
851.63	560.6
852.034	579.8
852.438	562.8
852.843	625.8
853.247	568.6
853.652	563.8
854.057	583.2
854.462	569.4
854.867	573.2
855.272	588.8
855.677	569
856.082	558.6
856.487	565
856.893	570
857.298	563.2
857.704	564.6
