#lambda/nm	C1
208.295	532.8
208.67	478
209.045	447.8
209.419	447.8
209.794	612.2
210.169	590.6
210.544	707.6
210.919	615.4
211.295	607.8
211.67	615.8
212.045	607.2
212.421	598.6
212.796	638.8
213.172	602.4
213.547	605.4
213.923	608.6
214.299	595.4
214.675	611
215.051	613
215.427	618.2
215.803	622.2
216.179	616.8
216.555	601.8
216.932	616.8
217.308	614.8
217.684	610.2
218.061	615.8
218.438	614.6
218.814	603
219.191	626
219.568	605.8
219.945	603.2
220.322	612
220.699	615
221.076	619
221.453	612.4
221.83	604.8
222.208	603
222.585	597.6
222.962	610.4
223.34	606.8
223.717	606
224.095	610
224.473	608
224.851	601.8
225.229	601.8
225.607	621
225.985	604
226.363	603.4
226.741	612.6
227.119	609
227.497	617.2
227.876	596.8
228.254	618.4
228.633	616.2
229.011	607.6
229.39	613.2
229.769	610.8
230.148	611
230.527	631.6
230.905	613.6
231.284	607.4
231.664	603.8
232.043	621.4
232.422	605
232.801	599.2
233.181	608.4
233.56	605
233.94	608.8
234.319	596.4
234.699	603
235.079	641.6
235.458	643.2
235.838	620.2
236.218	598.2
236.598	598.6
236.978	599
237.358	599.2
237.738	603.8
238.119	612.6
238.499	598.6
238.88	605
239.26	617.4
239.641	591.2
240.021	603.2
240.402	601.8
240.783	600.2
241.163	607.6
241.544	608.8
241.925	610.2
242.306	627.6
242.687	615.4
243.069	605.6
243.45	614.6
243.831	602.8
244.212	599.2
244.594	637.8
244.975	614.6
245.357	614
245.739	600.4
246.12	603.2
246.502	623.8
246.884	600.8
247.266	605
247.648	615
248.03	627.2
248.412	609.4
248.794	620.6
249.176	606
249.559	621
249.941	600.6
250.323	593.4
250.706	604
251.089	601
251.471	606.6
251.854	603.6
252.237	601.8
252.62	614.6
253.002	609
253.385	608.4
253.769	618
254.152	609.8
254.535	612.4
254.918	604.6
255.301	601.8
255.685	612.8
256.068	601.6
256.452	629
256.835	617.8
257.219	612.4
257.603	619.6
257.986	603
258.37	612.6
258.754	597.6
259.138	615.4
259.522	615.8
259.906	605
260.29	611.4
260.675	607.4
261.059	608.6
261.443	598.8
261.828	612.4
262.212	610.6
262.597	604.8
262.981	604.6
263.366	613.4
263.751	604.8
264.136	608.4
264.521	608.6
264.906	601.2
265.291	624.4
265.676	607
266.061	610
266.446	630.4
266.831	615
267.217	619
267.602	610.6
267.987	618
268.373	608
268.759	619.8
269.144	616.2
269.53	604
269.916	604.4
270.302	603.2
270.688	612
271.074	610.6
271.46	619.8
271.846	635.4
272.232	605.4
272.618	592.6
273.004	607.4
273.391	628.8
273.777	617.8
274.164	608.8
274.55	615
274.937	602.4
275.324	594.8
275.71	613.4
276.097	606.2
276.484	600.6
276.871	604.2
277.258	605
277.645	594.6
278.032	606
278.419	603.8
278.807	605.4
279.194	594.4
279.581	600.6
279.969	611.8
280.356	603.8
280.744	603
281.131	636.4
281.519	617.2
281.907	603.4
282.295	596.4
282.682	624.6
283.07	617.4
283.458	615.4
283.846	614.8
284.235	617.4
284.623	616.4
285.011	609.4
285.399	617.2
285.788	606.6
286.176	606.2
286.565	622.4
286.953	603
287.342	605.4
287.731	607.6
288.119	607
288.508	606
288.897	607.2
289.286	596.4
289.675	618.6
290.064	616.6
290.453	603
290.821	601.6
291.21	620.4
291.599	610.2
291.989	610.6
292.378	616.6
292.768	626.8
293.157	610.6
293.547	615
293.936	602.2
294.326	607.6
294.716	613.2
295.106	601.8
295.496	612.8
295.886	619.8
296.276	613
296.666	601.8
297.056	595.4
297.446	601.4
297.836	622.2
298.227	603.2
298.617	608.2
299.008	619.6
299.398	604
299.789	597.6
300.179	613.6
300.57	620.8
300.961	609.4
301.352	606
301.742	618
302.133	607.2
302.524	614
302.915	610.8
303.307	604
303.698	623.4
304.089	613.4
304.48	614.4
304.872	606
305.263	607.4
305.655	601.2
306.046	612.8
306.438	610.6
306.829	600
307.221	623.2
307.613	621
308.005	623.4
308.397	614
308.789	632.4
309.181	635.8
309.573	621.4
309.965	621.2
310.357	604.6
310.749	619.6
311.142	603.8
311.534	613
311.926	611.6
312.319	608.4
312.711	608.2
313.104	617.4
313.497	614
313.889	642.2
314.282	624.6
314.675	637.8
315.068	601.8
315.461	612.4
315.854	631
316.247	617.6
316.64	609.8
317.033	616.4
317.405	623.8
317.798	621.6
318.192	621
318.585	605.4
318.979	622.4
319.372	598.6
319.766	600.6
320.16	615.8
320.553	621.6
320.947	632.4
321.341	604.4
321.735	606.8
322.129	597
322.523	630.6
322.917	593.6
323.311	618.2
323.705	609.4
324.099	611.8
324.494	624.2
324.888	619
325.282	602.6
325.677	620.4
326.071	617.8
326.466	620.2
326.861	613
327.255	627.2
327.65	621.6
328.045	625.2
328.44	611.2
328.835	613.6
329.23	607.2
329.625	624.2
330.02	606
330.415	628
330.81	613.8
331.206	610.4
331.601	606.8
331.996	618.8
332.37	633.6
332.766	604
333.161	622.2
333.557	609.4
333.953	608
334.348	927.8
334.744	608.4
335.14	605
335.536	611.2
335.932	621.2
336.328	599
336.724	624.6
337.12	615
337.516	613
337.913	611
338.309	625.6
338.705	605.6
339.102	622.8
339.498	605.8
339.895	621.4
340.291	607.4
340.688	614.4
341.085	601.8
341.481	601.4
341.878	607
342.275	626.8
342.672	606.4
343.069	612.2
343.466	599.4
343.842	615.8
344.239	603.8
344.636	611.6
345.033	608.4
345.431	603.8
345.828	612
346.225	599.8
346.623	642
347.02	610.4
347.418	615.8
347.816	621.4
348.213	590
348.611	611.6
349.009	600.2
349.407	622
349.805	602.8
350.203	590.8
350.601	616.4
350.999	601.4
351.397	647.4
351.795	605.2
352.193	608.4
352.57	612.6
352.969	616
353.367	595.4
353.766	590.6
354.164	600.6
354.563	613.4
354.961	600.2
355.36	599.4
355.759	604.8
356.158	595.4
356.557	592
356.956	598
357.355	596.4
357.754	608.4
358.153	617.8
358.552	623
358.951	608.6
359.35	621.6
359.75	597.4
360.149	591.4
360.527	589.2
360.926	606.6
361.326	601
361.726	608.8
362.125	598.8
362.525	605.2
362.925	599
363.325	603.4
363.724	608
364.124	599.4
364.524	596
364.924	600.2
365.324	618
365.725	584.4
366.125	603.8
366.525	598.2
366.904	596.8
367.304	590.4
367.705	622.8
368.105	616.6
368.506	611
368.906	603.4
369.307	603.6
369.708	607.2
370.108	586.4
370.509	608
370.91	597.4
371.311	609.2
371.712	605.8
372.113	597.8
372.514	594.2
372.894	594.6
373.295	596.6
373.696	610
374.097	605.2
374.499	625
374.9	605.2
375.301	587.4
375.703	595
376.105	595.4
376.506	603.4
376.908	602.6
377.309	606.6
377.711	603.6
378.113	593.6
378.493	602.8
378.895	598.8
379.297	614
379.699	583
380.102	608
380.504	598.6
380.906	607
381.308	625.2
381.71	602
382.113	611.4
382.515	597.4
382.918	606.8
383.299	600.6
383.701	608
384.104	597
384.507	577.4
384.909	603.6
385.312	589.4
385.715	596.8
386.118	601
386.521	591.2
386.924	610
387.327	588
387.709	586.6
388.112	596.8
388.515	592.8
388.918	601.2
389.322	612
389.725	595.6
390.129	619.4
390.532	605.4
390.936	595.8
391.339	596
391.743	603
392.125	589
392.529	613.8
392.933	611
393.337	602
393.74	593.8
394.144	602.2
394.548	588.6
394.953	594.6
395.357	610.8
395.761	594
396.144	602.2
396.548	600.2
396.952	599.8
397.357	601.4
397.761	598.2
398.166	592.8
398.57	598.4
398.975	592.6
399.379	594.8
399.763	647.8
400.168	606
400.572	598.6
400.977	602.4
401.382	620
401.787	606.8
402.192	613
402.597	617.4
403.002	589.6
403.386	612.2
403.791	614.8
404.197	596.8
404.602	600.8
405.007	607.2
405.413	589.2
405.818	598.4
406.224	598.2
406.608	597.4
407.014	591.6
407.42	613
407.825	596.2
408.231	613.4
408.637	613
409.043	617.4
409.449	602
409.834	595.4
410.24	606.2
410.646	611.6
411.052	602
411.458	603.6
411.865	611.6
412.271	608.2
412.677	601
413.062	611.6
413.469	597.4
413.875	622.2
414.282	611.2
414.689	602.8
415.095	613
415.502	598.4
415.888	605.4
416.294	585.6
416.701	635
417.108	598.6
417.515	607.2
417.923	595.8
418.33	616.4
418.715	610.2
419.123	598.2
419.53	599.6
419.937	603.8
420.345	612.2
420.752	598
421.16	612.8
421.546	611.6
421.953	613.2
422.361	595.8
422.769	603
423.177	600.8
423.585	618.8
423.992	625.4
424.379	613.8
424.787	605.2
425.195	625
425.603	604.4
426.011	612.6
426.419	617.6
426.806	606.2
427.214	610.4
427.623	613.6
428.031	620.6
428.44	610.8
428.848	621
429.235	618.8
429.644	605.4
430.053	611.8
430.461	626.4
430.87	639
431.279	622.6
431.666	609.4
432.075	613
432.484	628.6
432.893	630.8
433.302	655.8
433.711	672.8
434.099	642.4
434.508	638.2
434.918	630.6
435.327	666.2
435.737	661
436.125	667
436.534	669.8
436.944	678.8
437.353	687.4
437.763	708.6
438.173	680.8
438.561	701.8
438.971	686
439.381	714.8
439.791	716.8
440.201	691.6
440.589	728.6
440.999	733.6
441.409	734.2
441.819	736.4
442.23	760.4
442.619	753.4
443.029	759.4
443.439	755
443.85	767.6
444.26	783
444.649	772.6
445.06	766.6
445.471	760.4
445.881	773.4
446.292	797.8
446.682	800.6
447.092	764
447.503	829
447.914	783.4
448.325	782.8
448.715	785.6
449.126	777.6
449.537	798.2
449.948	791.4
450.338	798.2
450.75	800.2
451.161	790
451.572	812.8
451.984	793
452.374	781.8
452.786	805.6
453.197	805.4
453.609	817.8
453.999	791.4
454.411	806.2
454.823	808.6
455.235	818.6
455.647	797.8
456.037	818.2
456.449	798.2
456.862	801.8
457.274	805
457.665	805.2
458.077	816
458.489	841.2
458.902	804.6
459.293	818.2
459.705	804.8
460.118	814.4
460.53	813
460.921	818
461.334	822
461.747	813.8
462.16	814.2
462.551	839.8
462.964	824
463.377	793.8
463.79	817.6
464.182	830.2
464.595	809.6
465.008	813.2
465.421	831.6
465.813	820.4
466.226	833.6
466.64	812.2
467.053	863
467.445	827.6
467.859	837.6
468.272	822.2
468.686	831.4
469.078	809.4
469.492	808
469.906	812.8
470.298	817.8
470.712	809.6
471.126	863.6
471.54	787.8
471.933	797.2
472.347	804
472.761	811.6
473.175	805.4
473.568	803.6
473.982	798.6
474.397	806
474.79	804.6
475.204	818.4
475.619	811.8
476.033	808.6
476.426	802.8
476.841	801.6
477.256	824.4
477.649	793.2
478.064	791.6
478.479	801.6
478.872	794.6
479.287	787.4
479.702	788.4
480.118	795.2
480.511	789
480.927	800.6
481.342	794
481.736	796
482.151	788.6
482.566	798
482.96	796.6
483.376	800
483.792	785.4
484.186	795.4
484.602	788.2
485.017	793.4
485.412	778.4
485.827	786
486.243	788.2
486.638	816
487.054	786.8
487.47	788.8
487.865	780.4
488.281	778.4
488.697	775.4
489.092	778.2
489.508	768.4
489.925	771.8
490.32	766.6
490.736	773.8
491.153	775
491.548	770
491.964	778
492.381	750.2
492.776	768.2
493.193	757
493.61	775.6
494.006	759.6
494.422	761.8
494.84	753.2
495.235	765.4
495.652	764.4
496.069	753.4
496.465	743.4
496.883	744.2
497.3	777.6
497.696	744.6
498.113	753.8
498.509	736
498.927	743.8
499.344	746.6
499.741	740.6
500.158	751.8
500.576	752.6
500.973	748.8
501.39	739.6
501.787	729
502.205	738.8
502.623	731.6
503.02	727.4
503.438	726.8
503.856	732.4
504.253	730.6
504.671	729.8
505.068	719
505.486	720.4
505.905	744
506.302	722.8
506.72	736.2
507.118	713.6
507.536	727.2
507.955	717.8
508.352	723.4
508.771	721.8
509.169	717.4
509.587	704.6
510.006	719.2
510.404	702
510.823	704.2
511.221	710
511.64	707.4
512.038	723.2
512.457	712.4
512.877	696.2
513.275	694.8
513.694	695.4
514.092	689.8
514.512	709.6
514.91	705.8
515.33	692.4
515.749	692.4
516.148	696.6
516.568	694.6
516.966	695.4
517.386	690.8
517.785	683.4
518.205	676.8
518.603	678.2
519.024	670.4
519.444	687.6
519.843	686.8
520.263	697
520.662	681.4
521.082	682.4
521.481	694
521.902	677.2
522.301	679.8
522.722	681.6
523.121	677.6
523.542	673.6
523.963	677.8
524.362	674.4
524.783	675.2
525.183	678
525.604	674.8
526.003	670.6
526.425	663
526.824	670.8
527.246	675.4
527.646	678.4
528.067	671.6
528.467	664.4
528.888	657.4
529.289	667.6
529.71	659
530.11	662.2
530.532	659.4
530.932	652.4
531.354	651.8
531.755	695.6
532.176	667
532.577	652
532.999	657.8
533.4	650
533.822	663.2
534.223	657.4
534.645	653
535.046	646.4
535.468	662
535.869	665.8
536.292	651.2
536.693	681.4
537.115	660.8
537.516	651.4
537.939	650.6
538.34	662.8
538.742	658.8
539.165	658.6
539.566	645.4
539.989	641.6
540.391	637.2
540.814	647.8
541.216	658.2
541.639	644.4
542.041	641.4
542.464	642.4
542.866	639.4
543.268	637.2
543.691	643
544.093	644.4
544.517	654.6
544.919	628
545.343	656.8
545.745	627.4
546.147	635.8
546.571	643.6
546.974	631
547.398	629.6
547.8	655.4
548.224	631.6
548.627	628.2
549.03	640.8
549.454	624
549.857	617.4
550.281	628.4
550.684	632.2
551.087	643.8
551.512	637.2
551.915	639
552.34	631.2
552.743	632.6
553.146	634.4
553.571	627.2
553.975	649.6
554.399	621.6
554.803	672.4
555.207	623.2
555.632	627
556.036	628.6
556.461	626.2
556.865	633
557.268	615
557.694	626.4
558.098	628.4
558.502	619.6
558.927	619.8
559.332	621.4
559.736	620.8
560.162	630.4
560.566	622.6
560.992	626.8
561.396	618.4
561.801	618.4
562.227	629.6
562.631	618.2
563.036	620.4
563.462	628.8
563.867	610
564.272	603.6
564.698	630.8
565.103	604.2
565.508	640
565.935	619.8
566.34	611.6
566.745	623.8
567.172	620
567.577	635.6
567.982	623
568.409	610.6
568.815	602
569.22	614.8
569.626	622.6
570.053	601.2
570.459	614.2
570.865	622.8
571.292	620.8
571.698	618.2
572.104	607
572.531	599.4
572.937	616.6
573.343	611
573.75	607
574.177	611.2
574.583	619
574.99	605.8
575.396	616.2
575.824	604
576.231	615.4
576.637	602
577.065	628.8
577.472	606
577.879	602.8
578.286	622
578.714	604
579.121	606.2
579.528	604.6
579.935	618.4
580.364	604.2
580.771	581
581.178	595
581.585	608.2
582.014	612.6
582.421	599.4
582.829	595.8
583.236	612.4
583.644	601.4
584.073	605
584.481	605.2
584.889	593
585.296	611.2
585.726	603.4
586.134	595
586.542	603.8
586.95	619.2
587.358	590.6
587.787	601
588.196	612.6
588.604	597.6
589.012	612.2
589.421	593.4
589.851	593
590.259	608.2
590.668	591.4
591.076	621.2
591.485	592
591.894	597.4
592.324	607.4
592.733	610.4
593.142	585.6
593.551	594.2
593.96	623.8
594.369	588.4
594.8	581.2
595.209	599
595.618	584.6
596.028	590.6
596.437	588
596.847	601.6
597.256	597.4
597.687	599.2
598.097	597
598.507	590.2
598.917	600.2
599.327	599.2
599.736	600.4
600.146	614.6
600.556	597.4
600.988	607.2
601.398	595.4
601.808	602
602.219	577.2
602.629	592.8
603.039	597.8
603.45	621.6
603.86	601.6
604.271	607
604.703	591.6
605.114	600.4
605.525	600
605.935	597.2
606.346	611.4
606.757	604.4
607.168	594
607.579	589.8
607.99	606
608.402	596.2
608.813	599
609.224	600.8
609.636	578.2
610.047	595.2
610.48	591.4
610.892	598.2
611.303	603.2
611.715	589.4
612.127	584.6
612.539	589.6
612.95	590.8
613.362	590.6
613.774	583.8
614.186	582.6
614.599	589.8
615.011	600.6
615.423	587.6
615.835	581.8
616.248	577.2
616.66	593.6
617.073	580.4
617.485	588.6
617.898	590.2
618.311	594.4
618.723	588
619.136	622
619.549	594.4
619.962	600.6
620.375	590
620.788	588.2
621.201	576.2
621.614	602.8
622.028	587.8
622.441	593.6
622.854	606.2
623.268	580.2
623.681	597.4
624.095	589
624.509	600.2
624.922	598.4
625.336	579.8
625.728	585.4
626.142	599.2
626.556	606.4
626.97	595.8
627.384	590.6
627.799	589.8
628.213	608.2
628.627	586.8
629.041	586.6
629.456	591.4
629.87	591
630.285	599
630.699	600.4
631.093	593.4
631.507	596
631.922	594.8
632.337	597.6
632.752	586.6
633.167	592
633.582	589.4
633.997	589.2
634.412	580
634.806	587.4
635.221	577.8
635.637	600.8
636.052	585.6
636.468	594.2
636.883	607.6
637.299	596
637.715	577.6
638.109	587.2
638.525	577.2
638.941	595.6
639.357	595.4
639.773	604.4
640.189	592.6
640.584	587.6
641	575.2
641.416	574.4
641.832	583.2
642.249	587.2
642.665	586.6
643.06	590.8
643.477	588
643.894	572
644.31	587.8
644.727	584
645.123	588.2
645.54	576.8
645.957	591.4
646.374	599.4
646.77	586.4
647.187	612
647.604	590.2
648.021	575.6
648.439	579.4
648.835	584.6
649.252	577.6
649.67	586.8
650.088	588.4
650.484	586.6
650.902	586.8
651.32	599
651.738	582
652.134	599.6
652.552	604.4
652.971	597.4
653.389	588.6
653.786	590.4
654.204	606.6
654.622	577
655.019	587.4
655.438	591.6
655.857	591.2
656.275	584.6
656.673	577.4
657.091	583.2
657.51	575.2
657.908	589
658.327	599.4
658.746	578
659.144	584.8
659.563	597.8
659.982	587
660.38	574.6
660.8	593.4
661.219	591.8
661.617	590.4
662.037	590
662.457	597.6
662.855	573.6
663.275	606.4
663.695	587.6
664.094	581.2
664.514	581.8
664.934	570.8
665.333	595.4
665.753	572
666.152	571.6
666.572	568.4
666.993	603.4
667.392	570
667.812	586
668.212	578
668.632	602.2
669.053	585.6
669.453	588.8
669.874	593.4
670.273	583
670.694	581
671.116	586.2
671.515	595.2
671.937	578.2
672.337	581.6
672.758	583.8
673.158	596.8
673.58	573
673.98	585.2
674.402	592.2
674.824	579.2
675.224	582.2
675.646	584.4
676.047	586.8
676.469	590.8
676.869	591.6
677.292	594.8
677.693	576
678.115	578
678.516	586
678.939	584.6
679.34	582
679.762	591.4
680.164	582.8
680.586	579.6
680.988	585.6
681.411	602.8
681.812	578.4
682.236	575
682.637	579.8
683.061	571.6
683.462	586.6
683.864	580.6
684.288	586.6
684.69	571.4
685.114	588.8
685.516	581.4
685.94	573
686.342	585.4
686.766	570.4
687.168	580
687.571	600.8
687.995	585.8
688.398	574.6
688.822	579
689.225	595
689.628	600.4
690.052	583.6
690.456	589.8
690.88	585.6
691.284	570.6
691.687	592.6
692.112	565.8
692.515	576.8
692.919	587
693.344	587.8
693.747	573.6
694.173	574.6
694.577	594.2
694.98	585.4
695.406	579.8
695.81	584
696.214	588.2
696.64	591.2
697.044	583
697.448	593.2
697.874	584.8
698.279	586
698.684	573.2
699.11	575.2
699.514	585.8
699.919	579.4
700.324	582
700.75	578.8
701.156	583.8
701.561	590.4
701.987	584.2
702.393	595.2
702.798	597.8
703.203	578.2
703.63	577.8
704.036	575.4
704.442	583.8
704.847	569.6
705.274	577.8
705.68	585.4
706.086	588.4
706.492	582
706.92	579.4
707.326	588.6
707.732	574
708.139	579.6
708.545	583
708.973	575.8
709.38	578.6
709.786	574.6
710.193	591
710.6	578.4
711.028	570.2
711.435	573.8
711.842	582.4
712.249	577
712.656	583
713.064	587.2
713.492	574.6
713.9	576.6
714.307	581.6
714.715	578.6
715.123	589.6
715.53	587.6
715.938	586
716.367	585.4
716.775	577.8
717.184	571
717.592	583.4
718	587.2
718.408	615.2
718.816	622.4
719.225	579.8
719.633	585
720.042	566
720.472	573.8
720.881	599.8
721.29	578.2
721.699	577.8
722.108	577.2
722.517	584.2
722.926	576.2
723.335	578.2
723.744	575.6
724.154	581
724.563	580.2
724.973	578
725.382	573.8
725.792	581
726.202	573.6
726.612	597
727.022	574.2
727.432	575.8
779.813	576.2
780.223	622.8
780.634	580.4
781.044	573.4
781.454	587.4
781.865	591.6
782.276	575.6
782.686	585
783.097	567.8
783.508	577.4
783.919	587
784.33	590.4
784.741	592.4
785.152	572.8
785.563	562.8
785.974	576.8
786.386	589.2
786.776	580.8
787.188	579.4
787.599	567
788.011	587
788.423	586.6
788.835	571.4
789.247	569.2
789.659	573.8
790.071	581.6
790.483	616.4
790.874	576.8
791.286	585.4
791.699	579.2
792.111	578
792.524	578.2
792.937	586.6
793.349	572.4
793.741	578
794.154	569.4
794.567	596
794.98	584.6
795.393	573.2
795.785	590.8
796.198	572.8
796.612	583.8
797.026	580.4
797.439	563.2
797.831	578
798.245	564.8
798.659	574.8
799.073	579
799.487	576
799.88	578.2
800.294	575.8
800.708	580.4
801.123	580.6
801.516	604.2
801.93	574.8
802.345	572.2
802.76	578.6
803.153	595.6
803.568	587
803.983	585.8
804.377	577.8
804.792	566
805.207	569
805.601	587
806.016	605.8
806.432	580.8
806.826	606.8
807.242	593.4
807.658	586.6
808.052	578
808.468	576
808.884	574.8
809.279	579.8
809.695	588.2
810.111	601.2
810.506	585.4
810.922	589.2
811.339	581.8
811.734	586.4
812.151	574.6
812.546	568.6
812.963	567.8
813.38	589
813.776	576
814.193	598.8
814.589	563.2
815.006	568.6
815.402	572.6
815.82	568.8
816.237	575
816.633	570.6
817.051	569.6
817.448	582.6
817.866	577.4
818.262	600.2
818.68	569.2
819.077	573.6
819.495	574.6
819.892	610.8
820.311	569
820.708	576.6
821.127	573.6
821.524	582.8
821.943	580.4
822.34	590.6
822.759	579.8
823.157	576.4
823.576	590.8
823.974	586.2
824.393	624.8
824.791	576.2
825.189	567.6
825.609	576.6
826.007	576.4
826.427	577.8
826.826	577.8
827.246	582
827.644	572.2
828.043	589.8
828.463	575.2
828.862	581.6
829.261	582.6
829.682	572.8
830.081	585.4
830.502	572
830.901	576.6
831.301	591.2
831.722	570.6
832.121	577.6
832.521	572.4
832.943	567.8
833.342	580.2
833.742	566
834.164	568.6
834.564	568.4
834.965	575.8
835.386	576.2
835.787	578.8
836.188	575.8
836.588	575.4
837.01	569.4
837.411	571.8
837.812	580
838.213	575
838.636	567.8
839.037	646
839.438	576.2
839.84	585
840.263	583.8
840.664	582.8
841.066	581.4
841.468	571.8
841.891	574.6
842.293	592.2
842.695	585.2
843.098	591.2
843.5	575.2
843.902	581.2
844.326	581.6
844.729	574.6
845.131	586.6
845.534	571.2
845.937	591
846.34	598.6
846.764	576
847.167	579.4
847.571	568
847.974	577.4
848.377	569.4
848.781	617.4
849.184	587.6
849.588	573.6
849.992	567
850.396	578.2
850.821	591.6
851.225	575.6
851.63	574.8
852.034	590.6
852.438	584.2
852.843	644
853.247	572.4
853.652	574.2
854.057	599.2
854.462	581.6
854.867	575.4
855.272	613.4
855.677	577.4
856.082	569.4
856.487	564
856.893	574.4
