#lambda/nm	C1
208.295	530.8
208.67	482.6
209.045	440.6
209.419	441.8
209.794	607.8
210.169	597.2
210.544	700.2
210.919	618.2
211.295	597.8
211.67	609
212.045	604.4
212.421	602.6
212.796	638.8
213.172	606.8
213.547	598
213.923	606
214.299	600
214.675	613
215.051	609
215.427	611.8
215.803	624.8
216.179	614.8
216.555	608.2
216.932	620.8
217.308	611
217.684	609.2
218.061	617
218.438	609
218.814	604.8
219.191	616.6
219.568	604.4
219.945	614.8
220.322	617.6
220.699	612.6
221.076	615.2
221.453	607.8
221.83	602.6
222.208	604.4
222.585	607
222.962	606.6
223.34	618
223.717	610.6
224.095	609.6
224.473	601.6
224.851	605.2
225.229	605
225.607	619.4
225.985	597
226.363	606
226.741	608.6
227.119	599.2
227.497	618.8
227.876	593.4
228.254	612
228.633	606
229.011	611.2
229.39	612.6
229.769	610.6
230.148	614
230.527	623.8
230.905	605.2
231.284	607
231.664	604.2
232.043	622.2
232.422	612.4
232.801	608.4
233.181	610.2
233.56	606.2
233.94	614.8
234.319	602.2
234.699	604.8
235.079	652
235.458	645.6
235.838	623.8
236.218	606.8
236.598	595.2
236.978	597.6
237.358	601
237.738	607
238.119	609.4
238.499	598.6
238.88	602
239.26	617
239.641	592.2
240.021	605.8
240.402	606.4
240.783	606.8
241.163	608.4
241.544	607.6
241.925	611.4
242.306	622.8
242.687	608.6
243.069	611
243.45	613.2
243.831	609
244.212	602.8
244.594	639.4
244.975	615.4
245.357	607.4
245.739	608.6
246.12	612.6
246.502	622.4
246.884	604.6
247.266	608
247.648	612.4
248.03	635.2
248.412	603.8
248.794	615.8
249.176	606.6
249.559	612.4
249.941	587.2
250.323	598.4
250.706	604.6
251.089	602.2
251.471	612.2
251.854	603.6
252.237	603.2
252.62	623.6
253.002	607.2
253.385	604.4
253.769	623
254.152	603.4
254.535	611.2
254.918	597.2
255.301	599.2
255.685	602.6
256.068	599.8
256.452	626.4
256.835	612.2
257.219	614
257.603	620.2
257.986	600
258.37	617.2
258.754	595.4
259.138	612.4
259.522	616.2
259.906	604.4
260.29	605.8
260.675	610
261.059	615.4
261.443	600.6
261.828	614.6
262.212	604.4
262.597	597.6
262.981	608.8
263.366	607.8
263.751	610.8
264.136	607
264.521	603.6
264.906	602.4
265.291	613.6
265.676	603.2
266.061	613.2
266.446	625.6
266.831	610.6
267.217	626.6
267.602	608
267.987	610
268.373	603.2
268.759	614.6
269.144	612.4
269.53	605.2
269.916	601
270.302	601.8
270.688	616.2
271.074	606.4
271.46	622.6
271.846	629
272.232	604
272.618	595.6
273.004	598
273.391	616.6
273.777	620.2
274.164	606.2
274.55	609
274.937	612.2
275.324	601.8
275.71	619.4
276.097	612.6
276.484	602
276.871	604.4
277.258	606.8
277.645	590
278.032	600
278.419	603.2
278.807	611
279.194	595.4
279.581	598.8
279.969	612.8
280.356	600.4
280.744	607.8
281.131	628
281.519	618.6
281.907	599.4
282.295	603.6
282.682	612.2
283.07	617.2
283.458	610.2
283.846	613.4
284.235	618.8
284.623	615.4
285.011	599.4
285.399	613.4
285.788	610.2
286.176	599.6
286.565	623.2
286.953	605
287.342	607.4
287.731	596.6
288.119	600.6
288.508	605.8
288.897	614.4
289.286	598
289.675	605.2
290.064	624
290.453	602.2
290.821	609.4
291.21	620.4
291.599	602
291.989	615.8
292.378	620.6
292.768	618
293.157	616.6
293.547	614.6
293.936	600.8
294.326	599.4
294.716	608.2
295.106	598.8
295.496	616.6
295.886	609.4
296.276	592.2
296.666	597.6
297.056	600.8
297.446	593.2
297.836	624.2
298.227	606.4
298.617	610.8
299.008	626.2
299.398	601.6
299.789	601.6
300.179	614.6
300.57	615
300.961	611
301.352	612.8
301.742	613.4
302.133	605.4
302.524	613.6
302.915	625.6
303.307	608.6
303.698	613
304.089	619
304.48	604.4
304.872	613.8
305.263	604
305.655	600.8
306.046	615.6
306.438	612.6
306.829	603.4
307.221	624.8
307.613	614.2
308.005	621
308.397	621.2
308.789	625
309.181	632
309.573	627.4
309.965	617
310.357	615.2
310.749	624.8
311.142	604.8
311.534	604.2
311.926	617.6
312.319	613.2
312.711	607.4
313.104	619.6
313.497	609.2
313.889	644.8
314.282	630.4
314.675	628.8
315.068	622.2
315.461	612.2
315.854	636.6
316.247	613.6
316.64	610.2
317.033	611.8
317.405	611.2
317.798	604.4
318.192	620
318.585	601.2
318.979	617.6
319.372	604.2
319.766	610.8
320.16	614
320.553	623.8
320.947	630.2
321.341	605.2
321.735	616
322.129	594.4
322.523	627.6
322.917	603.4
323.311	616.4
323.705	616
324.099	613.8
324.494	620.8
324.888	622.6
325.282	606
325.677	615.2
326.071	612
326.466	613
326.861	613.4
327.255	622.8
327.65	608.8
328.045	619
328.44	607
328.835	605.6
329.23	603.8
329.625	628.6
330.02	602.2
330.415	627.4
330.81	613
331.206	615.8
331.601	604.2
331.996	617.2
332.37	625
332.766	598.6
333.161	626.2
333.557	602.2
333.953	615
334.348	916.4
334.744	602.8
335.14	597
335.536	609.2
335.932	614.8
336.328	613.8
336.724	620.2
337.12	610
337.516	614.6
337.913	608.6
338.309	623.4
338.705	600.8
339.102	615
339.498	608.6
339.895	625
340.291	614
340.688	619.2
341.085	595.6
341.481	604
341.878	610.6
342.275	625
342.672	602.8
343.069	604.6
343.466	603.2
343.842	613.2
344.239	598.2
344.636	609.4
345.033	601.6
345.431	606.8
345.828	605.4
346.225	596.2
346.623	630.6
347.02	610.8
347.418	612.8
347.816	618.6
348.213	593.4
348.611	606.4
349.009	598.6
349.407	615.8
349.805	596.2
350.203	594.2
350.601	613
350.999	599
351.397	644
351.795	607
352.193	620.4
352.57	616.4
352.969	614
353.367	596.4
353.766	592.8
354.164	606.6
354.563	622.6
354.961	605.2
355.36	607.2
355.759	602
356.158	596.6
356.557	596
356.956	598.4
357.355	600.2
357.754	611.6
358.153	614
358.552	630.8
358.951	605
359.35	616.4
359.75	606.6
360.149	592.2
360.527	593.2
360.926	598.4
361.326	606.4
361.726	601.8
362.125	599.8
362.525	614.6
362.925	599.6
363.325	602.8
363.724	597
364.124	596.8
364.524	596.8
364.924	593.8
365.324	612.2
365.725	591.2
366.125	608.2
366.525	607
366.904	602
367.304	588.2
367.705	621.2
368.105	612.8
368.506	601
368.906	602.6
369.307	603.2
369.708	608.6
370.108	587.4
370.509	611.6
370.91	598.2
371.311	602.8
371.712	605
372.113	608
372.514	583.4
372.894	602.2
373.295	593.4
373.696	605.2
374.097	610.4
374.499	630.8
374.9	604.8
375.301	596.8
375.703	602.4
376.105	594
376.506	599.8
376.908	600.8
377.309	596.4
377.711	599
378.113	600.8
378.493	602.4
378.895	592.2
379.297	609.6
379.699	584.4
380.102	593.4
380.504	599
380.906	599.4
381.308	621
381.71	599.2
382.113	610.4
382.515	598.6
382.918	601.2
383.299	602.2
383.701	607
384.104	610.8
384.507	583.8
384.909	593.8
385.312	593.2
385.715	592.2
386.118	600.2
386.521	590
386.924	614.8
387.327	594
387.709	600.8
388.112	584.8
388.515	596
388.918	597.2
389.322	604.6
389.725	594.2
390.129	628.2
390.532	604
390.936	593.6
391.339	594.6
391.743	596
392.125	597.2
392.529	603.4
392.933	617.8
393.337	602.4
393.74	601.8
394.144	597
394.548	600
394.953	600.8
395.357	604.6
395.761	592.6
396.144	601
396.548	593.4
396.952	595.6
397.357	607
397.761	590.4
398.166	594
398.57	604.6
398.975	589
399.379	603
399.763	645.2
400.168	602.6
400.572	598
400.977	599.8
401.382	623.4
401.787	603.6
402.192	617
402.597	616.8
403.002	591.8
403.386	608.6
403.791	608.6
404.197	594.4
404.602	604.6
405.007	600.8
405.413	594.8
405.818	600.4
406.224	590.4
406.608	601
407.014	594
407.42	608.6
407.825	596.8
408.231	614.6
408.637	598.2
409.043	616.4
409.449	598.8
409.834	595.4
410.24	601.4
410.646	607.8
411.052	605.2
411.458	604.4
411.865	605.8
412.271	611.6
412.677	607.4
413.062	602.8
413.469	590
413.875	624.8
414.282	613.6
414.689	602.4
415.095	614.4
415.502	599.2
415.888	597.6
416.294	594
416.701	643.4
417.108	596.4
417.515	610.4
417.923	597.6
418.33	617
418.715	608.2
419.123	607
419.53	596.4
419.937	599.6
420.345	620
420.752	598.6
421.16	613.6
421.546	603.2
421.953	610.4
422.361	595.2
422.769	604
423.177	591.6
423.585	627.4
423.992	615.8
424.379	601.8
424.787	609.2
425.195	620.6
425.603	600.8
426.011	614.4
426.419	616.8
426.806	612.4
427.214	606.2
427.623	614
428.031	622.8
428.44	614
428.848	622.8
429.235	622
429.644	616
430.053	610.6
430.461	634.8
430.87	645.2
431.279	627.8
431.666	618.2
432.075	630
432.484	641
432.893	640.8
433.302	669.4
433.711	688
434.099	653
434.508	665.4
434.918	662
435.327	684.2
435.737	681.8
436.125	690.8
436.534	710.2
436.944	715.6
437.353	720.4
437.763	739.2
438.173	719.6
438.561	742
438.971	728.4
439.381	749.6
439.791	768.6
440.201	746.6
440.589	780.4
440.999	795.8
441.409	796.4
441.819	779.2
442.23	795.2
442.619	802.4
443.029	816.8
443.439	809.2
443.85	830.6
444.26	831.6
444.649	837.4
445.06	838.6
445.471	836.2
445.881	840.2
446.292	860
446.682	865.2
447.092	834.6
447.503	903.6
447.914	855.2
448.325	855.6
448.715	857.8
449.126	857.6
449.537	860.8
449.948	855.2
450.338	869.2
450.75	879.6
451.161	881.8
451.572	881.6
451.984	870.6
452.374	868.8
452.786	880.2
453.197	876.4
453.609	892
453.999	853.4
454.411	871
454.823	887.4
455.235	893.6
455.647	879.6
456.037	892.8
456.449	867.6
456.862	880.4
457.274	896
457.665	880
458.077	892
458.489	919.4
458.902	898.8
459.293	896
459.705	888.6
460.118	883.6
460.53	894.2
460.921	885.8
461.334	900
461.747	891.4
462.16	901.4
462.551	905.8
462.964	887.2
463.377	871.6
463.79	899
464.182	907.4
464.595	891.4
465.008	897.6
465.421	904.2
465.813	893.2
466.226	909.2
466.64	893.2
467.053	933.6
467.445	895.2
467.859	917.2
468.272	892
468.686	912.8
469.078	901.2
469.492	878.8
469.906	890.8
470.298	900
470.712	880.6
471.126	931
471.54	873.8
471.933	875.8
472.347	890.2
472.761	881.4
473.175	872.8
473.568	883.4
473.982	875.6
474.397	880.6
474.79	885.2
475.204	892.6
475.619	874
476.033	878.4
476.426	878.4
476.841	868.8
477.256	898.8
477.649	866.8
478.064	865.6
478.479	864.8
478.872	860
479.287	856.6
479.702	872
480.118	871.8
480.511	854.6
480.927	866.4
481.342	858.8
481.736	864.4
482.151	850.6
482.566	871.8
482.96	860.4
483.376	868.6
483.792	848.8
484.186	853.6
484.602	838.4
485.017	851
485.412	838.8
485.827	840
486.243	842.2
486.638	866.4
487.054	852.6
487.47	845.8
487.865	839.4
488.281	829.2
488.697	828
489.092	834
489.508	820.4
489.925	841.8
490.32	818
490.736	823.2
491.153	835.4
491.548	822.8
491.964	833.6
492.381	807.8
492.776	818.2
493.193	820.4
493.61	822.2
494.006	818
494.422	820.8
494.84	807.6
495.235	813.8
495.652	806.8
496.069	808
496.465	794.4
496.883	806.4
497.3	827.8
497.696	804.8
498.113	807.6
498.509	783
498.927	785
499.344	782
499.741	778.6
500.158	802.6
500.576	793
500.973	783.6
501.39	767.6
501.787	767.6
502.205	787.2
502.623	780.4
503.02	766
503.438	775.6
503.856	769.6
504.253	768.4
504.671	768.2
505.068	761.6
505.486	771.6
505.905	779.4
506.302	761.6
506.72	776.2
507.118	750.8
507.536	761.8
507.955	758.2
508.352	757.8
508.771	753.6
509.169	757.6
509.587	744.4
510.006	750.6
510.404	748.8
510.823	745.8
511.221	741.4
511.64	742.2
512.038	748.6
512.457	733.6
512.877	740.4
513.275	724.8
513.694	726.6
514.092	729.6
514.512	732
514.91	738.2
515.33	729.2
515.749	727.8
516.148	726.4
516.568	729.2
516.966	717.8
517.386	720.2
517.785	713.4
518.205	712.4
518.603	717.6
519.024	708.6
519.444	708
519.843	719.8
520.263	724.2
520.662	720.8
521.082	706.2
521.481	711.2
521.902	700.8
522.301	705.8
522.722	705.2
523.121	709.4
523.542	700.6
523.963	698.6
524.362	698.8
524.783	699.8
525.183	697
525.604	698.6
526.003	682.6
526.425	692.2
526.824	701.4
527.246	706
527.646	702.2
528.067	696.8
528.467	677
528.888	695.8
529.289	689.2
529.71	692.6
530.11	684
530.532	682.2
530.932	682.6
531.354	667.2
531.755	704.2
532.176	687.6
532.577	676
532.999	682
533.4	665.8
533.822	685.2
534.223	683.8
534.645	668.4
535.046	676
535.468	663.2
535.869	680.8
536.292	660.8
536.693	691.2
537.115	671.4
537.516	659.2
537.939	663.8
538.34	677.4
538.742	673.8
539.165	670.8
539.566	666.2
539.989	657.4
540.391	652.4
540.814	660.2
541.216	663.4
541.639	658.8
542.041	674.4
542.464	658.8
542.866	655.4
543.268	653.4
543.691	649.2
544.093	664.6
544.517	671.4
544.919	643
545.343	679
545.745	640.4
546.147	655.4
546.571	650.6
546.974	653.6
547.398	646.8
547.8	655.6
548.224	646.6
548.627	646.8
549.03	652.4
549.454	638.2
549.857	637.2
550.281	642
550.684	646.2
551.087	652.8
551.512	643.8
551.915	648
552.34	653.4
552.743	633.8
553.146	648.8
553.571	649
553.975	653.8
554.399	628.2
554.803	700.6
555.207	641.8
555.632	626.4
556.036	652.4
556.461	635.8
556.865	639
557.268	631.6
557.694	625
558.098	636.2
558.502	637
558.927	633.6
559.332	630
559.736	630.4
560.162	639.8
560.566	635.6
560.992	635.6
561.396	624
561.801	623.2
562.227	635.8
562.631	627.2
563.036	630
563.462	639.6
563.867	630
564.272	615.4
564.698	632.6
565.103	618.6
565.508	643.6
565.935	625.8
566.34	626
566.745	636.6
567.172	623.6
567.577	637
567.982	635.2
568.409	625.6
568.815	609
569.22	622.8
569.626	621.8
570.053	609.8
570.459	627.6
570.865	619.4
571.292	621.8
571.698	627.8
572.104	606.2
572.531	604
572.937	618.4
573.343	611.8
573.75	608.4
574.177	618.4
574.583	620.8
574.99	609.6
575.396	619.2
575.824	617
576.231	623.6
576.637	619.4
577.065	639.2
577.472	610
577.879	610.8
578.286	627.2
578.714	604.6
579.121	619
579.528	618.8
579.935	622.8
580.364	612
580.771	593
581.178	608.8
581.585	615.4
582.014	614.4
582.421	613.2
582.829	611.2
583.236	618.8
583.644	608.2
584.073	608
584.481	609.6
584.889	600.6
585.296	614.4
585.726	614
586.134	594.2
586.542	606.6
586.95	617.6
587.358	598.4
587.787	605
588.196	612.4
588.604	602.2
589.012	603
589.421	598.2
589.851	611.4
590.259	611.2
590.668	604.2
591.076	636
591.485	596.6
591.894	599.2
592.324	619.6
592.733	621.8
593.142	587.8
593.551	600.2
593.96	610.2
594.369	598.2
594.8	607
595.209	601.6
595.618	590.8
596.028	597.4
596.437	588
596.847	595.6
597.256	604.4
597.687	608
598.097	605
598.507	588.8
598.917	598.8
599.327	604.4
599.736	592
600.146	599.8
600.556	598.8
600.988	609
601.398	595
601.808	597.4
602.219	582.6
602.629	600.2
603.039	606.6
603.45	621.6
603.86	600.4
604.271	614.4
604.703	588
605.114	593.8
605.525	601
605.935	605.2
606.346	617.8
606.757	600
607.168	596.6
607.579	586
607.99	598
608.402	599.4
608.813	604.2
609.224	589
609.636	585.8
610.047	600.2
610.48	591.8
610.892	602
611.303	608.6
611.715	594.4
612.127	589.4
612.539	589.4
612.95	607
613.362	585
613.774	583.2
614.186	586.8
614.599	580.2
615.011	599.4
615.423	589.6
615.835	593.4
616.248	584.4
616.66	595.8
617.073	583.4
617.485	585.6
617.898	600.6
618.311	581.2
618.723	595.8
619.136	614.6
619.549	605.4
619.962	616.2
620.375	594.4
620.788	589.8
621.201	588
621.614	598
622.028	586.4
622.441	593.8
622.854	600.6
623.268	588
623.681	601
624.095	593
624.509	598.4
624.922	596.2
625.336	585.8
625.728	589
626.142	608.8
626.556	606.8
626.97	599.4
627.384	586.8
627.799	588
628.213	599.6
628.627	592.4
629.041	580.8
629.456	590.8
629.87	595.8
630.285	598.8
630.699	597.4
631.093	588.8
631.507	597.4
631.922	600.2
632.337	606.6
632.752	579.4
633.167	586.4
633.582	592
633.997	587.6
634.412	580.8
634.806	595.6
635.221	586
635.637	592.2
636.052	573.6
636.468	595.8
636.883	605.4
637.299	589.4
637.715	573.4
638.109	593.2
638.525	579.6
638.941	595.2
639.357	590.4
639.773	596
640.189	586.2
640.584	589.2
641	590
641.416	576.8
641.832	584.4
642.249	583.6
642.665	581.6
643.06	595.8
643.477	600.8
643.894	573
644.31	585.6
644.727	587
645.123	579.6
645.54	581.8
645.957	594.8
646.374	597.8
646.77	589.6
647.187	607
647.604	588.4
648.021	571.4
648.439	585.4
648.835	596
649.252	591.8
649.67	586.6
650.088	581
650.484	591.2
650.902	588.6
651.32	589.2
651.738	588.4
652.134	587.2
652.552	609.2
652.971	594.6
653.389	583.6
653.786	592.2
654.204	614.4
654.622	579.8
655.019	595.8
655.438	586.8
655.857	583.8
656.275	589.2
656.673	578.4
657.091	586.4
657.51	583.8
657.908	592.8
658.327	597.6
658.746	576.6
659.144	584.2
659.563	596.6
659.982	585
660.38	572.6
660.8	589.4
661.219	602.6
661.617	592.8
662.037	583.4
662.457	591.2
662.855	566.6
663.275	611
663.695	581.2
664.094	586.6
664.514	582.6
664.934	574.4
665.333	582.4
665.753	571.6
666.152	576.8
666.572	577
666.993	588.2
667.392	580
667.812	579
668.212	579.4
668.632	591
669.053	579.8
669.453	583.4
669.874	585.6
670.273	590.4
670.694	576.6
671.116	595.6
671.515	593.8
671.937	581.4
672.337	579.2
672.758	578.6
673.158	590
673.58	578.6
673.98	584.4
674.402	597.6
674.824	582.2
675.224	574.2
675.646	578.6
676.047	578
676.469	589
676.869	587.4
677.292	590.8
677.693	577.8
678.115	582.4
678.516	587.4
678.939	591
679.34	588.2
679.762	596
680.164	589.2
680.586	581.6
680.988	583.4
681.411	597.4
681.812	578.4
682.236	571.6
682.637	571.4
683.061	570
683.462	583.8
683.864	578.6
684.288	589.6
684.69	575.8
685.114	586.8
685.516	587.6
685.94	581.8
686.342	591
686.766	585.2
687.168	575
687.571	598.2
687.995	586.4
688.398	569.2
688.822	584.6
689.225	600
689.628	599
690.052	583
690.456	590.6
690.88	583.2
691.284	573.6
691.687	598.6
692.112	573.2
692.515	575.6
692.919	581.2
693.344	588.8
693.747	586.4
694.173	578.2
694.577	597.8
694.98	591.4
695.406	575.6
695.81	585
696.214	587.8
696.64	589.4
697.044	584.2
697.448	593
697.874	580.6
698.279	579
698.684	571.4
699.11	575.8
699.514	575
699.919	578.8
700.324	574.4
700.75	591.8
701.156	576.2
701.561	585.4
701.987	586.6
702.393	595.6
702.798	594.8
703.203	585.8
703.63	584.8
704.036	577.2
704.442	586.4
704.847	573.6
705.274	581.4
705.68	592.6
706.086	589.2
706.492	580.2
706.92	583.4
707.326	590.8
707.732	583.2
708.139	575
708.545	581
708.973	579.8
709.38	588.2
709.786	566.8
710.193	598
710.6	586.6
711.028	577.8
711.435	582.2
711.842	580.2
712.249	586.2
712.656	578.2
713.064	586.8
713.492	575.8
713.9	577.8
714.307	578
714.715	577.4
715.123	581.6
715.53	585.8
715.938	586
716.367	587.4
716.775	581.2
717.184	571.4
717.592	587.8
718	596.2
718.408	607.6
718.816	618
719.225	580
719.633	584.6
720.042	565.8
720.472	577.8
720.881	596.4
721.29	578.6
721.699	575.4
722.108	589.2
722.517	582.2
722.926	571.6
723.335	592
723.744	578.8
724.154	579
724.563	576.2
724.973	583.6
725.382	584.8
725.792	576.4
726.202	576.4
726.612	598
727.022	588.4
727.432	576.2
779.813	576
780.223	625.2
780.634	582.2
781.044	579.2
781.454	580.8
781.865	591
782.276	569.2
782.686	590.8
783.097	574.2
783.508	575.8
783.919	577.4
784.33	586.8
784.741	589.8
785.152	574.4
785.563	572.4
785.974	570.6
786.386	585.8
786.776	579.6
787.188	578.6
787.599	573.4
788.011	585.8
788.423	583.2
788.835	575.8
789.247	568.4
789.659	571.4
790.071	580
790.483	615.6
790.874	580
791.286	586.8
791.699	577.6
792.111	579.2
792.524	577
792.937	580.6
793.349	568.2
793.741	573.2
794.154	569.6
794.567	590.8
794.98	573.6
795.393	567.4
795.785	591.2
796.198	573
796.612	581.8
797.026	573.4
797.439	561
797.831	583.6
798.245	570.6
798.659	580.8
799.073	572.2
799.487	569.4
799.88	577
800.294	576.6
800.708	577
801.123	587.8
801.516	597.2
801.93	563
802.345	569
802.76	581.2
803.153	597.4
803.568	591
803.983	582.8
804.377	582.2
804.792	556.4
805.207	568.4
805.601	578
806.016	610.8
806.432	581
806.826	618
807.242	587.6
807.658	586.8
808.052	574.8
808.468	575
808.884	576
809.279	580.6
809.695	588.8
810.111	600.2
810.506	582.8
810.922	587.4
811.339	571
811.734	582
812.151	577.8
812.546	576
812.963	569.6
813.38	580
813.776	573.6
814.193	599
814.589	564.2
815.006	574.2
815.402	570
815.82	573
816.237	572.2
816.633	578
817.051	563.6
817.448	585.2
817.866	563.6
818.262	591
818.68	578
819.077	568
819.495	571.2
819.892	618.2
820.311	568.6
820.708	581.6
821.127	567.6
821.524	586.6
821.943	578.8
822.34	595.6
822.759	576.2
823.157	576.2
823.576	597.4
823.974	588.8
824.393	623.2
824.791	571.6
825.189	573.6
825.609	577.4
826.007	575.8
826.427	572
826.826	588.6
827.246	592
827.644	559.8
828.043	591.6
828.463	568.6
828.862	583
829.261	579.6
829.682	574.6
830.081	580.2
830.502	567
830.901	583.2
831.301	593
831.722	569
832.121	580.4
832.521	576.2
832.943	567.8
833.342	572
833.742	565.4
834.164	582.4
834.564	569
834.965	577.4
835.386	570.4
835.787	568.6
836.188	577.4
836.588	575.4
837.01	579.2
837.411	566.2
837.812	582.8
838.213	585
838.636	580.8
839.037	636.4
839.438	568.2
839.84	574.6
840.263	582.4
840.664	588.8
841.066	571.4
841.468	577.2
841.891	579.2
842.293	582.2
842.695	593
843.098	594.6
843.5	574.4
843.902	583.6
844.326	574.2
844.729	576.8
845.131	585.2
845.534	574.4
845.937	590
846.34	595.6
846.764	581.2
847.167	581.8
847.571	574
847.974	580.8
848.377	571.6
848.781	621.4
849.184	589.8
849.588	569.2
849.992	570.4
850.396	582.8
850.821	593.6
851.225	577.2
851.63	577.4
852.034	585.8
852.438	578.2
852.843	598
853.247	564.2
853.652	570.4
854.057	599.4
854.462	576.2
854.867	580.6
855.272	604.2
855.677	580
856.082	573.6
856.487	571
856.893	583
