#lambda/nm	C1
208.295	538.6
208.67	488.6
209.045	447.6
209.419	442
209.794	611.6
210.169	592.8
210.544	703.2
210.919	610.8
211.295	594.6
211.67	607.8
212.045	605.2
212.421	601.2
212.796	638.8
213.172	607.2
213.547	599
213.923	601.8
214.299	601.4
214.675	609.8
215.051	615
215.427	612.8
215.803	625.4
216.179	611.2
216.555	597
216.932	620.4
217.308	608.6
217.684	607.8
218.061	617
218.438	613.4
218.814	600
219.191	614.2
219.568	603.2
219.945	602.2
220.322	606.8
220.699	616.4
221.076	615.6
221.453	608.8
221.83	598
222.208	600.2
222.585	599.8
222.962	611.2
223.34	602.8
223.717	613
224.095	598.2
224.473	598.8
224.851	601.2
225.229	594
225.607	617.4
225.985	606
226.363	607.8
226.741	600
227.119	603.6
227.497	621
227.876	598.2
228.254	614.8
228.633	611.2
229.011	607.6
229.39	618.2
229.769	614.2
230.148	610
230.527	619.6
230.905	612
231.284	603.8
231.664	601.6
232.043	620.2
232.422	613.6
232.801	596.6
233.181	609.4
233.56	604
233.94	600.4
234.319	593
234.699	609.8
235.079	640.4
235.458	637.2
235.838	618.8
236.218	595.2
236.598	596.4
236.978	603.6
237.358	596.4
237.738	605.6
238.119	608.2
238.499	597
238.88	605.6
239.26	615.2
239.641	592.6
240.021	601.8
240.402	599.4
240.783	604
241.163	594.4
241.544	609.4
241.925	594.2
242.306	617.6
242.687	607.8
243.069	608.8
243.45	615.6
243.831	597
244.212	602
244.594	642.2
244.975	608.6
245.357	604.2
245.739	603.2
246.12	606
246.502	615
246.884	599.4
247.266	604.4
247.648	606.4
248.03	614.8
248.412	607.4
248.794	611.6
249.176	600.4
249.559	615.2
249.941	592
250.323	602.2
250.706	603.2
251.089	601.6
251.471	609.2
251.854	606.8
252.237	599.4
252.62	618.4
253.002	605.2
253.385	608
253.769	613.4
254.152	603
254.535	605.2
254.918	597.2
255.301	606.4
255.685	600.2
256.068	599.2
256.452	623.8
256.835	604.2
257.219	608.4
257.603	622.2
257.986	593.4
258.37	613.6
258.754	592
259.138	613.8
259.522	606.4
259.906	601.4
260.29	609
260.675	609.6
261.059	611.6
261.443	598.6
261.828	616.6
262.212	609.4
262.597	606
262.981	600.4
263.366	603.8
263.751	604.4
264.136	602.6
264.521	600.8
264.906	594.6
265.291	614.6
265.676	608.2
266.061	610.6
266.446	616
266.831	604
267.217	627.4
267.602	605
267.987	606.2
268.373	603.2
268.759	611.8
269.144	616
269.53	606.4
269.916	601
270.302	595.4
270.688	607.2
271.074	605.2
271.46	613.4
271.846	632.8
272.232	604.2
272.618	597.4
273.004	599.6
273.391	609.8
273.777	618.4
274.164	608.4
274.55	609.2
274.937	607.8
275.324	600.4
275.71	615
276.097	612.4
276.484	603.2
276.871	603.6
277.258	601.8
277.645	590.2
278.032	603.4
278.419	599.2
278.807	605.8
279.194	591
279.581	598.8
279.969	607.6
280.356	607.6
280.744	604.4
281.131	620.8
281.519	614.4
281.907	599
282.295	597.4
282.682	606.6
283.07	610.2
283.458	609
283.846	614.8
284.235	619.6
284.623	615.4
285.011	599
285.399	610
285.788	604.2
286.176	593.8
286.565	610.4
286.953	593.8
287.342	600.8
287.731	605.2
288.119	597.2
288.508	595.6
288.897	606.4
289.286	590.6
289.675	598.8
290.064	610.2
290.453	602.2
290.821	606.2
291.21	620.2
291.599	596
291.989	613.4
292.378	616.8
292.768	631
293.157	610.8
293.547	611
293.936	604.6
294.326	600.8
294.716	611.8
295.106	605.6
295.496	609.2
295.886	613.2
296.276	614
296.666	599.6
297.056	599.6
297.446	602.4
297.836	625.2
298.227	607.6
298.617	604.2
299.008	621.6
299.398	607.6
299.789	603
300.179	604.2
300.57	620.4
300.961	603.6
301.352	601.8
301.742	605.8
302.133	600.6
302.524	597
302.915	610
303.307	600.4
303.698	608.4
304.089	615.6
304.48	600
304.872	609.4
305.263	612.4
305.655	600
306.046	606.6
306.438	610
306.829	602.2
307.221	615.4
307.613	616.2
308.005	615.8
308.397	620
308.789	621.6
309.181	628.2
309.573	618
309.965	621.8
310.357	603.6
310.749	618.4
311.142	595.8
311.534	604.8
311.926	606
312.319	610.4
312.711	597
313.104	618.2
313.497	606.6
313.889	634.4
314.282	617.4
314.675	624.6
315.068	603
315.461	615.4
315.854	636.2
316.247	608.6
316.64	612.2
317.033	607.6
317.405	619.2
317.798	610.8
318.192	612.6
318.585	599.8
318.979	607.2
319.372	598.4
319.766	602.8
320.16	612.2
320.553	614.2
320.947	621.6
321.341	595.6
321.735	609.6
322.129	588
322.523	630
322.917	601.8
323.311	618.8
323.705	608.2
324.099	609.2
324.494	614.6
324.888	613.4
325.282	607.2
325.677	618.4
326.071	616
326.466	614.2
326.861	603.6
327.255	616.4
327.65	609.4
328.045	622.2
328.44	607.4
328.835	608.2
329.23	601.2
329.625	626.8
330.02	600.4
330.415	630
330.81	611.8
331.206	614.6
331.601	609.2
331.996	613.6
332.37	631.2
332.766	594
333.161	628.8
333.557	600.8
333.953	610.8
334.348	942.4
334.744	607.4
335.14	610
335.536	601.2
335.932	623.6
336.328	602.8
336.724	619.8
337.12	608.8
337.516	609.8
337.913	609.4
338.309	617.4
338.705	605
339.102	609.4
339.498	596.6
339.895	620.8
340.291	601.2
340.688	604.6
341.085	588.6
341.481	607.8
341.878	604
342.275	614.2
342.672	599.6
343.069	598.8
343.466	590
343.842	608.4
344.239	592
344.636	597
345.033	593
345.431	598.8
345.828	605.2
346.225	599.2
346.623	624.4
347.02	600.8
347.418	617.6
347.816	612.8
348.213	589.4
348.611	612.4
349.009	599.2
349.407	624
349.805	592.2
350.203	594.6
350.601	621
350.999	597
351.397	644
351.795	607
352.193	611.2
352.57	614.4
352.969	615.8
353.367	592.6
353.766	591.2
354.164	595.6
354.563	608.8
354.961	609
355.36	600.4
355.759	604.4
356.158	596.8
356.557	600.6
356.956	603
357.355	591.8
357.754	614.8
358.153	606.4
358.552	623.6
358.951	597.4
359.35	613.8
359.75	601.6
360.149	598.2
360.527	596.6
360.926	594.8
361.326	600.4
361.726	599
362.125	599.2
362.525	609.6
362.925	600
363.325	602
363.724	609.6
364.124	598.6
364.524	598.8
364.924	598.4
365.324	608.6
365.725	589
366.125	611.2
366.525	601
366.904	590.4
367.304	585.4
367.705	621
368.105	603.8
368.506	590.8
368.906	604
369.307	596.4
369.708	605.2
370.108	589
370.509	598
370.91	597.4
371.311	588.8
371.712	603.6
372.113	595.4
372.514	589.8
372.894	592
373.295	592.6
373.696	615.4
374.097	608.8
374.499	616.6
374.9	600.8
375.301	589.2
375.703	603.2
376.105	596.6
376.506	603
376.908	601.6
377.309	604.6
377.711	607
378.113	597
378.493	593.4
378.895	590.8
379.297	601.6
379.699	590.2
380.102	598
380.504	589.4
380.906	586.2
381.308	620.6
381.71	593.2
382.113	603
382.515	596
382.918	597.8
383.299	594
383.701	604.8
384.104	597.4
384.507	580.6
384.909	601
385.312	593.2
385.715	596.2
386.118	592.2
386.521	591.6
386.924	598.8
387.327	592.8
387.709	594.2
388.112	583.6
388.515	593.8
388.918	587.8
389.322	605.2
389.725	597.2
390.129	618.4
390.532	597.6
390.936	596.8
391.339	589
391.743	590.6
392.125	592.8
392.529	609
392.933	614.2
393.337	606.2
393.74	596
394.144	599.6
394.548	590.4
394.953	592.4
395.357	603.8
395.761	595.4
396.144	600
396.548	599.4
396.952	608.4
397.357	596.8
397.761	596.8
398.166	592.6
398.57	588
398.975	581.2
399.379	604.2
399.763	640
400.168	595.4
400.572	600
400.977	594.8
401.382	620
401.787	598.6
402.192	610.4
402.597	610.6
403.002	591.4
403.386	610
403.791	616.4
404.197	591
404.602	604.8
405.007	597.2
405.413	595
405.818	596.8
406.224	601.2
406.608	597.8
407.014	589
407.42	610.8
407.825	595.8
408.231	602.2
408.637	595.8
409.043	610.2
409.449	592
409.834	592
410.24	603.8
410.646	611.4
411.052	614.2
411.458	602.4
411.865	605
412.271	610.4
412.677	598.6
413.062	600.4
413.469	595
413.875	621.8
414.282	609.8
414.689	600.4
415.095	606.6
415.502	594.2
415.888	596.8
416.294	584.2
416.701	638
417.108	598.8
417.515	604.4
417.923	594.6
418.33	619.8
418.715	610.4
419.123	598.6
419.53	592.8
419.937	603.2
420.345	620.2
420.752	598.6
421.16	612.8
421.546	603.4
421.953	614
422.361	598
422.769	600.2
423.177	589.2
423.585	618.2
423.992	616.6
424.379	606.8
424.787	626
425.195	616.4
425.603	611.2
426.011	607.8
426.419	617
426.806	605.8
427.214	605.2
427.623	621.6
428.031	617.6
428.44	612.8
428.848	612.2
429.235	624.8
429.644	618
430.053	611.8
430.461	638.2
430.87	643.8
431.279	630.8
431.666	619.8
432.075	629.6
432.484	641.4
432.893	653.6
433.302	679.4
433.711	698.4
434.099	676
434.508	674.8
434.918	677.8
435.327	699.6
435.737	707.6
436.125	717.8
436.534	726.8
436.944	725.6
437.353	737.2
437.763	760.8
438.173	739.8
438.561	769.8
438.971	748.4
439.381	759.2
439.791	778.6
440.201	779.2
440.589	796.2
440.999	804
441.409	814.6
441.819	814
442.23	826.4
442.619	842.4
443.029	844.4
443.439	850
443.85	854
444.26	861.4
444.649	870.4
445.06	868.8
445.471	859.6
445.881	864.6
446.292	888
446.682	894.2
447.092	861.6
447.503	941.2
447.914	890.2
448.325	894.6
448.715	901.2
449.126	881.6
449.537	907
449.948	899.2
450.338	903.8
450.75	900.6
451.161	909.4
451.572	915.2
451.984	907.8
452.374	896.4
452.786	904.6
453.197	917.8
453.609	926.8
453.999	917.6
454.411	920.8
454.823	931
455.235	919
455.647	921.4
456.037	923.2
456.449	905.4
456.862	917.8
457.274	930.2
457.665	911
458.077	931.4
458.489	962.2
458.902	925.2
459.293	941.6
459.705	933.2
460.118	925
460.53	933.2
460.921	918.4
461.334	930.4
461.747	936.2
462.16	939.2
462.551	932.2
462.964	930.8
463.377	906.6
463.79	926
464.182	938.2
464.595	938.4
465.008	933
465.421	943.4
465.813	934
466.226	931.2
466.64	930.8
467.053	961.8
467.445	948.6
467.859	951.4
468.272	940.6
468.686	945.4
469.078	931
469.492	930
469.906	943
470.298	939
470.712	922.2
471.126	970.4
471.54	916.2
471.933	922
472.347	922
472.761	933.2
473.175	912.8
473.568	908.6
473.982	909.2
474.397	916.4
474.79	917.6
475.204	932
475.619	924.8
476.033	904.8
476.426	910.2
476.841	903.6
477.256	921.6
477.649	902.6
478.064	898.2
478.479	888.2
478.872	901.4
479.287	880.6
479.702	884.6
480.118	905.8
480.511	895
480.927	891.6
481.342	890.8
481.736	890.8
482.151	882.4
482.566	900.8
482.96	893.2
483.376	890.8
483.792	876.8
484.186	891.6
484.602	882.2
485.017	879.8
485.412	872.4
485.827	882.6
486.243	879.2
486.638	890.8
487.054	871.2
487.47	888.4
487.865	861.6
488.281	869.2
488.697	868.2
489.092	860.2
489.508	864.4
489.925	867
490.32	856.6
490.736	862.6
491.153	849
491.548	857.6
491.964	854.4
492.381	842
492.776	855.2
493.193	845.4
493.61	851.4
494.006	838.2
494.422	845
494.84	834.2
495.235	848
495.652	837.6
496.069	832.4
496.465	818
496.883	827.6
497.3	859
497.696	827
498.113	835.8
498.509	808
498.927	812.6
499.344	813.8
499.741	806.6
500.158	820.8
500.576	813.8
500.973	798
501.39	804.6
501.787	792.8
502.205	806.8
502.623	791
503.02	792
503.438	789.2
503.856	800.4
504.253	796.2
504.671	794.2
505.068	782.6
505.486	778.2
505.905	801.2
506.302	787.8
506.72	780.8
507.118	771.6
507.536	774.4
507.955	773.4
508.352	785
508.771	772
509.169	787.8
509.587	761.4
510.006	773
510.404	750.8
510.823	760.4
511.221	756
511.64	759.4
512.038	767.4
512.457	761
512.877	753.8
513.275	749.2
513.694	749.4
514.092	746.6
514.512	755.2
514.91	746.4
515.33	740.8
515.749	738.2
516.148	740.6
516.568	740.2
516.966	744.2
517.386	741.4
517.785	739.2
518.205	728.6
518.603	732.4
519.024	726
519.444	732.6
519.843	731.4
520.263	732.6
520.662	721.6
521.082	725.6
521.481	721.4
521.902	712.4
522.301	719.8
522.722	723
523.121	714.6
523.542	709.2
523.963	715
524.362	717.6
524.783	718.4
525.183	711.6
525.604	712.4
526.003	702.4
526.425	700
526.824	726.2
527.246	711
527.646	715.4
528.067	707
528.467	699.6
528.888	706.6
529.289	695.2
529.71	695.2
530.11	689
530.532	692.6
530.932	685
531.354	677.2
531.755	723.2
532.176	690.8
532.577	689.2
532.999	683.6
533.4	676
533.822	697.6
534.223	683.8
534.645	670.6
535.046	667.8
535.468	680.4
535.869	690.6
536.292	680.8
536.693	701.4
537.115	670
537.516	665
537.939	668.4
538.34	681.2
538.742	682.2
539.165	668.2
539.566	671.4
539.989	668.4
540.391	657
540.814	662.6
541.216	667.6
541.639	669.2
542.041	675.2
542.464	663.2
542.866	663.4
543.268	654.6
543.691	669
544.093	664.6
544.517	673.2
544.919	653.2
545.343	675.4
545.745	648.8
546.147	664.6
546.571	657.8
546.974	647.2
547.398	657.6
547.8	662.8
548.224	660.8
548.627	641.4
549.03	656
549.454	635.2
549.857	642.2
550.281	635.8
550.684	649.8
551.087	654
551.512	649.8
551.915	657.8
552.34	652.8
552.743	648.2
553.146	651.2
553.571	648.8
553.975	659.2
554.399	632.6
554.803	689.2
555.207	637.8
555.632	633.6
556.036	646.8
556.461	633.8
556.865	643.8
557.268	637.2
557.694	631.4
558.098	638.8
558.502	636
558.927	629.6
559.332	628.6
559.736	633.8
560.162	639.6
560.566	627.8
560.992	642.2
561.396	636.8
561.801	623.2
562.227	634.2
562.631	627.4
563.036	625.4
563.462	635.6
563.867	629.6
564.272	621.6
564.698	635.6
565.103	617
565.508	645.2
565.935	622.2
566.34	620.6
566.745	642.6
567.172	627.2
567.577	645.4
567.982	630.6
568.409	626.2
568.815	611.2
569.22	625.8
569.626	633.2
570.053	614.6
570.459	624.6
570.865	626.8
571.292	633.4
571.698	628.8
572.104	603.6
572.531	612.6
572.937	620
573.343	613.6
573.75	619.8
574.177	615
574.583	618
574.99	615.4
575.396	619.8
575.824	615.2
576.231	623.6
576.637	610.4
577.065	633.4
577.472	610.2
577.879	614.4
578.286	628.8
578.714	602.8
579.121	605.2
579.528	617
579.935	617
580.364	612
580.771	599.4
581.178	605.2
581.585	619
582.014	617
582.421	607.2
582.829	615.2
583.236	618
583.644	603.6
584.073	606.6
584.481	610.4
584.889	599.4
585.296	613.4
585.726	605.6
586.134	599.8
586.542	589.4
586.95	620.8
587.358	600
587.787	602
588.196	624.2
588.604	605.8
589.012	590.8
589.421	591.4
589.851	597
590.259	602.4
590.668	601
591.076	638.4
591.485	590.6
591.894	597.4
592.324	610.8
592.733	609.2
593.142	590.6
593.551	592.2
593.96	626.6
594.369	595.8
594.8	582.8
595.209	590.2
595.618	584
596.028	606.2
596.437	588.8
596.847	602.6
597.256	603.4
597.687	602.6
598.097	593.6
598.507	586.6
598.917	599.8
599.327	604.8
599.736	596.4
600.146	609.8
600.556	598.2
600.988	611.2
601.398	599.2
601.808	598.4
602.219	584.2
602.629	596.6
603.039	595.8
603.45	618
603.86	597.2
604.271	605.2
604.703	591
605.114	596.8
605.525	598
605.935	601.6
606.346	607.8
606.757	600.4
607.168	595.2
607.579	584.4
607.99	606.6
608.402	596.2
608.813	596.2
609.224	588.8
609.636	584.8
610.047	593
610.48	595
610.892	600
611.303	603.2
611.715	582.8
612.127	581.8
612.539	589
612.95	598.6
613.362	574.6
613.774	586
614.186	591
614.599	589.8
615.011	601
615.423	598.8
615.835	590
616.248	585.4
616.66	599
617.073	590.4
617.485	590
617.898	599
618.311	595.4
618.723	595.6
619.136	610.4
619.549	596.6
619.962	612.4
620.375	590.8
620.788	598.6
621.201	576.2
621.614	595.4
622.028	592
622.441	586.8
622.854	606.8
623.268	582.6
623.681	591.6
624.095	595.2
624.509	603.4
624.922	586.2
625.336	577.2
625.728	594
626.142	597.4
626.556	602.6
626.97	598.8
627.384	592
627.799	588.6
628.213	603.4
628.627	589.8
629.041	587.6
629.456	585
629.87	587.2
630.285	598.2
630.699	604.2
631.093	585.2
631.507	589.8
631.922	586.6
632.337	599.8
632.752	574.2
633.167	578.6
633.582	586
633.997	578.2
634.412	579
634.806	582.8
635.221	570.8
635.637	592.6
636.052	583.8
636.468	583.6
636.883	597
637.299	584
637.715	575
638.109	586
638.525	582.4
638.941	594.2
639.357	579.4
639.773	595.4
640.189	584.8
640.584	585.8
641	586.8
641.416	574.6
641.832	586
642.249	584
642.665	585.6
643.06	586.8
643.477	593.6
643.894	580.8
644.31	583.8
644.727	591.4
645.123	588.4
645.54	586.2
645.957	583.6
646.374	597.6
646.77	586.2
647.187	610
647.604	590.2
648.021	570.4
648.439	580
648.835	584
649.252	588.8
649.67	579.8
650.088	589.8
650.484	586.6
650.902	586
651.32	593.2
651.738	586.8
652.134	583.8
652.552	604.8
652.971	589.4
653.389	587.4
653.786	596.2
654.204	602.8
654.622	585.8
655.019	589
655.438	594.2
655.857	582
656.275	588.2
656.673	577
657.091	583.4
657.51	575.6
657.908	579.2
658.327	591.2
658.746	577.4
659.144	581.8
659.563	593.2
659.982	587.4
660.38	575.8
660.8	574.6
661.219	581.8
661.617	584.6
662.037	587.4
662.457	595.2
662.855	568.2
663.275	607.4
663.695	582.6
664.094	588.4
664.514	581.6
664.934	578
665.333	586.6
665.753	587
666.152	570
666.572	582
666.993	596
667.392	583.6
667.812	587.8
668.212	584
668.632	587.8
669.053	577.4
669.453	580.8
669.874	581
670.273	580.6
670.694	569.8
671.116	583.2
671.515	588.4
671.937	579.2
672.337	569.4
672.758	582.6
673.158	590.2
673.58	567.4
673.98	586.4
674.402	593.4
674.824	571.6
675.224	576.2
675.646	570.8
676.047	579.2
676.469	580.6
676.869	572.2
677.292	579.2
677.693	577.4
678.115	581.6
678.516	583.6
678.939	588
679.34	583.2
679.762	594.6
680.164	581.2
680.586	577.6
680.988	584.8
681.411	601
681.812	572.8
682.236	584.4
682.637	571.2
683.061	573.6
683.462	580.8
683.864	576.8
684.288	586
684.69	572.8
685.114	592.6
685.516	584.4
685.94	568.4
686.342	586.6
686.766	578.2
687.168	575.4
687.571	603.4
687.995	579
688.398	571.2
688.822	572.4
689.225	599.4
689.628	601.4
690.052	579.4
690.456	585.6
690.88	577.6
691.284	567
691.687	580.4
692.112	569.2
692.515	568.6
692.919	578.6
693.344	578
693.747	585.4
694.173	573.2
694.577	585.6
694.98	580.2
695.406	578.8
695.81	579.8
696.214	588.6
696.64	574.4
697.044	587.2
697.448	586.6
697.874	578.2
698.279	580.8
698.684	575.8
699.11	578.2
699.514	567.4
699.919	573.4
700.324	572.4
700.75	581.8
701.156	577.4
701.561	586
701.987	581.6
702.393	584.8
702.798	592
703.203	584
703.63	574
704.036	577.4
704.442	580.6
704.847	570.8
705.274	573
705.68	584.4
706.086	584.8
706.492	574
706.92	579.8
707.326	585.6
707.732	578.6
708.139	570.6
708.545	577.4
708.973	570.4
709.38	579.2
709.786	571.2
710.193	593.8
710.6	576
711.028	572.4
711.435	576.4
711.842	583
712.249	579
712.656	576.2
713.064	590.4
713.492	573
713.9	572.4
714.307	581.8
714.715	581.2
715.123	574.6
715.53	586.6
715.938	589.8
716.367	582.6
716.775	575.4
717.184	569.4
717.592	577
718	585.6
718.408	607.8
718.816	620.2
719.225	585.2
719.633	583.8
720.042	567.2
720.472	564.8
720.881	599.4
721.29	585.6
721.699	570.8
722.108	584.2
722.517	579.4
722.926	568.8
723.335	576.4
723.744	577
724.154	581.2
724.563	586.8
724.973	583.8
725.382	572.8
725.792	574.2
726.202	572.4
726.612	596.6
727.022	578.6
727.432	574.6
779.813	572.4
780.223	608
780.634	575
781.044	571
781.454	569.4
781.865	585
782.276	570.6
782.686	575.8
783.097	575.2
783.508	568.2
783.919	573.6
784.33	584.6
784.741	589.4
785.152	565.4
785.563	574
785.974	568.2
786.386	583.6
786.776	563.8
787.188	588.6
787.599	572.2
788.011	576
788.423	581
788.835	570.2
789.247	571.4
789.659	568.6
790.071	573
790.483	613.8
790.874	575.2
791.286	583.2
791.699	571.8
792.111	577
792.524	580
792.937	577.4
793.349	565.4
793.741	573
794.154	572.4
794.567	588.2
794.98	573.2
795.393	556.2
795.785	599.2
796.198	566.8
796.612	581.6
797.026	578.8
797.439	563.4
797.831	578.8
798.245	559.4
798.659	582.4
799.073	566.6
799.487	571.2
799.88	575
800.294	573.2
800.708	578.2
801.123	578.6
801.516	593.4
801.93	569.6
802.345	563.8
802.76	578
803.153	584.6
803.568	580.6
803.983	580.2
804.377	591.2
804.792	566.4
805.207	563.8
805.601	579.4
806.016	610
806.432	570.2
806.826	602
807.242	581.2
807.658	574.4
808.052	580
808.468	570.4
808.884	570.2
809.279	573.8
809.695	589
810.111	595
810.506	575.4
810.922	599.8
811.339	572
811.734	587.6
812.151	571.6
812.546	567.2
812.963	566.2
813.38	580.6
813.776	573
814.193	590
814.589	571
815.006	572.6
815.402	569.4
815.82	577.4
816.237	575.6
816.633	580.8
817.051	566
817.448	567.2
817.866	564.2
818.262	585
818.68	568.4
819.077	566.2
819.495	569.2
819.892	604.8
820.311	562
820.708	569.4
821.127	578.8
821.524	578.8
821.943	575.4
822.34	580.6
822.759	567.6
823.157	574.6
823.576	586
823.974	585.8
824.393	620.8
824.791	572.2
825.189	574
825.609	566.4
826.007	574.6
826.427	559
826.826	572.6
827.246	582.4
827.644	560
828.043	584.2
828.463	573
828.862	586.8
829.261	585.6
829.682	568.6
830.081	578.8
830.502	572.6
830.901	582.8
831.301	588.4
831.722	572.6
832.121	572.8
832.521	571.2
832.943	572.4
833.342	578.6
833.742	565
834.164	568
834.564	565.2
834.965	565.4
835.386	570.2
835.787	574.6
836.188	568.6
836.588	577.6
837.01	578.4
837.411	566.2
837.812	580.6
838.213	575.6
838.636	566.6
839.037	626
839.438	574
839.84	575.6
840.263	581.8
840.664	582
841.066	576.4
841.468	579
841.891	577
842.293	584.8
842.695	582.8
843.098	581.8
843.5	566.4
843.902	570
844.326	569.6
844.729	578.2
845.131	588.4
845.534	560.4
845.937	590.8
846.34	595.2
846.764	572.2
847.167	577.8
847.571	569
847.974	572.2
848.377	577.2
848.781	621.8
849.184	581.6
849.588	567.8
849.992	580.8
850.396	574
850.821	583.6
851.225	576
851.63	570.4
852.034	581.4
852.438	577.2
852.843	596
853.247	567.4
853.652	570.4
854.057	596.4
854.462	577.6
854.867	579.2
855.272	601.6
855.677	582.6
856.082	566.2
