#lambda/nm	C1
208.295	543.8
208.67	485.8
209.045	443.2
209.419	452.8
209.794	600.6
210.169	586.4
210.544	692.4
210.919	608.8
211.295	589.6
211.67	601
212.045	605.4
212.421	596.6
212.796	628.2
213.172	586.2
213.547	587.8
213.923	593.6
214.299	589
214.675	601.4
215.051	600
215.427	604.4
215.803	609
216.179	599.8
216.555	593.2
216.932	610.6
217.308	602.2
217.684	605
218.061	600.8
218.438	603.2
218.814	600.6
219.191	596.6
219.568	599.4
219.945	599
220.322	602.4
220.699	602.6
221.076	598.8
221.453	598.6
221.83	593.8
222.208	598.2
222.585	597.6
222.962	594.2
223.34	603.6
223.717	594.6
224.095	594.6
224.473	600
224.851	596
225.229	589.2
225.607	614
225.985	591.2
226.363	596.6
226.741	598.2
227.119	601
227.497	606.2
227.876	588.6
228.254	611
228.633	610
229.011	598.6
229.39	608.4
229.769	600.2
230.148	608
230.527	617.8
230.905	594.8
231.284	601.6
231.664	593.2
232.043	609.2
232.422	610.4
232.801	596.4
233.181	601.8
233.56	610.4
233.94	599.6
234.319	590
234.699	601.8
235.079	630.4
235.458	635.8
235.838	613.6
236.218	591.2
236.598	584.6
236.978	585.2
237.358	598.2
237.738	596.8
238.119	605.8
238.499	581.8
238.88	593
239.26	613
239.641	590.4
240.021	598.6
240.402	595.2
240.783	592.4
241.163	598.2
241.544	595.4
241.925	599.4
242.306	606.8
242.687	600.2
243.069	598.6
243.45	597.6
243.831	590.6
244.212	601.6
244.594	637.4
244.975	612.4
245.357	606.4
245.739	597
246.12	603.2
246.502	614.4
246.884	599.8
247.266	601.4
247.648	606.6
248.03	622.2
248.412	602.2
248.794	606.6
249.176	598.4
249.559	612.2
249.941	584.4
250.323	591
250.706	590
251.089	598.6
251.471	590.4
251.854	598.2
252.237	605.2
252.62	602.8
253.002	594.8
253.385	598.4
253.769	611.8
254.152	598.2
254.535	600
254.918	591
255.301	595.4
255.685	589
256.068	594.2
256.452	611.2
256.835	599.8
257.219	604.6
257.603	611.4
257.986	583.2
258.37	603.8
258.754	585.8
259.138	598
259.522	602.2
259.906	598.6
260.29	600.8
260.675	606.4
261.059	603.4
261.443	593.4
261.828	607
262.212	603.8
262.597	594.8
262.981	599.4
263.366	599.4
263.751	593.8
264.136	596.6
264.521	601.6
264.906	593
265.291	608.6
265.676	592.2
266.061	605
266.446	620.4
266.831	606.8
267.217	616
267.602	604.4
267.987	595.4
268.373	598.6
268.759	613.4
269.144	601.6
269.53	600.4
269.916	599.4
270.302	600.2
270.688	605.4
271.074	604.2
271.46	613
271.846	626.6
272.232	598
272.618	593.4
273.004	595.6
273.391	612.2
273.777	609.6
274.164	606.2
274.55	609.4
274.937	602.4
275.324	596.6
275.71	611.4
276.097	605
276.484	594.2
276.871	603.6
277.258	599.2
277.645	594
278.032	597.8
278.419	599.4
278.807	606.2
279.194	603.6
279.581	586.8
279.969	607.4
280.356	601.2
280.744	599.4
281.131	612
281.519	610.2
281.907	597.2
282.295	596
282.682	606
283.07	601.6
283.458	605.6
283.846	613
284.235	606.8
284.623	611.8
285.011	593.6
285.399	602.2
285.788	600.2
286.176	594.4
286.565	607.8
286.953	586.6
287.342	591.8
287.731	592.8
288.119	598.2
288.508	598.6
288.897	591.8
289.286	584.4
289.675	597.4
290.064	611.4
290.453	593.4
290.821	590.8
291.21	609.8
291.599	591.8
291.989	603.2
292.378	606.4
292.768	610.8
293.157	600.4
293.547	617.6
293.936	598.6
294.326	593
294.716	598.8
295.106	601
295.496	606.4
295.886	606.4
296.276	600.8
296.666	597.2
297.056	596
297.446	597.4
297.836	614
298.227	600.4
298.617	597.2
299.008	604.6
299.398	594
299.789	596.4
300.179	599.2
300.57	619.8
300.961	596.2
301.352	594.6
301.742	613.6
302.133	603
302.524	596.2
302.915	598.4
303.307	592.4
303.698	603.8
304.089	606.2
304.48	597
304.872	600
305.263	594.2
305.655	597.2
306.046	600.8
306.438	605
306.829	594.2
307.221	610.6
307.613	599.8
308.005	608.2
308.397	607.8
308.789	610.2
309.181	616.6
309.573	612
309.965	610.4
310.357	603.4
310.749	612.4
311.142	588.2
311.534	597.8
311.926	615.6
312.319	598.2
312.711	584.4
313.104	610.2
313.497	598.2
313.889	631.6
314.282	608.8
314.675	618.6
315.068	592.6
315.461	606.6
315.854	621
316.247	598.6
316.64	604.2
317.033	591.4
317.405	602.4
317.798	586.6
318.192	602.8
318.585	592.6
318.979	604
319.372	601.8
319.766	589
320.16	602.2
320.553	614.4
320.947	615
321.341	595
321.735	594
322.129	590.2
322.523	618.6
322.917	587.2
323.311	608.8
323.705	601.8
324.099	596.8
324.494	608.4
324.888	608
325.282	591.8
325.677	610.6
326.071	617.2
326.466	614.4
326.861	602.2
327.255	603.6
327.65	619.8
328.045	612.2
328.44	603.6
328.835	596.4
329.23	595.2
329.625	619.4
330.02	598.8
330.415	624.4
330.81	602.6
331.206	605.2
331.601	600.4
331.996	611.2
332.37	617.4
332.766	597.2
333.161	620.2
333.557	600
333.953	599.4
334.348	971.6
334.744	601.6
335.14	597.6
335.536	585.8
335.932	613.4
336.328	598.4
336.724	605.8
337.12	599.2
337.516	603.8
337.913	600.8
338.309	604.6
338.705	599.8
339.102	616.6
339.498	594.2
339.895	613.4
340.291	594.4
340.688	603.2
341.085	594.8
341.481	599.8
341.878	598.8
342.275	622
342.672	588.8
343.069	593
343.466	584.6
343.842	612
344.239	592.2
344.636	603.4
345.033	601.4
345.431	600.4
345.828	600.4
346.225	594.6
346.623	628.2
347.02	606.6
347.418	607
347.816	609.8
348.213	594.6
348.611	606.2
349.009	591.2
349.407	608.2
349.805	589.4
350.203	586.6
350.601	603.4
350.999	589.4
351.397	637.6
351.795	598
352.193	608.4
352.57	606.6
352.969	607
353.367	584.2
353.766	582.2
354.164	595.8
354.563	600.4
354.961	593.6
355.36	587.4
355.759	591.4
356.158	590.4
356.557	592.4
356.956	583.8
357.355	578.8
357.754	594.6
358.153	593
358.552	620
358.951	595.6
359.35	601
359.75	590.2
360.149	588.6
360.527	586.4
360.926	585.4
361.326	597
361.726	594.2
362.125	594.4
362.525	606
362.925	590.6
363.325	590.8
363.724	597.2
364.124	588.8
364.524	580.8
364.924	594.2
365.324	607.4
365.725	580.6
366.125	600.4
366.525	592.6
366.904	589.8
367.304	580.6
367.705	607.4
368.105	603.4
368.506	590.4
368.906	594.6
369.307	590.8
369.708	597.2
370.108	586
370.509	606.4
370.91	579.2
371.311	594
371.712	591.8
372.113	590
372.514	583.6
372.894	597
373.295	586.2
373.696	608.8
374.097	600.6
374.499	620.8
374.9	597.2
375.301	587
375.703	589.8
376.105	588.6
376.506	597.2
376.908	603
377.309	588.8
377.711	593.6
378.113	588.6
378.493	601.6
378.895	586.8
379.297	604.2
379.699	581.8
380.102	600.6
380.504	589.4
380.906	589.8
381.308	616.8
381.71	587.2
382.113	599.6
382.515	587.8
382.918	593.8
383.299	593
383.701	607.8
384.104	601
384.507	574.2
384.909	592.2
385.312	578.8
385.715	592.2
386.118	595.2
386.521	579.8
386.924	598
387.327	592.6
387.709	582.4
388.112	576.8
388.515	583.4
388.918	586
389.322	594.8
389.725	581.8
390.129	608
390.532	592.4
390.936	586.4
391.339	580.6
391.743	585.8
392.125	588.6
392.529	603
392.933	600.2
393.337	594.2
393.74	598
394.144	590
394.548	592
394.953	599.2
395.357	599.6
395.761	591.6
396.144	593
396.548	589.4
396.952	594.4
397.357	604.4
397.761	584.2
398.166	581.4
398.57	588.8
398.975	582.8
399.379	585.4
399.763	628.2
400.168	592.8
400.572	592.2
400.977	587.4
401.382	607.4
401.787	601
402.192	607.2
402.597	599.8
403.002	581.4
403.386	598
403.791	604.8
404.197	588.4
404.602	593.6
405.007	594
405.413	583.2
405.818	585.8
406.224	586.4
406.608	586
407.014	582.4
407.42	607.2
407.825	581
408.231	597.2
408.637	597.2
409.043	607.6
409.449	589.2
409.834	586.4
410.24	591.8
410.646	597.4
411.052	595.2
411.458	595.2
411.865	594.8
412.271	597.8
412.677	594.4
413.062	605.2
413.469	594
413.875	608.8
414.282	604.8
414.689	602.4
415.095	590.2
415.502	582.4
415.888	591
416.294	578.2
416.701	627.2
417.108	582.6
417.515	606
417.923	592.2
418.33	615.6
418.715	598
419.123	592.4
419.53	585.8
419.937	599.6
420.345	604.2
420.752	596
421.16	603.8
421.546	587.8
421.953	602
422.361	589.2
422.769	592.8
423.177	584.4
423.585	617.4
423.992	606.6
424.379	607.6
424.787	596.2
425.195	610.4
425.603	594.2
426.011	608.2
426.419	606.6
426.806	599.4
427.214	596.2
427.623	612
428.031	611.6
428.44	602.2
428.848	606.8
429.235	624.6
429.644	612.6
430.053	606.8
430.461	625
430.87	644.2
431.279	638.4
431.666	619
432.075	631.2
432.484	647
432.893	640.4
433.302	660.2
433.711	695
434.099	670.4
434.508	667
434.918	674.4
435.327	711.2
435.737	700
436.125	703.4
436.534	718.8
436.944	735.2
437.353	747.4
437.763	769.6
438.173	750
438.561	779
438.971	765
439.381	785.8
439.791	797.6
440.201	791
440.589	809.6
440.999	823
441.409	832.6
441.819	817.2
442.23	836.6
442.619	847.2
443.029	863.2
443.439	849
443.85	860.2
444.26	866.6
444.649	863.6
445.06	868.6
445.471	867.4
445.881	878.2
446.292	900.8
446.682	915.4
447.092	892.6
447.503	942.4
447.914	899.6
448.325	918
448.715	895.2
449.126	881.4
449.537	912
449.948	909.2
450.338	906.6
450.75	919.8
451.161	915.2
451.572	934.6
451.984	914.2
452.374	911.4
452.786	925.4
453.197	935.6
453.609	934.8
453.999	915.4
454.411	923.6
454.823	948.6
455.235	932
455.647	929.4
456.037	939.2
456.449	932.8
456.862	950.6
457.274	942.6
457.665	942.6
458.077	954.4
458.489	965
458.902	948.8
459.293	934
459.705	946.8
460.118	938.2
460.53	945.6
460.921	936.2
461.334	952.4
461.747	953.6
462.16	958.6
462.551	950.6
462.964	944
463.377	922.4
463.79	947.8
464.182	947
464.595	935.4
465.008	958.4
465.421	951.4
465.813	946
466.226	948.6
466.64	937.8
467.053	996
467.445	967.4
467.859	973
468.272	958.8
468.686	960
469.078	952.2
469.492	927.8
469.906	960.2
470.298	951
470.712	944.2
471.126	997
471.54	928
471.933	931.8
472.347	939.4
472.761	937
473.175	941.4
473.568	925.8
473.982	928
474.397	941
474.79	922.6
475.204	930.8
475.619	928.2
476.033	925
476.426	921
476.841	931.2
477.256	937
477.649	911.8
478.064	917.2
478.479	914.4
478.872	913.8
479.287	908.4
479.702	908.8
480.118	915.8
480.511	905.6
480.927	900.2
481.342	905.4
481.736	908.4
482.151	900.4
482.566	919.6
482.96	898.6
483.376	904.6
483.792	891.2
484.186	912.8
484.602	884
485.017	889.2
485.412	883.8
485.827	883.4
486.243	884.4
486.638	906.2
487.054	892
487.47	894.6
487.865	877.2
488.281	863
488.697	865.6
489.092	868
489.508	866.4
489.925	875
490.32	858
490.736	871.8
491.153	858.6
491.548	862
491.964	869.6
492.381	845.6
492.776	866.4
493.193	857.8
493.61	858.2
494.006	859
494.422	852.8
494.84	832.2
495.235	857.4
495.652	842.8
496.069	848.2
496.465	832.8
496.883	838.2
497.3	864.6
497.696	824.4
498.113	831.6
498.509	807.4
498.927	816.4
499.344	821
499.741	820.8
500.158	822.6
500.576	816.2
500.973	819.4
501.39	804
501.787	793.6
502.205	805.6
502.623	800
503.02	795.2
503.438	800.8
503.856	793.4
504.253	785.8
504.671	791
505.068	784
505.486	792.6
505.905	803.6
506.302	782.4
506.72	796.6
507.118	775
507.536	788.6
507.955	776.8
508.352	779.6
508.771	777.4
509.169	772.8
509.587	756.2
510.006	775
510.404	758.2
510.823	756.4
511.221	761.8
511.64	754.8
512.038	762.4
512.457	754.4
512.877	758.6
513.275	756
513.694	749
514.092	747
514.512	758.8
514.91	753
515.33	750.2
515.749	746.8
516.148	736.6
516.568	747.6
516.966	740.8
517.386	736.8
517.785	740.2
518.205	729.2
518.603	728.4
519.024	730
519.444	731
519.843	747.8
520.263	732.4
520.662	730.4
521.082	715.8
521.481	715.2
521.902	723.2
522.301	726.6
522.722	711.8
523.121	714.6
523.542	707.6
523.963	712
524.362	703
524.783	713.6
525.183	710.4
525.604	706.4
526.003	709.2
526.425	703.4
526.824	706.4
527.246	712.2
527.646	715.4
528.067	712.6
528.467	699.2
528.888	702.6
529.289	696.4
529.71	697.4
530.11	697.6
530.532	691.4
530.932	690.6
531.354	678.6
531.755	716
532.176	691.2
532.577	672
532.999	685.2
533.4	676
533.822	686.6
534.223	689
534.645	675.6
535.046	670
535.468	680.4
535.869	685.6
536.292	673.4
536.693	701.4
537.115	684.6
537.516	666
537.939	662.6
538.34	682
538.742	681.4
539.165	672.2
539.566	668.2
539.989	662.8
540.391	672.6
540.814	669
541.216	665.4
541.639	658.2
542.041	668.6
542.464	657.6
542.866	653
543.268	649.4
543.691	664.2
544.093	659
544.517	684.6
544.919	647.6
545.343	682.6
545.745	648.2
546.147	650.4
546.571	652
546.974	645.4
547.398	657.8
547.8	666.6
548.224	649.4
548.627	640.2
549.03	648
549.454	646.8
549.857	634
550.281	632.6
550.684	646.2
551.087	647.4
551.512	650.6
551.915	644.6
552.34	643.2
552.743	631.4
553.146	639.4
553.571	642
553.975	665.6
554.399	641.8
554.803	681
555.207	637
555.632	626.6
556.036	640.2
556.461	633.8
556.865	640.6
557.268	634.8
557.694	636.2
558.098	642.6
558.502	641.2
558.927	627.2
559.332	634
559.736	631.6
560.162	639.4
560.566	636.8
560.992	628
561.396	628
561.801	628.8
562.227	635
562.631	624.6
563.036	620.8
563.462	633
563.867	643.8
564.272	615.4
564.698	626.8
565.103	619.2
565.508	645.6
565.935	628.8
566.34	612.8
566.745	634.8
567.172	626.4
567.577	640
567.982	634.8
568.409	626.2
568.815	615
569.22	621.2
569.626	628
570.053	612
570.459	630.2
570.865	627.8
571.292	626.8
571.698	620.2
572.104	610.2
572.531	617.8
572.937	632.4
573.343	604
573.75	619.4
574.177	613.8
574.583	629.6
574.99	617.8
575.396	620.6
575.824	620.4
576.231	619.6
576.637	617.2
577.065	636.4
577.472	613.2
577.879	607.4
578.286	625.4
578.714	599
579.121	608.8
579.528	610.6
579.935	610.4
580.364	605
580.771	596.2
581.178	598.8
581.585	609.6
582.014	616.6
582.421	596.4
582.829	597
583.236	619.2
583.644	604
584.073	589.8
584.481	607.4
584.889	602.2
585.296	604.4
585.726	611.8
586.134	593.8
586.542	605.6
586.95	616.6
587.358	593.8
587.787	600.6
588.196	613.4
588.604	610.2
589.012	594.8
589.421	594.2
589.851	597.2
590.259	598.4
590.668	590.4
591.076	629
591.485	597.2
591.894	599.2
592.324	614.6
592.733	615.2
593.142	592
593.551	592.4
593.96	623.8
594.369	583.6
594.8	584.2
595.209	593
595.618	588
596.028	593.6
596.437	579.8
596.847	596.4
597.256	595.8
597.687	595.8
598.097	581.2
598.507	585.8
598.917	596.4
599.327	602.6
599.736	593.8
600.146	598.6
600.556	591.6
600.988	609.6
601.398	587.6
601.808	609.2
602.219	584.6
602.629	586.2
603.039	601.4
603.45	618.4
603.86	591.2
604.271	605.8
604.703	587.4
605.114	594.2
605.525	593
605.935	595.8
606.346	614
606.757	595.8
607.168	590.2
607.579	582.8
607.99	605.6
608.402	590.2
608.813	586.2
609.224	581.8
609.636	582.2
610.047	588.4
610.48	589.6
610.892	603
611.303	595
611.715	587.6
612.127	583.6
612.539	583.6
612.95	593.2
613.362	590.6
613.774	586
614.186	590.4
614.599	597.6
615.011	602.2
615.423	597
615.835	588.4
616.248	580.6
616.66	599.8
617.073	591.2
617.485	588.8
617.898	597.8
618.311	587.8
618.723	596.6
619.136	622.4
619.549	611.6
619.962	614.6
620.375	592.8
620.788	597.8
621.201	587.2
621.614	604.4
622.028	592.2
622.441	600.8
622.854	607
623.268	584.6
623.681	596.6
624.095	600.2
624.509	593.4
624.922	605.2
625.336	590
625.728	587.2
626.142	595.6
626.556	608.8
626.97	604
627.384	589.2
627.799	595.4
628.213	603
628.627	597.2
629.041	584
629.456	591
629.87	597.6
630.285	603.4
630.699	603.4
631.093	589.8
631.507	599.2
631.922	596
632.337	608.4
632.752	589.2
633.167	586.4
633.582	586.8
633.997	586.2
634.412	579.2
634.806	596
635.221	583.4
635.637	599.2
636.052	584.4
636.468	589
636.883	608
637.299	595
637.715	579.2
638.109	588.8
638.525	578.8
638.941	606.4
639.357	592.8
639.773	604
640.189	588.8
640.584	580.8
641	587
641.416	579
641.832	587
642.249	584.8
642.665	590.8
643.06	586.4
643.477	596.2
643.894	572.6
644.31	585.4
644.727	586.2
645.123	579.4
645.54	575.2
645.957	581.6
646.374	590.8
646.77	588.6
647.187	610
647.604	591.4
648.021	572
648.439	578.2
648.835	590.4
649.252	578.4
649.67	585.4
650.088	586
650.484	594
650.902	593.8
651.32	588.8
651.738	577.2
652.134	591
652.552	599.8
652.971	586.8
653.389	582
653.786	597.8
654.204	595
654.622	579.2
655.019	584.4
655.438	576.6
655.857	581.6
656.275	585.2
656.673	573.8
657.091	589.8
657.51	572.4
657.908	592.4
658.327	594.4
658.746	576
659.144	580.4
659.563	590.4
659.982	581
660.38	574.2
660.8	586.4
661.219	590.6
661.617	595.2
662.037	576.6
662.457	583
662.855	568.6
663.275	613.4
663.695	583.4
664.094	585
664.514	585.4
664.934	576.4
665.333	577.8
665.753	572.4
666.152	567
666.572	581.2
666.993	597.8
667.392	573.8
667.812	583.2
668.212	572.4
668.632	587.2
669.053	571.6
669.453	580.6
669.874	578.6
670.273	580.6
670.694	571
671.116	586.6
671.515	590
671.937	579.2
672.337	574
672.758	574
673.158	581.2
673.58	562.8
673.98	574.4
674.402	589
674.824	571.8
675.224	574.8
675.646	572.8
676.047	569.6
676.469	570.6
676.869	579.4
677.292	577.8
677.693	565.4
678.115	573.4
678.516	577
678.939	584.4
679.34	574.8
679.762	581.8
680.164	581.2
680.586	564.2
680.988	582
681.411	592.2
681.812	571.6
682.236	562.2
682.637	565.4
683.061	569.6
683.462	576
683.864	575.2
684.288	585.2
684.69	570.4
685.114	589.2
685.516	586.4
685.94	568.2
686.342	586
686.766	561
687.168	577
687.571	585.4
687.995	585.2
688.398	564.4
688.822	574.6
689.225	592.8
689.628	590.8
690.052	575.4
690.456	579.2
690.88	579.6
691.284	566.4
691.687	572.8
692.112	565.8
692.515	563.6
692.919	578.2
693.344	573.6
693.747	574.4
694.173	573
694.577	579.8
694.98	572
695.406	566.2
695.81	571.4
696.214	570.6
696.64	576.6
697.044	576.4
697.448	581.4
697.874	577.4
698.279	581
698.684	572.8
699.11	569.2
699.514	572.4
699.919	569.6
700.324	564.8
700.75	576.2
701.156	571.6
701.561	589.4
701.987	574.2
702.393	584.6
702.798	578
703.203	576.6
703.63	562.4
704.036	573.8
704.442	576.2
704.847	570.8
705.274	570.4
705.68	570.4
706.086	578.2
706.492	568.2
706.92	572.2
707.326	581.8
707.732	566.6
708.139	557.6
708.545	570
708.973	569.6
709.38	572.6
709.786	565.6
710.193	588
710.6	571.6
711.028	568.4
711.435	566.8
711.842	571.2
712.249	574.4
712.656	569.8
713.064	581
713.492	558.6
713.9	565.6
714.307	579.4
714.715	578.2
715.123	582
715.53	580.8
715.938	581.8
716.367	575.8
716.775	573.4
717.184	572.4
717.592	572.2
718	582.2
718.408	599.8
718.816	607
719.225	581.6
719.633	574
720.042	567
720.472	573.8
720.881	592.6
721.29	579.4
721.699	570
722.108	574
722.517	575.4
722.926	577.6
723.335	577
723.744	572.2
724.154	564.6
724.563	579.8
724.973	573.4
725.382	572.8
725.792	565.6
726.202	560.8
726.612	580.4
727.022	569.2
727.432	563.6
779.813	579.8
780.223	606.4
780.634	566.2
781.044	573.4
781.454	578
781.865	582.6
782.276	562
782.686	580.6
783.097	567.6
783.508	576.6
783.919	577.4
784.33	576
784.741	591.4
785.152	562.6
785.563	560.6
785.974	567.6
786.386	577
786.776	569.8
787.188	564.4
787.599	565.4
788.011	574.6
788.423	580.6
788.835	568
789.247	568.4
789.659	569.6
790.071	560.4
790.483	603.6
790.874	565.4
791.286	577
791.699	569.6
792.111	569
792.524	562.6
792.937	564.2
793.349	562.2
793.741	564
794.154	562
794.567	582.8
794.98	569.8
795.393	558.4
795.785	586.2
796.198	568.6
796.612	575.2
797.026	573.4
797.439	556.6
797.831	565.8
798.245	565.4
798.659	568.4
799.073	571.8
799.487	557.8
799.88	571.4
800.294	570.2
800.708	573
801.123	564
801.516	583.8
801.93	559.4
802.345	559.2
802.76	571.6
803.153	580.2
803.568	576.8
803.983	583.8
804.377	573.2
804.792	560.8
805.207	559.8
805.601	578.6
806.016	603.2
806.432	564.2
806.826	600.6
807.242	580.4
807.658	573.4
808.052	565.6
808.468	566.6
808.884	568
809.279	579.4
809.695	586.4
810.111	584.8
810.506	579
810.922	591.6
811.339	567
811.734	577
812.151	568.2
812.546	561.2
812.963	563
813.38	577.8
813.776	573.2
814.193	588.2
814.589	566.6
815.006	566
815.402	563
815.82	562.8
816.237	576.4
816.633	576.4
817.051	568.8
817.448	575.8
817.866	560.2
818.262	587.8
818.68	556.8
819.077	561.6
819.495	572.6
819.892	600.8
820.311	570.8
820.708	565.8
821.127	566
821.524	582.2
821.943	569.8
822.34	584.6
822.759	568
823.157	570.2
823.576	578.6
823.974	576.8
824.393	606.6
824.791	564.6
825.189	559.2
825.609	561.8
826.007	564.4
826.427	560
826.826	571
827.246	572.8
827.644	560.6
828.043	578.2
828.463	562.4
828.862	574.4
829.261	577
829.682	561.4
830.081	578.2
830.502	558.4
830.901	574.4
831.301	584.2
831.722	561.6
832.121	576
832.521	570
832.943	570.8
833.342	570.4
833.742	564.4
834.164	566.2
834.564	563.4
834.965	567.4
835.386	567.4
835.787	572.4
836.188	576.2
836.588	568.6
837.01	576.4
837.411	562.8
837.812	572.8
838.213	571.8
838.636	576.2
839.037	624.6
839.438	574.6
839.84	566.8
840.263	574.2
840.664	573.4
841.066	569.8
841.468	568
841.891	569
842.293	571.4
842.695	576.2
843.098	575.6
843.5	565.2
843.902	565.2
844.326	566.8
844.729	569.4
845.131	584.8
845.534	567.6
845.937	581
846.34	587
846.764	561.6
847.167	571
847.571	566
847.974	582
848.377	564.4
848.781	609.8
849.184	582.6
849.588	566.4
849.992	560.6
850.396	567.4
850.821	585.4
851.225	574.8
851.63	572.2
852.034	579
852.438	564.8
852.843	641
853.247	562.2
853.652	561.4
854.057	583.6
854.462	564.8
854.867	568.6
855.272	594
