#lambda/nm	C1
208.295	557
208.67	496.6
209.045	458.8
209.419	448.4
209.794	587.8
210.169	584.8
210.544	683.6
210.919	601.4
211.295	587.4
211.67	597.2
212.045	589.8
212.421	590.4
212.796	624.4
213.172	589.8
213.547	581.8
213.923	589.2
214.299	590.4
214.675	590.6
215.051	594.4
215.427	603.4
215.803	606
216.179	594.4
216.555	588.8
216.932	600.4
217.308	598.4
217.684	589.4
218.061	596
218.438	601
218.814	587.4
219.191	593.6
219.568	590
219.945	593.4
220.322	597.2
220.699	596.6
221.076	595.6
221.453	598.2
221.83	583
222.208	593
222.585	587.2
222.962	595.6
223.34	598.4
223.717	588
224.095	588.2
224.473	593.2
224.851	590.6
225.229	585.2
225.607	600.8
225.985	588.2
226.363	592
226.741	596.2
227.119	590.6
227.497	596.4
227.876	578.6
228.254	594.8
228.633	596.2
229.011	587
229.39	598
229.769	597.8
230.148	598
230.527	604.6
230.905	589
231.284	590
231.664	578.4
232.043	600
232.422	598
232.801	590.6
233.181	597.2
233.56	588.6
233.94	585.2
234.319	583.4
234.699	592
235.079	617.8
235.458	619.2
235.838	611.6
236.218	582.2
236.598	588.8
236.978	592.6
237.358	587.8
237.738	582
238.119	596.6
238.499	589.8
238.88	590.6
239.26	596.8
239.641	585.2
240.021	588
240.402	594
240.783	585.4
241.163	596.2
241.544	596.2
241.925	587.6
242.306	602
242.687	592.6
243.069	591.8
243.45	592.6
243.831	590
244.212	595
244.594	625.8
244.975	603.4
245.357	588.2
245.739	580.2
246.12	593.8
246.502	596
246.884	589.2
247.266	583.8
247.648	584.6
248.03	608.4
248.412	591.8
248.794	592.8
249.176	587.2
249.559	598
249.941	586.2
250.323	587.8
250.706	583.2
251.089	583.6
251.471	605.4
251.854	591
252.237	583.4
252.62	592.4
253.002	587.8
253.385	585.6
253.769	605.2
254.152	588.8
254.535	599.2
254.918	582.8
255.301	581.2
255.685	585.4
256.068	585
256.452	608.2
256.835	588.6
257.219	600.6
257.603	606.8
257.986	592.2
258.37	591.6
258.754	581
259.138	599.8
259.522	600.4
259.906	592.6
260.29	589.6
260.675	592.6
261.059	589.4
261.443	581.8
261.828	599.8
262.212	592
262.597	584.4
262.981	589.8
263.366	592.6
263.751	583.6
264.136	578
264.521	585.4
264.906	581.4
265.291	588.2
265.676	577.4
266.061	592.8
266.446	597.8
266.831	587.4
267.217	604.6
267.602	587.8
267.987	592.4
268.373	577.8
268.759	589.8
269.144	589
269.53	588.8
269.916	585.2
270.302	592
270.688	595.8
271.074	596
271.46	597.8
271.846	619.8
272.232	596
272.618	587.2
273.004	597.6
273.391	603.6
273.777	604.6
274.164	592.8
274.55	596.8
274.937	594.4
275.324	589.4
275.71	600.8
276.097	602.8
276.484	583.6
276.871	596.2
277.258	591
277.645	571
278.032	591.6
278.419	588.2
278.807	594
279.194	588.6
279.581	579.2
279.969	593.2
280.356	591
280.744	598.8
281.131	608.4
281.519	598
281.907	583.8
282.295	582
282.682	597
283.07	589.6
283.458	599.2
283.846	605.4
284.235	602.6
284.623	592.2
285.011	587.6
285.399	597.8
285.788	592.8
286.176	577.8
286.565	599.4
286.953	587.2
287.342	585
287.731	585.8
288.119	593.8
288.508	584.6
288.897	589.2
289.286	588
289.675	594
290.064	601.2
290.453	586.6
290.821	590.2
291.21	600.8
291.599	595
291.989	584.2
292.378	602.4
292.768	608.6
293.157	594.8
293.547	601.6
293.936	596.6
294.326	586.8
294.716	592.8
295.106	591.6
295.496	602
295.886	597
296.276	590
296.666	584.2
297.056	582
297.446	576.2
297.836	605.8
298.227	595.4
298.617	601.8
299.008	602.4
299.398	586.4
299.789	585.2
300.179	597
300.57	604.2
300.961	583.2
301.352	593.8
301.742	595
302.133	592
302.524	586.6
302.915	594
303.307	584.4
303.698	595.6
304.089	592.4
304.48	591
304.872	597.4
305.263	588.8
305.655	587.8
306.046	601.2
306.438	606
306.829	582.4
307.221	605.6
307.613	599.2
308.005	600.2
308.397	602.4
308.789	613.4
309.181	613.8
309.573	602
309.965	606.6
310.357	589
310.749	595
311.142	582.8
311.534	587.4
311.926	602.8
312.319	597.6
312.711	587.8
313.104	598.6
313.497	589.8
313.889	624.2
314.282	606.2
314.675	612.2
315.068	588.8
315.461	603.4
315.854	615.4
316.247	599
316.64	585.6
317.033	591
317.405	590.6
317.798	588.4
318.192	596
318.585	583.2
318.979	590
319.372	587.2
319.766	584.8
320.16	596.2
320.553	611.2
320.947	610.2
321.341	583.8
321.735	598
322.129	577.8
322.523	614.2
322.917	580.8
323.311	600.2
323.705	584.4
324.099	595.6
324.494	606.4
324.888	591.8
325.282	587.6
325.677	596.8
326.071	595
326.466	595.2
326.861	596.2
327.255	596.6
327.65	598
328.045	601.8
328.44	588.6
328.835	599.8
329.23	587.4
329.625	604.4
330.02	591
330.415	615.4
330.81	587.6
331.206	595.2
331.601	595.2
331.996	597.2
332.37	607
332.766	580.2
333.161	603
333.557	590.8
333.953	591
334.348	897
334.744	596
335.14	590.4
335.536	578
335.932	607.6
336.328	586.8
336.724	597.6
337.12	590.8
337.516	589.8
337.913	585.8
338.309	596.8
338.705	589.4
339.102	597.6
339.498	589.8
339.895	607.2
340.291	590.6
340.688	601
341.085	584.2
341.481	586.4
341.878	591
342.275	606.6
342.672	583.4
343.069	591.4
343.466	578.8
343.842	595.6
344.239	586.4
344.636	590.6
345.033	586
345.431	582.8
345.828	595.8
346.225	591.4
346.623	621.2
347.02	592.6
347.418	599.6
347.816	606.6
348.213	575.6
348.611	596
349.009	586.8
349.407	592.2
349.805	585.2
350.203	582.8
350.601	598.6
350.999	590.2
351.397	625.8
351.795	588.8
352.193	590.8
352.57	596
352.969	601.4
353.367	574.2
353.766	582.8
354.164	589.4
354.563	597
354.961	587.4
355.36	583.4
355.759	580.8
356.158	585.2
356.557	577.2
356.956	579
357.355	582.8
357.754	590.6
358.153	590.2
358.552	605.4
358.951	590.2
359.35	600.8
359.75	584.4
360.149	581.4
360.527	575.2
360.926	579.8
361.326	587.8
361.726	584.4
362.125	579.4
362.525	587.4
362.925	581.4
363.325	580.2
363.724	583.8
364.124	590.4
364.524	581
364.924	584.4
365.324	588.8
365.725	569
366.125	582.8
366.525	577.2
366.904	575.6
367.304	570.2
367.705	597
368.105	596.4
368.506	581.2
368.906	584.2
369.307	583.4
369.708	587.8
370.108	573.8
370.509	593.8
370.91	583.2
371.311	592.4
371.712	586.6
372.113	586.2
372.514	576.2
372.894	583.8
373.295	585.8
373.696	593
374.097	587.2
374.499	614
374.9	585.2
375.301	578.4
375.703	589
376.105	576.8
376.506	582.8
376.908	595
377.309	580.8
377.711	579.6
378.113	576.4
378.493	585.8
378.895	586.4
379.297	596
379.699	571.8
380.102	583.4
380.504	581.8
380.906	583.6
381.308	606.2
381.71	590
382.113	593.4
382.515	578.8
382.918	582.8
383.299	578
383.701	590.4
384.104	589.8
384.507	574.8
384.909	580.2
385.312	572.6
385.715	582.2
386.118	586.8
386.521	575
386.924	596.2
387.327	581.4
387.709	568.8
388.112	570
388.515	588.4
388.918	581
389.322	582.4
389.725	585.8
390.129	605
390.532	592.8
390.936	584
391.339	573
391.743	589.2
392.125	587.6
392.529	592.8
392.933	595.6
393.337	594
393.74	585.2
394.144	587.2
394.548	577
394.953	582.6
395.357	594.4
395.761	583.2
396.144	584.2
396.548	579.4
396.952	581.6
397.357	590.4
397.761	581.2
398.166	582.8
398.57	582.2
398.975	578.4
399.379	588.4
399.763	626.2
400.168	581.8
400.572	578.6
400.977	588.2
401.382	592.2
401.787	593
402.192	603.2
402.597	599.8
403.002	573
403.386	597.6
403.791	600.6
404.197	578
404.602	579
405.007	583.4
405.413	579.8
405.818	583.4
406.224	577.4
406.608	576.6
407.014	583.2
407.42	594.2
407.825	589.2
408.231	588
408.637	589.6
409.043	595.6
409.449	583.2
409.834	578.4
410.24	586
410.646	597.2
411.052	596.6
411.458	584.4
411.865	596.8
412.271	590.6
412.677	579.2
413.062	589.6
413.469	578.2
413.875	608.2
414.282	597.6
414.689	590.4
415.095	592.4
415.502	578.6
415.888	585.8
416.294	571.6
416.701	618
417.108	577.6
417.515	595.4
417.923	586.6
418.33	604
418.715	588.4
419.123	583.8
419.53	577
419.937	588.6
420.345	605.4
420.752	579.2
421.16	596.2
421.546	587.6
421.953	595.6
422.361	583.4
422.769	576
423.177	571.8
423.585	604
423.992	600.2
424.379	592.8
424.787	593.8
425.195	600
425.603	582.8
426.011	594.8
426.419	593.8
426.806	587
427.214	582.4
427.623	596.8
428.031	604.6
428.44	591.6
428.848	597.6
429.235	605.4
429.644	595.2
430.053	599.4
430.461	611.4
430.87	621.8
431.279	619.2
431.666	611.2
432.075	611.2
432.484	626.2
432.893	625.2
433.302	647.8
433.711	675
434.099	652.4
434.508	646.2
434.918	651.8
435.327	661.8
435.737	669.8
436.125	685
436.534	682.8
436.944	683.6
437.353	708
437.763	721.8
438.173	707.2
438.561	726.2
438.971	711.6
439.381	741.6
439.791	750.2
440.201	737.4
440.589	757.2
440.999	762.6
441.409	776
441.819	759.8
442.23	792.4
442.619	785
443.029	797.4
443.439	801.4
443.85	801
444.26	810
444.649	812.4
445.06	803.2
445.471	809
445.881	817
446.292	819.8
446.682	836.2
447.092	814.4
447.503	868.4
447.914	827.4
448.325	835
448.715	834.2
449.126	831
449.537	837.6
449.948	855.4
450.338	849.6
450.75	843.6
451.161	848.4
451.572	850.2
451.984	841.4
452.374	846.2
452.786	852.2
453.197	861.6
453.609	859.6
453.999	847.4
454.411	855.2
454.823	872.8
455.235	860
455.647	859.8
456.037	865
456.449	853.4
456.862	857
457.274	865.6
457.665	852.4
458.077	866.6
458.489	883.8
458.902	871.8
459.293	867.2
459.705	865.8
460.118	853.2
460.53	867.8
460.921	851
461.334	863.2
461.747	863.2
462.16	878.4
462.551	879.2
462.964	872
463.377	859.6
463.79	870.4
464.182	873.4
464.595	875.6
465.008	877.6
465.421	867.4
465.813	872.2
466.226	875.6
466.64	868.8
467.053	897.6
467.445	864.4
467.859	880.4
468.272	876.8
468.686	878
469.078	866
469.492	857
469.906	867.8
470.298	874.8
470.712	859.4
471.126	906.8
471.54	866.6
471.933	864.2
472.347	875
472.761	854.6
473.175	852.8
473.568	863.4
473.982	848
474.397	854.4
474.79	863.4
475.204	867.2
475.619	860.6
476.033	851.2
476.426	853.4
476.841	848.2
477.256	874
477.649	847.4
478.064	840.6
478.479	833
478.872	837.8
479.287	829.8
479.702	844.6
480.118	839.8
480.511	843
480.927	838.2
481.342	835.4
481.736	841.2
482.151	843.2
482.566	848
482.96	843.6
483.376	840.6
483.792	821.6
484.186	836.8
484.602	825.4
485.017	825.2
485.412	831.8
485.827	831.2
486.243	823.2
486.638	848.6
487.054	832.4
487.47	837.4
487.865	820.8
488.281	818.4
488.697	808.2
489.092	814.6
489.508	817.2
489.925	818.4
490.32	812.8
490.736	812
491.153	808
491.548	807.4
491.964	814.8
492.381	795.4
492.776	800
493.193	802.4
493.61	805.4
494.006	788.8
494.422	795.2
494.84	784.6
495.235	799.2
495.652	782.6
496.069	780
496.465	768.2
496.883	786.4
497.3	797.8
497.696	772.8
498.113	778.4
498.509	769.6
498.927	770.2
499.344	766.6
499.741	767.2
500.158	772
500.576	776
500.973	764
501.39	757
501.787	748.8
502.205	770.6
502.623	756.6
503.02	758.6
503.438	746.4
503.856	755.2
504.253	758.4
504.671	751.8
505.068	749
505.486	742.8
505.905	763.2
506.302	736.4
506.72	751.4
507.118	732.4
507.536	741.6
507.955	736.4
508.352	745.2
508.771	741.8
509.169	733
509.587	732.6
510.006	726.4
510.404	718.2
510.823	719.6
511.221	715.2
511.64	715.6
512.038	737.4
512.457	712.4
512.877	710.4
513.275	717
513.694	708.4
514.092	706.8
514.512	712.2
514.91	721.2
515.33	701.2
515.749	711.4
516.148	710
516.568	704.2
516.966	709.4
517.386	700.4
517.785	704.4
518.205	696.8
518.603	688.8
519.024	687.2
519.444	694.6
519.843	701.4
520.263	695.8
520.662	688.2
521.082	693
521.481	686.8
521.902	685.4
522.301	692.4
522.722	682.6
523.121	688.2
523.542	682.2
523.963	677.6
524.362	694
524.783	678.6
525.183	672.4
525.604	678.4
526.003	667.4
526.425	665.4
526.824	678
527.246	681.4
527.646	676.2
528.067	665.6
528.467	673.6
528.888	667.8
529.289	665.8
529.71	676.8
530.11	663.6
530.532	662.4
530.932	656.2
531.354	652.6
531.755	689.6
532.176	665
532.577	674.6
532.999	656.2
533.4	655.2
533.822	670.2
534.223	664
534.645	650.8
535.046	654.8
535.468	657.4
535.869	666.2
536.292	647
536.693	685.8
537.115	648.8
537.516	644.6
537.939	655
538.34	669.6
538.742	664.6
539.165	645.4
539.566	651.2
539.989	639.2
540.391	638.4
540.814	645.8
541.216	644
541.639	638.8
542.041	641.6
542.464	635.4
542.866	632
543.268	630.6
543.691	639.8
544.093	642.6
544.517	648.4
544.919	627.6
545.343	659.8
545.745	638.2
546.147	650.6
546.571	639
546.974	623.6
547.398	636
547.8	644
548.224	633.8
548.627	634.6
549.03	632.8
549.454	627.4
549.857	613.8
550.281	622.6
550.684	629.4
551.087	633.8
551.512	630.2
551.915	626.4
552.34	627.6
552.743	617.4
553.146	620
553.571	622.8
553.975	633.2
554.399	614
554.803	662.8
555.207	619.4
555.632	606.4
556.036	626.2
556.461	614.2
556.865	624
557.268	610.6
557.694	608.2
558.098	624
558.502	623.8
558.927	609.2
559.332	617.6
559.736	614.2
560.162	614.8
560.566	611
560.992	619.8
561.396	613.6
561.801	609.4
562.227	611
562.631	613
563.036	613.2
563.462	620.8
563.867	607.4
564.272	598.2
564.698	617
565.103	601.6
565.508	618.2
565.935	605.6
566.34	613.2
566.745	618.2
567.172	606
567.577	617.6
567.982	616.2
568.409	616.8
568.815	598.6
569.22	611
569.626	610.6
570.053	595.2
570.459	609
570.865	610
571.292	607.2
571.698	608.6
572.104	594.4
572.531	596.2
572.937	605.2
573.343	597.4
573.75	598.2
574.177	598.6
574.583	606.4
574.99	596
575.396	603
575.824	598.6
576.231	600.2
576.637	593.8
577.065	616
577.472	588.6
577.879	594.2
578.286	605.4
578.714	586.8
579.121	595
579.528	595
579.935	590.8
580.364	598.6
580.771	585.8
581.178	589.6
581.585	597
582.014	601.8
582.421	590.2
582.829	590.6
583.236	603.6
583.644	584.2
584.073	599.4
584.481	592
584.889	594
585.296	603.2
585.726	600.4
586.134	590.4
586.542	589.4
586.95	608.2
587.358	591.4
587.787	594.8
588.196	602.4
588.604	586.2
589.012	602
589.421	584.8
589.851	591.6
590.259	599.8
590.668	589
591.076	623.2
591.485	581
591.894	597.8
592.324	608.6
592.733	604.8
593.142	591.4
593.551	588.6
593.96	626
594.369	588.4
594.8	587.6
595.209	597.4
595.618	585.4
596.028	592.4
596.437	583.6
596.847	597.6
597.256	603.6
597.687	606.6
598.097	598.8
598.507	592.8
598.917	604.2
599.327	615.8
599.736	607.2
600.146	610.2
600.556	613.2
600.988	620.6
601.398	604.8
601.808	617.8
602.219	608.2
602.629	612
603.039	617.2
603.45	643.4
603.86	620.4
604.271	645.4
604.703	633.4
605.114	633.6
605.525	624.8
605.935	649
606.346	656.4
606.757	656.4
607.168	653
607.579	642.8
607.99	665.4
608.402	650.2
608.813	659.8
609.224	655.2
609.636	658.2
610.047	661.8
610.48	678.6
610.892	685.6
611.303	686.8
611.715	678.2
612.127	678
612.539	688
612.95	692.6
613.362	692
613.774	696.4
614.186	695.6
614.599	709.2
615.011	715.8
615.423	715.4
615.835	718
616.248	711.6
616.66	727.6
617.073	727.2
617.485	734.6
617.898	738
618.311	739.2
618.723	748
619.136	766.4
619.549	762.4
619.962	782.6
620.375	749.4
620.788	765.6
621.201	747.2
621.614	756.4
622.028	750.6
622.441	758.6
622.854	773.4
623.268	765.8
623.681	766.4
624.095	774.2
624.509	780.6
624.922	782.6
625.336	772
625.728	777.4
626.142	780.6
626.556	780.6
626.97	785
627.384	766.4
627.799	780
628.213	778.6
628.627	774.4
629.041	762.8
629.456	773.8
629.87	773.6
630.285	773.2
630.699	777
631.093	755.4
631.507	768.4
631.922	761.6
632.337	773.2
632.752	752
633.167	750.8
633.582	750
633.997	746.2
634.412	741
634.806	751.4
635.221	735.8
635.637	753.6
636.052	741
636.468	741
636.883	757
637.299	740.4
637.715	728
638.109	722.2
638.525	715.8
638.941	724.8
639.357	733.2
639.773	720.2
640.189	715.2
640.584	712.6
641	708.8
641.416	695
641.832	704.6
642.249	700.8
642.665	700.6
643.06	703.6
643.477	706.2
643.894	687.6
644.31	694
644.727	688.4
645.123	684
645.54	677.8
645.957	681.2
646.374	687.8
646.77	678.6
647.187	704.6
647.604	672
648.021	652.2
648.439	667.2
648.835	666.4
649.252	664.6
649.67	665.4
650.088	668
650.484	666.8
650.902	658.4
651.32	655.2
651.738	648
652.134	644.8
652.552	654.6
652.971	649.4
653.389	641.2
653.786	646.8
654.204	658
654.622	641
655.019	641.2
655.438	649.2
655.857	632.6
656.275	635.2
656.673	627.8
657.091	639.4
657.51	622.2
657.908	639
658.327	637
658.746	613.4
659.144	622.4
659.563	631.8
659.982	618.6
660.38	616.8
660.8	617.8
661.219	628
661.617	622.4
662.037	614
662.457	627.2
662.855	608.4
663.275	639.6
663.695	605.2
664.094	612.2
664.514	607.8
664.934	610.6
665.333	612.8
665.753	592.8
666.152	603.2
666.572	589.6
666.993	615.6
667.392	604.4
667.812	600
668.212	600
668.632	607.4
669.053	589.6
669.453	599.4
669.874	595
670.273	591.6
670.694	581.6
671.116	597.4
671.515	603.4
671.937	598.6
672.337	594.8
672.758	593.2
673.158	597.4
673.58	587.4
673.98	583
674.402	601
674.824	585
675.224	581.2
675.646	580.6
676.047	580.2
676.469	583.4
676.869	593.2
677.292	588.2
677.693	575.2
678.115	580.8
678.516	581.2
678.939	590.6
679.34	577.8
679.762	595.6
680.164	588
680.586	572.4
680.988	583
681.411	608.4
681.812	574
682.236	572.4
682.637	575.6
683.061	571.2
683.462	576
683.864	582.6
684.288	580.2
684.69	568.8
685.114	584.6
685.516	585.8
685.94	572
686.342	582.2
686.766	579
687.168	570
687.571	587.6
687.995	578.6
688.398	570
688.822	569.4
689.225	592.2
689.628	588
690.052	565
690.456	577.6
690.88	575.4
691.284	567.4
691.687	581
692.112	572.8
692.515	570.6
692.919	575.6
693.344	578.2
693.747	569.6
694.173	569
694.577	579.2
694.98	569.6
695.406	570.4
695.81	569
696.214	570
696.64	576.8
697.044	575.6
697.448	574.8
697.874	576
698.279	566.6
698.684	568.4
699.11	565.6
699.514	571.4
699.919	566.8
700.324	574.4
700.75	570.2
701.156	573.2
701.561	578.2
701.987	578
702.393	582
702.798	572.4
703.203	573.6
703.63	566.2
704.036	569.2
704.442	571.8
704.847	561.2
705.274	564.2
705.68	572.2
706.086	578.8
706.492	562.6
706.92	569.4
707.326	569.8
707.732	561.8
708.139	564.2
708.545	560
708.973	561.8
709.38	572.2
709.786	556.6
710.193	575.4
710.6	571.8
711.028	556.4
711.435	567.6
711.842	564
712.249	563.8
712.656	565
713.064	575.4
713.492	557.6
713.9	563.8
714.307	568.8
714.715	561
715.123	576.6
715.53	575.4
715.938	569.6
716.367	559.6
716.775	560.2
717.184	564.4
717.592	569.4
718	578.6
718.408	589.8
718.816	600.2
719.225	565.2
719.633	561.2
720.042	559
720.472	568.4
720.881	587.2
721.29	568.6
721.699	563.4
722.108	567.8
722.517	566
722.926	571.8
723.335	577.8
723.744	566.4
724.154	561.6
724.563	564.4
724.973	565.8
725.382	568.6
725.792	565
726.202	559.6
726.612	574.6
727.022	562.2
727.432	561.2
779.813	562.8
780.223	606.4
780.634	565.8
781.044	556.4
781.454	567.6
781.865	580.8
782.276	556.8
782.686	571.4
783.097	564.4
783.508	567.4
783.919	570.2
784.33	568.8
784.741	572
785.152	560.6
785.563	549.6
785.974	562.8
786.386	573
786.776	561.6
787.188	568
787.599	566.6
788.011	562.8
788.423	565.8
788.835	554
789.247	559.2
789.659	561
790.071	556.8
790.483	594.6
790.874	557.2
791.286	569
791.699	558.8
792.111	568.2
792.524	567.6
792.937	561.8
793.349	562.8
793.741	557
794.154	561.8
794.567	578
794.98	561.4
795.393	553.2
795.785	577.8
796.198	561.8
796.612	564.4
797.026	560.2
797.439	549.6
797.831	561.6
798.245	553.8
798.659	564.6
799.073	556.6
799.487	552.6
799.88	556
800.294	559.4
800.708	556.4
801.123	560.2
801.516	571.2
801.93	557.6
802.345	554.8
802.76	560.6
803.153	567.8
803.568	574.8
803.983	565.8
804.377	562.8
804.792	561
805.207	554
805.601	563
806.016	586
806.432	560.4
806.826	584
807.242	574.4
807.658	566.2
808.052	562.6
808.468	561.2
808.884	557.8
809.279	567.4
809.695	575.8
810.111	589
810.506	563.8
810.922	578
811.339	558.6
811.734	565.2
812.151	558.6
812.546	559.6
812.963	551.8
813.38	566.2
813.776	563.6
814.193	586.6
814.589	560.8
815.006	561.6
815.402	554.4
815.82	566.8
816.237	562.2
816.633	561.6
817.051	558
817.448	563.8
817.866	563
818.262	585.8
818.68	564.6
819.077	559
819.495	563.8
819.892	594.4
820.311	554.8
820.708	567
821.127	557.2
821.524	572.2
821.943	565.2
822.34	575.8
822.759	563
823.157	560.4
823.576	572.6
823.974	575.2
824.393	583.2
824.791	563.4
825.189	557.4
825.609	558.2
826.007	557.6
826.427	554.2
826.826	559
827.246	566
827.644	546.6
828.043	569.4
828.463	557.8
828.862	575.6
829.261	569
829.682	548.8
830.081	560
830.502	552.6
830.901	570.4
831.301	573.6
831.722	551.8
832.121	560.2
832.521	554
832.943	561.2
833.342	563
833.742	560.8
834.164	559.4
834.564	558.2
834.965	563.4
835.386	558.4
835.787	553.6
836.188	551.2
836.588	558
837.01	561.8
837.411	560.6
837.812	561.8
838.213	569.6
838.636	563.8
839.037	615.4
839.438	565
839.84	565
840.263	563.2
840.664	569.6
841.066	567.4
841.468	563.4
841.891	560.8
842.293	573
842.695	559.8
843.098	573.8
843.5	564.2
843.902	565.2
844.326	565.4
844.729	562
845.131	573.4
845.534	565.2
845.937	573
846.34	581
846.764	560.8
847.167	570.4
847.571	555.8
847.974	571
848.377	558.6
848.781	599.2
849.184	571.4
849.588	560.6
849.992	556.2
850.396	564.6
850.821	591.8
851.225	562.2
851.63	565.4
852.034	578
852.438	559.4
852.843	626.2
853.247	558.8
853.652	551.6
854.057	570
854.462	563.2
854.867	570
855.272	589
855.677	561.6
856.082	556.6
