#lambda/nm	C1
208.295	557.6
208.67	494.8
209.045	457
209.419	450.4
209.794	588.2
210.169	586.6
210.544	680.8
210.919	595
211.295	583
211.67	594.4
212.045	590.6
212.421	579.8
212.796	609.6
213.172	574.8
213.547	584.6
213.923	582.2
214.299	581
214.675	597.8
215.051	593.4
215.427	595.8
215.803	606.4
216.179	593.6
216.555	585.6
216.932	590.8
217.308	593
217.684	585.8
218.061	589.4
218.438	586.8
218.814	579.8
219.191	589.8
219.568	578.8
219.945	585.4
220.322	596.2
220.699	586
221.076	595.8
221.453	595
221.83	597
222.208	582.6
222.585	585.8
222.962	588
223.34	593.8
223.717	587.4
224.095	581.2
224.473	587.6
224.851	581.4
225.229	586.4
225.607	603
225.985	578.8
226.363	591.8
226.741	592.6
227.119	586.6
227.497	594.6
227.876	573.6
228.254	589
228.633	595.4
229.011	589.2
229.39	591.2
229.769	590.8
230.148	597.8
230.527	606
230.905	592.2
231.284	596.6
231.664	588.4
232.043	597.6
232.422	593.8
232.801	586.4
233.181	590
233.56	596.6
233.94	580.4
234.319	578.2
234.699	590.4
235.079	615.8
235.458	620.2
235.838	599.6
236.218	578.6
236.598	574.2
236.978	580.4
237.358	575
237.738	585.2
238.119	590.2
238.499	574.8
238.88	587.6
239.26	598.6
239.641	582.4
240.021	583
240.402	590.4
240.783	578.6
241.163	594.6
241.544	591.2
241.925	585
242.306	598.2
242.687	588
243.069	590.4
243.45	591.6
243.831	585.2
244.212	580.6
244.594	618
244.975	591.4
245.357	588.6
245.739	585.6
246.12	588.4
246.502	596.4
246.884	587.6
247.266	585.2
247.648	592.2
248.03	598.6
248.412	582.6
248.794	585.6
249.176	585.8
249.559	595.8
249.941	587.6
250.323	581.4
250.706	581.2
251.089	588.2
251.471	590.6
251.854	590.8
252.237	590
252.62	598.4
253.002	592
253.385	582.8
253.769	596
254.152	594.8
254.535	597
254.918	577.2
255.301	578.8
255.685	580.2
256.068	584
256.452	604.6
256.835	599
257.219	595.2
257.603	600.6
257.986	576.2
258.37	591.6
258.754	576
259.138	596.2
259.522	595.8
259.906	578
260.29	592.4
260.675	589.8
261.059	592.6
261.443	579.6
261.828	593.6
262.212	597
262.597	583.2
262.981	583.8
263.366	588.6
263.751	588.6
264.136	590.4
264.521	582
264.906	583.6
265.291	598.4
265.676	587
266.061	587.8
266.446	603.8
266.831	585
267.217	599.4
267.602	589.6
267.987	590.8
268.373	586.6
268.759	592.4
269.144	595.2
269.53	587.4
269.916	578.6
270.302	587.6
270.688	593.6
271.074	591
271.46	597.4
271.846	609.4
272.232	592.2
272.618	588.6
273.004	590
273.391	595
273.777	593.8
274.164	589.8
274.55	600.6
274.937	592.8
275.324	590
275.71	596.6
276.097	584.8
276.484	592.8
276.871	584.6
277.258	587.4
277.645	581.6
278.032	585
278.419	582
278.807	586.6
279.194	586.6
279.581	579.4
279.969	588.2
280.356	588.8
280.744	589.6
281.131	602.8
281.519	591.6
281.907	580.4
282.295	577.8
282.682	605.6
283.07	596.8
283.458	594.6
283.846	593.4
284.235	593.8
284.623	599.6
285.011	580.4
285.399	576.4
285.788	586.2
286.176	584.6
286.565	603.2
286.953	580
287.342	584.8
287.731	589.6
288.119	584.2
288.508	583.2
288.897	586
289.286	580.4
289.675	586
290.064	598.4
290.453	578.4
290.821	583.6
291.21	602.4
291.599	584
291.989	589.4
292.378	602
292.768	605.4
293.157	593.4
293.547	594.4
293.936	585.6
294.326	587.6
294.716	591.8
295.106	593.6
295.496	596
295.886	595.6
296.276	588.8
296.666	584.4
297.056	593.6
297.446	585.6
297.836	604.8
298.227	586.2
298.617	592.4
299.008	597.4
299.398	585.6
299.789	594.6
300.179	592
300.57	595.2
300.961	582
301.352	590
301.742	591
302.133	595
302.524	580.6
302.915	596
303.307	584.2
303.698	596
304.089	590.6
304.48	596.4
304.872	590.2
305.263	590
305.655	582.4
306.046	590.8
306.438	602.2
306.829	585.8
307.221	598.6
307.613	595.2
308.005	603
308.397	593.2
308.789	608.6
309.181	604.6
309.573	603.2
309.965	600
310.357	580.4
310.749	600.8
311.142	586.6
311.534	586.2
311.926	589.6
312.319	579.6
312.711	573
313.104	588.8
313.497	587.6
313.889	614.4
314.282	599
314.675	607.8
315.068	595.2
315.461	590
315.854	609
316.247	587.4
316.64	583.4
317.033	584.4
317.405	585.8
317.798	589.4
318.192	593.6
318.585	578.2
318.979	585
319.372	569.6
319.766	592.6
320.16	603.2
320.553	599.2
320.947	600
321.341	588.2
321.735	587.6
322.129	569
322.523	608.2
322.917	582.2
323.311	595
323.705	590.6
324.099	592.4
324.494	605
324.888	591
325.282	583.4
325.677	599.6
326.071	588.8
326.466	601.4
326.861	592.4
327.255	597.2
327.65	607.8
328.045	597.2
328.44	596.2
328.835	591.8
329.23	589.6
329.625	607.4
330.02	587
330.415	605.8
330.81	592
331.206	586
331.601	580.4
331.996	599
332.37	606.6
332.766	572.2
333.161	606
333.557	587.4
333.953	583.2
334.348	850.8
334.744	588.2
335.14	580.8
335.536	584.4
335.932	594.6
336.328	589.4
336.724	598.4
337.12	586.6
337.516	589
337.913	592.6
338.309	593
338.705	587.6
339.102	598.4
339.498	590.8
339.895	599.4
340.291	581.2
340.688	600.4
341.085	589
341.481	585
341.878	574.4
342.275	597.8
342.672	582.2
343.069	585.4
343.466	578.6
343.842	597.2
344.239	578
344.636	584.4
345.033	584.6
345.431	573.6
345.828	595.6
346.225	583.6
346.623	611.4
347.02	590
347.418	588.4
347.816	593.2
348.213	579.8
348.611	597.4
349.009	585
349.407	604.2
349.805	579.2
350.203	579.8
350.601	600.2
350.999	578.2
351.397	648.4
351.795	582.4
352.193	592.6
352.57	590.6
352.969	599
353.367	577.6
353.766	582
354.164	584
354.563	590.2
354.961	586.6
355.36	585.4
355.759	585.4
356.158	571
356.557	581
356.956	576.8
357.355	574.6
357.754	592
358.153	590
358.552	604.6
358.951	588.8
359.35	591.6
359.75	572
360.149	577.2
360.527	573
360.926	578
361.326	583.8
361.726	578
362.125	581.4
362.525	584.2
362.925	582.6
363.325	588.6
363.724	585
364.124	583.8
364.524	578.8
364.924	578.8
365.324	587.6
365.725	571
366.125	586
366.525	584
366.904	576.6
367.304	572
367.705	596
368.105	594.2
368.506	574
368.906	575.8
369.307	582.2
369.708	587
370.108	575.6
370.509	593.4
370.91	581.4
371.311	583.2
371.712	584.4
372.113	583.8
372.514	570.4
372.894	587.6
373.295	579
373.696	590.8
374.097	590.4
374.499	606.6
374.9	583.2
375.301	580.2
375.703	577.4
376.105	574.6
376.506	586.4
376.908	581.8
377.309	584.4
377.711	584.6
378.113	577.6
378.493	586.8
378.895	581.2
379.297	591.4
379.699	572.4
380.102	577.2
380.504	580.6
380.906	573.2
381.308	598.2
381.71	580.4
382.113	588.2
382.515	581.4
382.918	581.4
383.299	578.2
383.701	580.4
384.104	576.6
384.507	569.2
384.909	583.6
385.312	570.4
385.715	574.8
386.118	577.2
386.521	573.6
386.924	585.2
387.327	582.6
387.709	572
388.112	565.8
388.515	577.4
388.918	577.2
389.322	588.2
389.725	580.6
390.129	594
390.532	585.6
390.936	573.8
391.339	579.8
391.743	578.8
392.125	576.6
392.529	594.4
392.933	585.8
393.337	581.6
393.74	577
394.144	573.4
394.548	572
394.953	577.6
395.357	589.6
395.761	582.4
396.144	584
396.548	581
396.952	581
397.357	575.2
397.761	582
398.166	572
398.57	584.2
398.975	572.2
399.379	577.4
399.763	621.4
400.168	579
400.572	582.2
400.977	573
401.382	595.4
401.787	594.6
402.192	593.6
402.597	596.2
403.002	571.4
403.386	593.2
403.791	598.8
404.197	578.6
404.602	582.6
405.007	579.4
405.413	582.6
405.818	579.6
406.224	584
406.608	567.6
407.014	581
407.42	594.6
407.825	580.6
408.231	585.4
408.637	584.6
409.043	593.6
409.449	574.4
409.834	578.8
410.24	577.4
410.646	588.2
411.052	586.6
411.458	583.8
411.865	583
412.271	583.6
412.677	572.2
413.062	585.4
413.469	572.2
413.875	599.2
414.282	584.4
414.689	580.6
415.095	587.8
415.502	578.2
415.888	582.4
416.294	572.6
416.701	614.8
417.108	580.4
417.515	590.8
417.923	574
418.33	598.6
418.715	590.4
419.123	579.8
419.53	575.6
419.937	576.2
420.345	592.4
420.752	577
421.16	591.6
421.546	579.6
421.953	593.6
422.361	566.6
422.769	583.6
423.177	579.4
423.585	594
423.992	598.6
424.379	589
424.787	597
425.195	605.8
425.603	587.4
426.011	599
426.419	598.6
426.806	590.4
427.214	594.2
427.623	596.6
428.031	601.4
428.44	593
428.848	597.2
429.235	601.6
429.644	598.8
430.053	593.2
430.461	602
430.87	615.8
431.279	603.4
431.666	602.2
432.075	607.4
432.484	611.8
432.893	620
433.302	643.8
433.711	650.8
434.099	641.6
434.508	637.8
434.918	639
435.327	662
435.737	661.8
436.125	665.2
436.534	673
436.944	680.2
437.353	690.4
437.763	708.2
438.173	686.4
438.561	712
438.971	698.2
439.381	710
439.791	718.4
440.201	709.2
440.589	727.4
440.999	737.4
441.409	745.6
441.819	738.6
442.23	764.6
442.619	765
443.029	769.4
443.439	767
443.85	776.8
444.26	790.8
444.649	787.8
445.06	791.6
445.471	783.2
445.881	798.2
446.292	804
446.682	808.4
447.092	777.2
447.503	836.8
447.914	789.2
448.325	807
448.715	814
449.126	803.2
449.537	810.2
449.948	812.2
450.338	820
450.75	823.8
451.161	815.2
451.572	826.4
451.984	813.6
452.374	801.8
452.786	822.4
453.197	822.8
453.609	828.6
453.999	815.6
454.411	821.8
454.823	836.6
455.235	839
455.647	813.4
456.037	833.4
456.449	823.4
456.862	839.4
457.274	828.6
457.665	818.8
458.077	835
458.489	851
458.902	824.6
459.293	842.6
459.705	836.2
460.118	831.4
460.53	821
460.921	828
461.334	837.8
461.747	840.6
462.16	842.2
462.551	850.8
462.964	834
463.377	823.6
463.79	831
464.182	837.6
464.595	835
465.008	840.2
465.421	844.4
465.813	832.6
466.226	844
466.64	836.2
467.053	866
467.445	845.4
467.859	849.6
468.272	825.2
468.686	833
469.078	832.8
469.492	831.4
469.906	827
470.298	841.4
470.712	822.2
471.126	874.2
471.54	816.8
471.933	821.2
472.347	831.2
472.761	821.6
473.175	817.4
473.568	833.4
473.982	817
474.397	821.6
474.79	819
475.204	830.6
475.619	823
476.033	833.2
476.426	824.6
476.841	818
477.256	844.4
477.649	805.2
478.064	812.4
478.479	806.6
478.872	811.6
479.287	803.2
479.702	802.6
480.118	810.4
480.511	807.4
480.927	802.2
481.342	799
481.736	809.8
482.151	790
482.566	807.2
482.96	792.8
483.376	815.4
483.792	803.2
484.186	802.2
484.602	796
485.017	798.4
485.412	802.4
485.827	806.6
486.243	789
486.638	814.2
487.054	806.8
487.47	805.4
487.865	789.8
488.281	788.6
488.697	781
489.092	782
489.508	781.6
489.925	790
490.32	776.4
490.736	785.8
491.153	782.4
491.548	780.2
491.964	785.4
492.381	764.6
492.776	775.4
493.193	769.6
493.61	782.6
494.006	763.2
494.422	758.8
494.84	758.8
495.235	768.8
495.652	759.4
496.069	756.4
496.465	760.4
496.883	768.6
497.3	783.8
497.696	754.4
498.113	760.8
498.509	747.8
498.927	742.4
499.344	735.6
499.741	740
500.158	752.6
500.576	745.2
500.973	742.2
501.39	730.8
501.787	732.2
502.205	733
502.623	738.6
503.02	730.4
503.438	721.4
503.856	737.2
504.253	723.2
504.671	721
505.068	723.8
505.486	725
505.905	729.4
506.302	715.2
506.72	721.6
507.118	711.8
507.536	711.6
507.955	717.2
508.352	712.6
508.771	711
509.169	713.8
509.587	702.6
510.006	704.8
510.404	697.4
510.823	696.2
511.221	704
511.64	696.8
512.038	712.6
512.457	692.6
512.877	695
513.275	699.4
513.694	700.6
514.092	691.4
514.512	692.2
514.91	696
515.33	697.8
515.749	688.2
516.148	699.2
516.568	682.8
516.966	687.8
517.386	681.8
517.785	683.8
518.205	680.6
518.603	678.4
519.024	677.2
519.444	679.2
519.843	688.4
520.263	688.8
520.662	679.4
521.082	671.6
521.481	669.2
521.902	674.8
522.301	675.2
522.722	673.6
523.121	666.4
523.542	665.4
523.963	660.8
524.362	677.2
524.783	665.2
525.183	665.8
525.604	666.2
526.003	663.8
526.425	660.6
526.824	667.8
527.246	663.8
527.646	666.4
528.067	647.8
528.467	654.2
528.888	661.4
529.289	645.4
529.71	654
530.11	651.4
530.532	654.2
530.932	650.2
531.354	640.2
531.755	674.2
532.176	654
532.577	651.2
532.999	650.4
533.4	639.2
533.822	654.6
534.223	653.2
534.645	635.8
535.046	645.8
535.468	633.2
535.869	653.8
536.292	634.2
536.693	661.4
537.115	642.2
537.516	637.6
537.939	633.4
538.34	645.2
538.742	650.4
539.165	627.8
539.566	636.2
539.989	627.8
540.391	623.8
540.814	638.4
541.216	632.2
541.639	634.2
542.041	641.6
542.464	629.6
542.866	629.6
543.268	617.6
543.691	630.4
544.093	632
544.517	646
544.919	618
545.343	646
545.745	625.6
546.147	627.8
546.571	620.4
546.974	616.2
547.398	628.6
547.8	634.8
548.224	623.8
548.627	615.6
549.03	638.6
549.454	617.8
549.857	613.2
550.281	616.4
550.684	618.4
551.087	630.4
551.512	619
551.915	616.4
552.34	618.6
552.743	613
553.146	617.6
553.571	616
553.975	631.6
554.399	607.2
554.803	654.2
555.207	605.2
555.632	605.4
556.036	626
556.461	606.8
556.865	607.8
557.268	607.6
557.694	606.8
558.098	617.2
558.502	611.2
558.927	597
559.332	613.6
559.736	611.4
560.162	606.8
560.566	605.2
560.992	615.8
561.396	611
561.801	601.2
562.227	605.2
562.631	608
563.036	602.8
563.462	612
563.867	600.2
564.272	593.2
564.698	608.6
565.103	593
565.508	619.4
565.935	607
566.34	592.6
566.745	607.2
567.172	598.2
567.577	614.6
567.982	614
568.409	605.2
568.815	594.4
569.22	605.4
569.626	609.2
570.053	581.4
570.459	602.2
570.865	599.6
571.292	601.8
571.698	596.4
572.104	582.6
572.531	601
572.937	600.8
573.343	599.6
573.75	592.8
574.177	595.4
574.583	592.2
574.99	587.2
575.396	599.2
575.824	585.6
576.231	597.4
576.637	583.4
577.065	616.8
577.472	588.6
577.879	597
578.286	606
578.714	583.6
579.121	579.6
579.528	598
579.935	586.2
580.364	589.4
580.771	581
581.178	585.6
581.585	592
582.014	591.2
582.421	584
582.829	582.4
583.236	589.4
583.644	575.6
584.073	583
584.481	588.6
584.889	578.6
585.296	587
585.726	581.4
586.134	583.4
586.542	578.8
586.95	603.8
587.358	577.6
587.787	590
588.196	604.4
588.604	589.8
589.012	580.6
589.421	583.2
589.851	571.4
590.259	585.8
590.668	582.4
591.076	617.4
591.485	574
591.894	586.8
592.324	591.4
592.733	600.2
593.142	577.4
593.551	585.6
593.96	579.2
594.369	570
594.8	579.2
595.209	580.6
595.618	576
596.028	577.4
596.437	575.2
596.847	582
597.256	581.8
597.687	582.8
598.097	583.2
598.507	572
598.917	581.6
599.327	589.6
599.736	575.6
600.146	590.4
600.556	573.4
600.988	586.6
601.398	573.6
601.808	586.8
602.219	567.2
602.629	581.6
603.039	578.6
603.45	593.4
603.86	574.4
604.271	591.6
604.703	582
605.114	577.8
605.525	570.2
605.935	582.4
606.346	591.6
606.757	580.6
607.168	567.6
607.579	577
607.99	587.4
608.402	573.8
608.813	581.6
609.224	574
609.636	576
610.047	574
610.48	582.6
610.892	583
611.303	583.4
611.715	579
612.127	572.8
612.539	575.4
612.95	578.2
613.362	573
613.774	570
614.186	572.4
614.599	576.4
615.011	589.6
615.423	575.4
615.835	579.4
616.248	566.4
616.66	581
617.073	568.4
617.485	583.6
617.898	582.4
618.311	577
618.723	578.2
619.136	607
619.549	590.4
619.962	604.8
620.375	576
620.788	580.8
621.201	578.2
621.614	590
622.028	589.4
622.441	587.8
622.854	583.2
623.268	574.2
623.681	590
624.095	587.8
624.509	583
624.922	579.2
625.336	571
625.728	575.2
626.142	577
626.556	588.8
626.97	582.4
627.384	580.8
627.799	578.8
628.213	590.8
628.627	573.6
629.041	576.2
629.456	577.8
629.87	581.6
630.285	583.6
630.699	585
631.093	576.4
631.507	588
631.922	582.4
632.337	597.4
632.752	574.4
633.167	568.4
633.582	570.8
633.997	564.2
634.412	574.4
634.806	578.4
635.221	569
635.637	575
636.052	571
636.468	578.2
636.883	591.4
637.299	571
637.715	569.8
638.109	576.4
638.525	557.2
638.941	588.8
639.357	572.6
639.773	583.4
640.189	570.4
640.584	572.2
641	575.8
641.416	560.2
641.832	572
642.249	569.2
642.665	578.8
643.06	580.2
643.477	579
643.894	561.4
644.31	581
644.727	565.8
645.123	576.6
645.54	566
645.957	583
646.374	577.4
646.77	571.8
647.187	593.2
647.604	567.4
648.021	563.4
648.439	561.6
648.835	578.8
649.252	575
649.67	570.2
650.088	574.6
650.484	571.8
650.902	578
651.32	584.4
651.738	562.6
652.134	574.4
652.552	594.8
652.971	572
653.389	568.2
653.786	585.8
654.204	587.4
654.622	567
655.019	573.6
655.438	576
655.857	563.8
656.275	563
656.673	567.4
657.091	572.6
657.51	571.6
657.908	577.4
658.327	577.4
658.746	563.8
659.144	574.4
659.563	588.4
659.982	570.4
660.38	563.8
660.8	574.8
661.219	577.2
661.617	576.2
662.037	569.8
662.457	580.8
662.855	555.4
663.275	587
663.695	562
664.094	574
664.514	567.2
664.934	562.6
665.333	571.2
665.753	569.2
666.152	563.6
666.572	566.6
666.993	575.8
667.392	564.8
667.812	566.8
668.212	571.4
668.632	568.6
669.053	567.4
669.453	567.8
669.874	569.8
670.273	571.4
670.694	565.2
671.116	573
671.515	562
671.937	562.2
672.337	561.6
672.758	564.6
673.158	569
673.58	559.2
673.98	570
674.402	570
674.824	572
675.224	560.4
675.646	555
676.047	562
676.469	565.6
676.869	570.6
677.292	574.2
677.693	560.2
678.115	554.6
678.516	562.8
678.939	567.6
679.34	559.2
679.762	573.4
680.164	561.6
680.586	568.6
680.988	561.2
681.411	591.4
681.812	571.8
682.236	563.2
682.637	557.2
683.061	559
683.462	566.2
683.864	560.2
684.288	563
684.69	557.4
685.114	573.6
685.516	570
685.94	564.6
686.342	574.6
686.766	557.4
687.168	558.8
687.571	575.6
687.995	568.8
688.398	558.6
688.822	563.6
689.225	576
689.628	575.8
690.052	563
690.456	568
690.88	569
691.284	556.2
691.687	567.4
692.112	559.4
692.515	557.6
692.919	566.2
693.344	565.2
693.747	561.6
694.173	556.4
694.577	577
694.98	562.6
695.406	559
695.81	568.6
696.214	565.4
696.64	565.6
697.044	570.8
697.448	570.4
697.874	572.6
698.279	563.6
698.684	551.2
699.11	558.4
699.514	561
699.919	559
700.324	560.6
700.75	555.4
701.156	560.8
701.561	569.4
701.987	563.4
702.393	572.6
702.798	569.4
703.203	557.6
703.63	564.4
704.036	554.6
704.442	557.4
704.847	552
705.274	557
705.68	570
706.086	568.8
706.492	547.6
706.92	568.8
707.326	572.8
707.732	553.8
708.139	557.4
708.545	553.2
708.973	559
709.38	569
709.786	555.8
710.193	572
710.6	568
711.028	553.6
711.435	558.2
711.842	561.2
712.249	560.4
712.656	564.8
713.064	571.6
713.492	548.8
713.9	558.8
714.307	573.2
714.715	565.8
715.123	568
715.53	572.6
715.938	576.6
716.367	561.4
716.775	562.2
717.184	556
717.592	558.4
718	562.8
718.408	586.8
718.816	601.2
719.225	566.4
719.633	561.8
720.042	553.6
720.472	561.6
720.881	580.2
721.29	577.8
721.699	557.2
722.108	562.4
722.517	555.6
722.926	560.4
723.335	568.6
723.744	563.4
724.154	559
724.563	555
724.973	557.2
725.382	564.6
725.792	551.6
726.202	557.2
726.612	575.6
727.022	554.2
727.432	559.6
779.813	554
780.223	595.8
780.634	560
781.044	555.2
781.454	558.8
781.865	577
782.276	555.8
782.686	572.6
783.097	567
783.508	559.8
783.919	562.8
784.33	563.6
784.741	567.8
785.152	563
785.563	551.8
785.974	556.6
786.386	567.6
786.776	553.8
787.188	557.2
787.599	550.8
788.011	561.6
788.423	559
788.835	556.2
789.247	543.8
789.659	561.8
790.071	557.2
790.483	593.2
790.874	560.4
791.286	566.2
791.699	563
792.111	561.8
792.524	561.6
792.937	554.8
793.349	561
793.741	557.6
794.154	554.4
794.567	561.8
794.98	564.6
795.393	550
795.785	578.2
796.198	558.4
796.612	561.2
797.026	561.8
797.439	553.4
797.831	563.2
798.245	548.2
798.659	550.2
799.073	559
799.487	557
799.88	557.8
800.294	560.2
800.708	567
801.123	562.8
801.516	581.4
801.93	551.6
802.345	542.8
802.76	560
803.153	571.2
803.568	571.6
803.983	570
804.377	568.8
804.792	551.2
805.207	542.2
805.601	564.6
806.016	589.2
806.432	552.6
806.826	589.8
807.242	565.4
807.658	564
808.052	556.2
808.468	561
808.884	561
809.279	553.6
809.695	569.2
810.111	572.8
810.506	564
810.922	578
811.339	552.6
811.734	566
812.151	558.4
812.546	556.2
812.963	556.4
813.38	564.8
813.776	566.4
814.193	572
814.589	552
815.006	563.6
815.402	553.4
815.82	556
816.237	561.2
816.633	563
817.051	546.2
817.448	558.4
817.866	556
818.262	577
818.68	556.8
819.077	553.6
819.495	561.4
819.892	587.4
820.311	553.6
820.708	555
821.127	552.4
821.524	560.8
821.943	554.4
822.34	571
822.759	562
823.157	553.6
823.576	566
823.974	566
824.393	579.8
824.791	550.2
825.189	547
825.609	566
826.007	562.6
826.427	552
826.826	553.4
827.246	559.6
827.644	544.4
828.043	566
828.463	552.6
828.862	570
829.261	567.4
829.682	547.8
830.081	564.8
830.502	550
830.901	555.6
831.301	568.8
831.722	554.4
832.121	554.2
832.521	556.8
832.943	553.2
833.342	562.8
833.742	553.6
834.164	553.8
834.564	557
834.965	564.8
835.386	554.2
835.787	556.2
836.188	555.2
836.588	567.2
837.01	562.8
837.411	552.4
837.812	563.8
838.213	563.4
838.636	556.6
839.037	619.2
839.438	564
839.84	552.6
840.263	554.8
840.664	564.8
841.066	554.8
841.468	556.6
841.891	555.8
842.293	567
842.695	563.6
843.098	563.6
843.5	564.6
843.902	564.8
844.326	573
844.729	559.8
845.131	569.4
845.534	559
845.937	569.4
846.34	564.4
846.764	553.6
847.167	559
847.571	550.8
847.974	553.4
848.377	555.8
848.781	591.4
849.184	557
849.588	553.2
849.992	554.2
850.396	556.8
850.821	569.8
851.225	564
851.63	546.6
852.034	569.2
852.438	556.8
852.843	620.8
853.247	548.6
853.652	544.8
854.057	575.2
854.462	561.6
854.867	564
855.272	583.6
855.677	561.2
856.082	561.4
856.487	555.8
856.893	551.8
857.298	553.2
