#lambda/nm	C1
208.295	556.4
208.67	491.4
209.045	455.4
209.419	451
209.794	596.6
210.169	583.6
210.544	682.6
210.919	599.4
211.295	582
211.67	597
212.045	595.2
212.421	585.2
212.796	627.8
213.172	590
213.547	593
213.923	581.8
214.299	589.2
214.675	593.8
215.051	597
215.427	597.6
215.803	601.4
216.179	598.6
216.555	588.8
216.932	608.6
217.308	596.8
217.684	594.8
218.061	588.6
218.438	589.8
218.814	591.4
219.191	599.6
219.568	585.6
219.945	585.8
220.322	589.6
220.699	593.4
221.076	596
221.453	596.6
221.83	591
222.208	586
222.585	586.4
222.962	589.6
223.34	588.8
223.717	593.4
224.095	588.8
224.473	593.2
224.851	588.2
225.229	587.2
225.607	606.4
225.985	580.2
226.363	593.8
226.741	588
227.119	589.6
227.497	596.4
227.876	582.8
228.254	596.8
228.633	598.8
229.011	585.2
229.39	594.8
229.769	590
230.148	602.2
230.527	606.6
230.905	587.4
231.284	598.4
231.664	586.8
232.043	602.2
232.422	599.6
232.801	591
233.181	597.2
233.56	591.8
233.94	592.6
234.319	581.4
234.699	593.2
235.079	616
235.458	626.4
235.838	605
236.218	586.8
236.598	587
236.978	589.2
237.358	592.2
237.738	588.2
238.119	598.4
238.499	586.4
238.88	588.2
239.26	606
239.641	583
240.021	586.2
240.402	590.8
240.783	591.4
241.163	584
241.544	595.2
241.925	595
242.306	603.4
242.687	597.4
243.069	599.6
243.45	598
243.831	591.2
244.212	590.6
244.594	624.8
244.975	598.6
245.357	586.4
245.739	588
246.12	593.2
246.502	600.4
246.884	584.8
247.266	594.4
247.648	598
248.03	613
248.412	589.8
248.794	593.6
249.176	591.2
249.559	599.6
249.941	585.6
250.323	586.4
250.706	590
251.089	591.8
251.471	591.4
251.854	594.2
252.237	591
252.62	598.6
253.002	594.6
253.385	589.4
253.769	602.4
254.152	590
254.535	592.6
254.918	582.2
255.301	591.6
255.685	594.6
256.068	583.2
256.452	607.2
256.835	598.8
257.219	598.8
257.603	600
257.986	585.6
258.37	601
258.754	580.4
259.138	595
259.522	605.6
259.906	588
260.29	598.8
260.675	590
261.059	595.6
261.443	580
261.828	596.6
262.212	595
262.597	580.8
262.981	589.2
263.366	597.2
263.751	594.2
264.136	585.8
264.521	586.8
264.906	580
265.291	598.4
265.676	585.4
266.061	604
266.446	612.4
266.831	586.8
267.217	603
267.602	591
267.987	596.8
268.373	600
268.759	603.4
269.144	597.6
269.53	584
269.916	592
270.302	587
270.688	591.8
271.074	593.8
271.46	604.2
271.846	614
272.232	598.8
272.618	582.6
273.004	596.8
273.391	600.4
273.777	590.2
274.164	595.4
274.55	600.8
274.937	586.4
275.324	590.8
275.71	601.4
276.097	598.8
276.484	581.6
276.871	598.4
277.258	594.6
277.645	579
278.032	589.4
278.419	594.8
278.807	588.8
279.194	582.2
279.581	576.2
279.969	593.4
280.356	586
280.744	584
281.131	612.2
281.519	597
281.907	594.2
282.295	588.2
282.682	603
283.07	596.2
283.458	606
283.846	601.6
284.235	603.2
284.623	596.4
285.011	578.8
285.399	591.2
285.788	585.8
286.176	581.2
286.565	598.8
286.953	588.8
287.342	587.6
287.731	584.6
288.119	586.6
288.508	581
288.897	581.8
289.286	575.6
289.675	590.2
290.064	593
290.453	582.4
290.821	591
291.21	600
291.599	586.8
291.989	592.6
292.378	592
292.768	603.4
293.157	588.4
293.547	591.4
293.936	593.8
294.326	584
294.716	591
295.106	590.4
295.496	592.4
295.886	596.2
296.276	594.6
296.666	583.6
297.056	583.8
297.446	575.6
297.836	604
298.227	591.4
298.617	587.6
299.008	600.8
299.398	591.8
299.789	586
300.179	595.6
300.57	609
300.961	579.4
301.352	589
301.742	600.2
302.133	593.4
302.524	596.8
302.915	592
303.307	589.6
303.698	598.4
304.089	595.2
304.48	595.8
304.872	597.8
305.263	596.4
305.655	578.6
306.046	590.2
306.438	599.2
306.829	590
307.221	607.6
307.613	601.2
308.005	600.6
308.397	605.4
308.789	610.2
309.181	611.2
309.573	605
309.965	608
310.357	588.2
310.749	603
311.142	585.8
311.534	591
311.926	593.6
312.319	594.2
312.711	588.8
313.104	602.4
313.497	592.4
313.889	621.4
314.282	602.4
314.675	614.6
315.068	593.8
315.461	594.6
315.854	617
316.247	592.4
316.64	590.4
317.033	604.4
317.405	600.6
317.798	589.4
318.192	592
318.585	578.8
318.979	590.4
319.372	579.4
319.766	579.4
320.16	601
320.553	600.6
320.947	605
321.341	586
321.735	593
322.129	583.2
322.523	612.8
322.917	583.6
323.311	607
323.705	597.4
324.099	600.4
324.494	597.6
324.888	601
325.282	591
325.677	603.6
326.071	598.4
326.466	604.2
326.861	600.8
327.255	597.2
327.65	603.8
328.045	610.4
328.44	595.2
328.835	586.6
329.23	589.4
329.625	615.6
330.02	589.4
330.415	609.8
330.81	603.8
331.206	595.6
331.601	586.6
331.996	600.2
332.37	613.2
332.766	588.2
333.161	611.6
333.557	592
333.953	588
334.348	907.8
334.744	590.8
335.14	588.6
335.536	579.4
335.932	599.6
336.328	589.8
336.724	606.2
337.12	586.4
337.516	593.4
337.913	589
338.309	596.4
338.705	590.2
339.102	601.4
339.498	585
339.895	603.4
340.291	589.4
340.688	602.8
341.085	586
341.481	596
341.878	590.6
342.275	603.6
342.672	580.4
343.069	588.8
343.466	580.4
343.842	600
344.239	579.2
344.636	590
345.033	589.4
345.431	587.6
345.828	583
346.225	586
346.623	623.4
347.02	596.8
347.418	597.8
347.816	599.8
348.213	585.4
348.611	590.8
349.009	594.2
349.407	599.6
349.805	586
350.203	580.4
350.601	598.8
350.999	590.8
351.397	621.6
351.795	593.2
352.193	603
352.57	591.2
352.969	604
353.367	587.8
353.766	586
354.164	584.8
354.563	589.8
354.961	591.2
355.36	584
355.759	585.6
356.158	588.8
356.557	586.6
356.956	579
357.355	576.2
357.754	586.6
358.153	593.6
358.552	610.4
358.951	588
359.35	595.2
359.75	580.6
360.149	581
360.527	565.8
360.926	579.8
361.326	593.4
361.726	586.8
362.125	584.4
362.525	590.4
362.925	589.2
363.325	581
363.724	587.8
364.124	579.2
364.524	580.8
364.924	587.8
365.324	593
365.725	566.8
366.125	581.4
366.525	588.8
366.904	583.6
367.304	570
367.705	595.2
368.105	589.2
368.506	582.2
368.906	588.2
369.307	583.6
369.708	584.2
370.108	570.8
370.509	585.6
370.91	579
371.311	590.4
371.712	578.8
372.113	585.6
372.514	582.6
372.894	579.4
373.295	574.6
373.696	589.8
374.097	595.6
374.499	605.2
374.9	583.4
375.301	568
375.703	580.2
376.105	578.6
376.506	583
376.908	585.2
377.309	588.2
377.711	580.4
378.113	573.6
378.493	588.4
378.895	572.2
379.297	593.2
379.699	571
380.102	581.4
380.504	584.6
380.906	576.6
381.308	607.2
381.71	587.2
382.113	595.2
382.515	579
382.918	589
383.299	586.6
383.701	591.2
384.104	587.8
384.507	568.4
384.909	580
385.312	581
385.715	573
386.118	570.4
386.521	577
386.924	590
387.327	573
387.709	566.8
388.112	567.6
388.515	575
388.918	580
389.322	589.8
389.725	578.6
390.129	596.4
390.532	587.6
390.936	579.2
391.339	575.8
391.743	585.2
392.125	574.6
392.529	593
392.933	590.6
393.337	587.2
393.74	584.4
394.144	580.6
394.548	577.6
394.953	580.2
395.357	591.4
395.761	583.8
396.144	588
396.548	580
396.952	586.8
397.357	582
397.761	577.6
398.166	584.8
398.57	583.2
398.975	574.2
399.379	594.4
399.763	626.4
400.168	589.4
400.572	588.4
400.977	584.2
401.382	600.2
401.787	589.8
402.192	601
402.597	600.8
403.002	574.8
403.386	593
403.791	598.8
404.197	583.6
404.602	586.6
405.007	580.2
405.413	582.2
405.818	581.6
406.224	579.4
406.608	582.8
407.014	576.2
407.42	598.6
407.825	576.8
408.231	589.2
408.637	593
409.043	594.6
409.449	583.2
409.834	581.8
410.24	585.8
410.646	594.6
411.052	596.4
411.458	586.4
411.865	595.6
412.271	587.2
412.677	581.2
413.062	585.8
413.469	570.4
413.875	607.4
414.282	587.8
414.689	585.2
415.095	590.6
415.502	572
415.888	589
416.294	569.6
416.701	615.4
417.108	573.2
417.515	584.8
417.923	579.2
418.33	598
418.715	584.6
419.123	575.8
419.53	581.6
419.937	586.4
420.345	595.6
420.752	584
421.16	599
421.546	581.4
421.953	594
422.361	578.8
422.769	578.4
423.177	589
423.585	604.8
423.992	608.2
424.379	597.2
424.787	593.4
425.195	598.2
425.603	583.8
426.011	595
426.419	594.8
426.806	590.6
427.214	594.4
427.623	590.8
428.031	608.8
428.44	599.4
428.848	597.2
429.235	606.6
429.644	591.4
430.053	599
430.461	610.8
430.87	629.4
431.279	615
431.666	601.2
432.075	612.8
432.484	629.4
432.893	616
433.302	645.4
433.711	674.6
434.099	644.2
434.508	642.2
434.918	650.2
435.327	670
435.737	664.2
436.125	670.4
436.534	679.4
436.944	686
437.353	698.2
437.763	704.6
438.173	693.2
438.561	722.2
438.971	707.6
439.381	717.2
439.791	739.6
440.201	718.2
440.589	740.6
440.999	749.2
441.409	753
441.819	747.2
442.23	767.8
442.619	766.6
443.029	775.8
443.439	771.6
443.85	793.6
444.26	807
444.649	793.8
445.06	793
445.471	799.8
445.881	790.8
446.292	816.4
446.682	825.8
447.092	792.6
447.503	852
447.914	820
448.325	821.2
448.715	819.2
449.126	812.8
449.537	828
449.948	817.4
450.338	821
450.75	830.6
451.161	837.6
451.572	836.6
451.984	820.8
452.374	815.6
452.786	825.4
453.197	838
453.609	838.6
453.999	828.2
454.411	830.4
454.823	852.4
455.235	844.6
455.647	837.4
456.037	837
456.449	830.6
456.862	845.2
457.274	833.4
457.665	831.8
458.077	839.4
458.489	876
458.902	845
459.293	846.2
459.705	830
460.118	839.4
460.53	848
460.921	841
461.334	838.4
461.747	845.2
462.16	858.2
462.551	851.2
462.964	848.6
463.377	836.6
463.79	837.6
464.182	855.8
464.595	845
465.008	853
465.421	855
465.813	845.2
466.226	853
466.64	844.2
467.053	879.8
467.445	849.4
467.859	862.8
468.272	860.8
468.686	855.6
469.078	842.8
469.492	838.2
469.906	840.8
470.298	837.4
470.712	834.6
471.126	882.4
471.54	825.4
471.933	839.6
472.347	843.4
472.761	833
473.175	832.6
473.568	837.6
473.982	818.4
474.397	842.2
474.79	839
475.204	842.2
475.619	835.4
476.033	835.2
476.426	836.8
476.841	833.8
477.256	851.2
477.649	827
478.064	819.4
478.479	833
478.872	814
479.287	817.4
479.702	823.4
480.118	807
480.511	826.4
480.927	824
481.342	809.8
481.736	826.2
482.151	819.2
482.566	826.6
482.96	819.6
483.376	820.4
483.792	805.8
484.186	816
484.602	810.8
485.017	801.6
485.412	800.6
485.827	805.2
486.243	801.2
486.638	821.6
487.054	804.4
487.47	813.4
487.865	802.2
488.281	804.8
488.697	779.8
489.092	791
489.508	784.8
489.925	807.2
490.32	786
490.736	799
491.153	789.4
491.548	781.2
491.964	796.2
492.381	781.2
492.776	782.8
493.193	781.4
493.61	778.6
494.006	774.6
494.422	781.8
494.84	765.6
495.235	779.6
495.652	763.8
496.069	766.2
496.465	761.2
496.883	763.2
497.3	789
497.696	760.2
498.113	772.4
498.509	756.6
498.927	748.6
499.344	745.4
499.741	748.6
500.158	776.2
500.576	761.2
500.973	754.2
501.39	748.4
501.787	733.6
502.205	746.4
502.623	731.4
503.02	740.2
503.438	738.4
503.856	733.4
504.253	740.6
504.671	727.4
505.068	736.2
505.486	737.4
505.905	755.6
506.302	738.4
506.72	735.2
507.118	728
507.536	733.4
507.955	723.4
508.352	724.6
508.771	729.2
509.169	728.2
509.587	729.4
510.006	717.2
510.404	698
510.823	710
511.221	709.4
511.64	708.2
512.038	716.6
512.457	708
512.877	700.4
513.275	706.4
513.694	699.2
514.092	694.8
514.512	701.8
514.91	711
515.33	698.2
515.749	710.2
516.148	694.6
516.568	693.4
516.966	697.8
517.386	691.8
517.785	691
518.205	694.8
518.603	689.8
519.024	672.8
519.444	687
519.843	697.2
520.263	684.4
520.662	683.4
521.082	680.6
521.481	682.8
521.902	672.6
522.301	678
522.722	677.6
523.121	679.2
523.542	674.6
523.963	676.2
524.362	678.6
524.783	683.4
525.183	667.2
525.604	676
526.003	660.6
526.425	660
526.824	665.4
527.246	677
527.646	670.6
528.067	667
528.467	663.4
528.888	667.2
529.289	657.8
529.71	658
530.11	657.2
530.532	662.8
530.932	651.2
531.354	643.6
531.755	682.6
532.176	664.4
532.577	653
532.999	665.2
533.4	650.6
533.822	653.4
534.223	655.8
534.645	646.8
535.046	643.8
535.468	651.4
535.869	661.8
536.292	645.2
536.693	672.4
537.115	640.6
537.516	645.4
537.939	644.6
538.34	656
538.742	657.4
539.165	643.8
539.566	644
539.989	638
540.391	641
540.814	643.6
541.216	644.8
541.639	635.4
542.041	648.8
542.464	633
542.866	629.8
543.268	636
543.691	634.2
544.093	636.2
544.517	647
544.919	623.8
545.343	652.2
545.745	622.8
546.147	637.6
546.571	631.4
546.974	627
547.398	626.4
547.8	646
548.224	625.8
548.627	621.4
549.03	630.6
549.454	619.6
549.857	620.6
550.281	621.4
550.684	627.6
551.087	634.4
551.512	623.6
551.915	630.2
552.34	622.8
552.743	624.4
553.146	625.4
553.571	622.2
553.975	633.6
554.399	616.8
554.803	658.2
555.207	618.2
555.632	605
556.036	621.6
556.461	604.4
556.865	616.8
557.268	608.2
557.694	614.6
558.098	620.6
558.502	617
558.927	612.6
559.332	613.8
559.736	611.4
560.162	615
560.566	602.2
560.992	613.2
561.396	609.8
561.801	607
562.227	609
562.631	604.6
563.036	607.6
563.462	613.2
563.867	602.2
564.272	588
564.698	621
565.103	594
565.508	621
565.935	604.6
566.34	605.8
566.745	611.2
567.172	601
567.577	620.8
567.982	608.8
568.409	614.2
568.815	601
569.22	598
569.626	618.2
570.053	598.2
570.459	608.2
570.865	613.2
571.292	600.4
571.698	601.8
572.104	591.4
572.531	597.6
572.937	606
573.343	602.4
573.75	602.2
574.177	603.8
574.583	602
574.99	596
575.396	603.2
575.824	591.2
576.231	602.8
576.637	596
577.065	618.6
577.472	591.8
577.879	588.4
578.286	606
578.714	593
579.121	591.4
579.528	594
579.935	596.8
580.364	587
580.771	575.4
581.178	584.8
581.585	588.2
582.014	596.8
582.421	588.4
582.829	586
583.236	592.6
583.644	586.2
584.073	584.8
584.481	592.2
584.889	584.8
585.296	596.8
585.726	592.6
586.134	584
586.542	588.4
586.95	603
587.358	585
587.787	589
588.196	600.4
588.604	589.2
589.012	589.4
589.421	588.2
589.851	579.6
590.259	602
590.668	590.8
591.076	630.2
591.485	591.4
591.894	590.4
592.324	598.8
592.733	605.8
593.142	580
593.551	590.8
593.96	599.8
594.369	585.2
594.8	591
595.209	589
595.618	582.8
596.028	598
596.437	588.6
596.847	603.8
597.256	596.8
597.687	612.2
598.097	598.6
598.507	589
598.917	606.8
599.327	617
599.736	601.8
600.146	618.2
600.556	607
600.988	619.8
601.398	607.2
601.808	619
602.219	608.2
602.629	626.6
603.039	626.2
603.45	646.8
603.86	621.6
604.271	641.8
604.703	640.2
605.114	630.6
605.525	638.4
605.935	640
606.346	656.2
606.757	645.6
607.168	643.4
607.579	641.2
607.99	667.6
608.402	648.2
608.813	662.6
609.224	664.2
609.636	658
610.047	655.4
610.48	670.2
610.892	671.8
611.303	679
611.715	672.2
612.127	682.2
612.539	690.8
612.95	692.6
613.362	683.4
613.774	691.2
614.186	704.4
614.599	705.4
615.011	723
615.423	722.4
615.835	711.6
616.248	722.6
616.66	732.6
617.073	718.2
617.485	737.6
617.898	743.8
618.311	745.2
618.723	739.6
619.136	769
619.549	761
619.962	768.2
620.375	758.6
620.788	757.8
621.201	756
621.614	780.8
622.028	756.4
622.441	763
622.854	778
623.268	764
623.681	773.6
624.095	772.4
624.509	784
624.922	777.6
625.336	764.8
625.728	767.4
626.142	784.2
626.556	798.4
626.97	782.2
627.384	770.6
627.799	774.8
628.213	776
628.627	777.6
629.041	767.4
629.456	769
629.87	781.2
630.285	774.6
630.699	782.8
631.093	775
631.507	777.6
631.922	767.8
632.337	778.2
632.752	754.6
633.167	767.4
633.582	753
633.997	750.2
634.412	757.6
634.806	760.6
635.221	743
635.637	763.6
636.052	732.2
636.468	744.4
636.883	764
637.299	749.2
637.715	712.2
638.109	737
638.525	722.8
638.941	735.8
639.357	737
639.773	733
640.189	720.8
640.584	715.4
641	708.8
641.416	705.4
641.832	703
642.249	706.6
642.665	706
643.06	708.8
643.477	713
643.894	688.4
644.31	697.8
644.727	694
645.123	685
645.54	687.4
645.957	684.8
646.374	691.8
646.77	674.8
647.187	704.6
647.604	675.6
648.021	660
648.439	669.4
648.835	671.8
649.252	676.6
649.67	666.2
650.088	665.4
650.484	663.4
650.902	665.4
651.32	661.6
651.738	655
652.134	660
652.552	658
652.971	656.6
653.389	641.2
653.786	664
654.204	656.2
654.622	636.8
655.019	639
655.438	640
655.857	648.4
656.275	648
656.673	631.2
657.091	640.6
657.51	618.6
657.908	633.8
658.327	645.8
658.746	624.2
659.144	627.8
659.563	639.2
659.982	624.4
660.38	617.8
660.8	625.6
661.219	627.4
661.617	619.8
662.037	611.2
662.457	625.6
662.855	596.8
663.275	647.8
663.695	609.8
664.094	616.4
664.514	617.8
664.934	600.8
665.333	612
665.753	598
666.152	592.8
666.572	599.6
666.993	616
667.392	606.4
667.812	597.4
668.212	602
668.632	606.2
669.053	597.6
669.453	598.4
669.874	602.8
670.273	600
670.694	590.8
671.116	599.2
671.515	598.8
671.937	595
672.337	594.2
672.758	601.2
673.158	596
673.58	581.8
673.98	588.8
674.402	603.8
674.824	583.8
675.224	576.4
675.646	576.4
676.047	581.8
676.469	576
676.869	592.2
677.292	583.2
677.693	575
678.115	573.4
678.516	580.4
678.939	580.2
679.34	574
679.762	589.4
680.164	587.2
680.586	581.4
680.988	580
681.411	606.6
681.812	584.6
682.236	577.2
682.637	573.4
683.061	571.4
683.462	579
683.864	572.8
684.288	581
684.69	572.6
685.114	582.2
685.516	590.4
685.94	568
686.342	579.8
686.766	571.2
687.168	577
687.571	590.8
687.995	578.6
688.398	568
688.822	581.2
689.225	590.6
689.628	593.8
690.052	570
690.456	585
690.88	579.4
691.284	568
691.687	582.2
692.112	565.8
692.515	571.4
692.919	578.4
693.344	576.4
693.747	567.8
694.173	571.6
694.577	575.6
694.98	565.8
695.406	579.2
695.81	575
696.214	574.2
696.64	578.4
697.044	571
697.448	582.4
697.874	573.2
698.279	575.4
698.684	563.2
699.11	566.6
699.514	576
699.919	574.6
700.324	567.6
700.75	588.6
701.156	572.8
701.561	581
701.987	576.6
702.393	577
702.798	578.4
703.203	565.8
703.63	562
704.036	554.2
704.442	562.4
704.847	562.8
705.274	564
705.68	568.2
706.086	566.2
706.492	560.6
706.92	562.4
707.326	573.4
707.732	565.4
708.139	561.4
708.545	560
708.973	554.6
709.38	566
709.786	562.6
710.193	568.8
710.6	573.4
711.028	556.6
711.435	567.4
711.842	568.8
712.249	566
712.656	562.4
713.064	577.8
713.492	558.6
713.9	561.6
714.307	571.6
714.715	561
715.123	567.4
715.53	578.8
715.938	578
716.367	572.4
716.775	565.6
717.184	559.2
717.592	563.6
718	578
718.408	602
718.816	601.2
719.225	567.2
719.633	571.6
720.042	559.6
720.472	561.6
720.881	584.6
721.29	564.8
721.699	562
722.108	569.6
722.517	570.4
722.926	563.6
723.335	579.4
723.744	562.8
724.154	564
724.563	565.6
724.973	568.2
725.382	568.2
725.792	558.6
726.202	561.2
726.612	595.4
727.022	568.6
727.432	566.8
779.813	562.8
780.223	603.2
780.634	561.8
781.044	564.4
781.454	567.2
781.865	575.4
782.276	557.6
782.686	575.6
783.097	567.4
783.508	562.8
783.919	578.4
784.33	571.8
784.741	574.8
785.152	567.8
785.563	559.2
785.974	559
786.386	569.6
786.776	563.2
787.188	561.2
787.599	562
788.011	575.6
788.423	563
788.835	564.2
789.247	555.8
789.659	565.8
790.071	555.6
790.483	593
790.874	560.8
791.286	571.2
791.699	557.2
792.111	568.4
792.524	570.4
792.937	568.6
793.349	559.2
793.741	565.2
794.154	560.8
794.567	585.8
794.98	564.8
795.393	554.6
795.785	576
796.198	560.6
796.612	568.2
797.026	566.6
797.439	552.8
797.831	564.6
798.245	558.2
798.659	556
799.073	559
799.487	556.6
799.88	557.8
800.294	554.2
800.708	565.2
801.123	559.2
801.516	573.4
801.93	550
802.345	550
802.76	569.2
803.153	570
803.568	570.4
803.983	573
804.377	563.6
804.792	557.2
805.207	559
805.601	570.2
806.016	593.2
806.432	560.6
806.826	588.2
807.242	578.8
807.658	560
808.052	564.8
808.468	562.6
808.884	555.4
809.279	563
809.695	571
810.111	574
810.506	568.6
810.922	572.2
811.339	559.6
811.734	565
812.151	559.6
812.546	559.6
812.963	556.8
813.38	561
813.776	559.8
814.193	569.6
814.589	556.2
815.006	560
815.402	552.4
815.82	565
816.237	563.8
816.633	564.2
817.051	550.8
817.448	564.4
817.866	552.8
818.262	576
818.68	558
819.077	561
819.495	561.2
819.892	603.2
820.311	552.8
820.708	564.4
821.127	557
821.524	569.4
821.943	567.4
822.34	576.8
822.759	561.6
823.157	569.2
823.576	569.4
823.974	565.8
824.393	578.6
824.791	562.6
825.189	558
825.609	554.6
826.007	552.2
826.427	553.4
826.826	546.4
827.246	563.4
827.644	555
828.043	571.8
828.463	554.4
828.862	566.2
829.261	565.4
829.682	558.4
830.081	568
830.502	565.4
830.901	573.2
831.301	572.2
831.722	561.8
832.121	554.8
832.521	562
832.943	559
833.342	566
833.742	555.4
834.164	555.6
834.564	551.6
834.965	563.8
835.386	556.2
835.787	562.8
836.188	566
836.588	560.6
837.01	567.2
837.411	562.4
837.812	565.8
838.213	569.4
838.636	555
839.037	620.2
839.438	567.2
839.84	569.2
840.263	568.4
840.664	572.6
841.066	564.6
841.468	571.6
841.891	548.4
842.293	570.2
842.695	561
843.098	561
843.5	565
843.902	566.8
844.326	567.8
844.729	563.6
845.131	568
845.534	559.8
845.937	573.4
846.34	574
846.764	555.6
847.167	565.8
847.571	558.8
847.974	553.4
848.377	557.8
848.781	606.6
849.184	567
849.588	559.2
849.992	565.6
850.396	565.4
850.821	572.2
851.225	557.6
851.63	559
852.034	571.4
852.438	562.2
852.843	619.8
853.247	559.8
853.652	555.4
854.057	572.6
854.462	560
854.867	568.8
855.272	586.8
855.677	560.4
856.082	550
856.487	543.8
856.893	559.6
857.298	557.8
857.704	554
858.11	561.2
858.516	564.8
