#lambda/nm	C1
208.295	558
208.67	499.4
209.045	455
209.419	454.6
209.794	595
210.169	577.2
210.544	682.4
210.919	607
211.295	581.2
211.67	595.8
212.045	593.6
212.421	590.4
212.796	630.2
213.172	587.2
213.547	590.2
213.923	591
214.299	589.8
214.675	594.8
215.051	598.4
215.427	601.2
215.803	607
216.179	598.4
216.555	586.2
216.932	603.2
217.308	596.6
217.684	594
218.061	604
218.438	597.2
218.814	591.4
219.191	599.6
219.568	588
219.945	591.8
220.322	597.2
220.699	603.6
221.076	599.6
221.453	590.4
221.83	585.4
222.208	579.6
222.585	583.8
222.962	593.2
223.34	593
223.717	586.8
224.095	596.4
224.473	592.4
224.851	580.8
225.229	590.6
225.607	603.4
225.985	584.6
226.363	586.6
226.741	592.8
227.119	591.4
227.497	602
227.876	582.8
228.254	598
228.633	590.4
229.011	588.4
229.39	597.8
229.769	592.8
230.148	597
230.527	607.8
230.905	585.2
231.284	596.6
231.664	582.6
232.043	598.2
232.422	593.6
232.801	584.4
233.181	594.8
233.56	589.4
233.94	595.4
234.319	577.6
234.699	579.4
235.079	623
235.458	621.6
235.838	607.2
236.218	583.8
236.598	587.2
236.978	582.2
237.358	581.2
237.738	577.8
238.119	601.2
238.499	576.2
238.88	583.6
239.26	602
239.641	577.8
240.021	584
240.402	589.8
240.783	588.8
241.163	591.4
241.544	593.8
241.925	591.4
242.306	603.6
242.687	597.8
243.069	592.2
243.45	598.2
243.831	583.2
244.212	593
244.594	626.6
244.975	599
245.357	595.2
245.739	580.6
246.12	592
246.502	601.8
246.884	590.2
247.266	589.4
247.648	597.8
248.03	606
248.412	595.4
248.794	598.8
249.176	577.6
249.559	598.6
249.941	581.2
250.323	576.8
250.706	583.6
251.089	588.2
251.471	590.6
251.854	590.4
252.237	581.6
252.62	599.6
253.002	586.8
253.385	588.8
253.769	609.8
254.152	593.4
254.535	590.8
254.918	590.8
255.301	586.8
255.685	585.2
256.068	583.8
256.452	606.4
256.835	588.6
257.219	600.8
257.603	591.2
257.986	579.4
258.37	591
258.754	587
259.138	602.4
259.522	597.2
259.906	592.8
260.29	580.8
260.675	590.2
261.059	584.6
261.443	581.8
261.828	591
262.212	590
262.597	584.2
262.981	586.8
263.366	585
263.751	593
264.136	585
264.521	593
264.906	587.4
265.291	600.8
265.676	588.4
266.061	592.8
266.446	607.8
266.831	593
267.217	602
267.602	601.4
267.987	591.8
268.373	588
268.759	596
269.144	600
269.53	585.8
269.916	581
270.302	586
270.688	596.4
271.074	588.4
271.46	593.6
271.846	614.4
272.232	590
272.618	581.2
273.004	586.8
273.391	600.4
273.777	601.2
274.164	592.4
274.55	601.6
274.937	591.8
275.324	587
275.71	592.2
276.097	597.2
276.484	584
276.871	590.2
277.258	596
277.645	577.4
278.032	586.2
278.419	583.6
278.807	594.6
279.194	581.2
279.581	582.4
279.969	592.6
280.356	587.2
280.744	589.2
281.131	607
281.519	597.6
281.907	582.8
282.295	581.6
282.682	602.6
283.07	602
283.458	597.8
283.846	600.2
284.235	601.2
284.623	595.6
285.011	585.8
285.399	600
285.788	593.4
286.176	587.8
286.565	604.8
286.953	589
287.342	590.4
287.731	583.8
288.119	586.4
288.508	590
288.897	592.4
289.286	577.8
289.675	594.8
290.064	603.4
290.453	587.4
290.821	591.8
291.21	603
291.599	585.2
291.989	593.8
292.378	596.2
292.768	602.4
293.157	599.2
293.547	600
293.936	585.4
294.326	586.2
294.716	592
295.106	586.8
295.496	589
295.886	598
296.276	593.4
296.666	583.8
297.056	587.8
297.446	588.6
297.836	603.2
298.227	591.4
298.617	594.8
299.008	610.8
299.398	586.4
299.789	589.2
300.179	597.2
300.57	606.2
300.961	590.8
301.352	590.4
301.742	595.2
302.133	587.8
302.524	589.8
302.915	591.2
303.307	585
303.698	603
304.089	604.2
304.48	592.8
304.872	589.6
305.263	590.2
305.655	584.8
306.046	596.2
306.438	592.8
306.829	585
307.221	606
307.613	598
308.005	599.8
308.397	604.8
308.789	607.4
309.181	605.6
309.573	605
309.965	606.2
310.357	583.4
310.749	602.6
311.142	582.8
311.534	596
311.926	602.4
312.319	592.6
312.711	584.8
313.104	603
313.497	589.6
313.889	634
314.282	604.2
314.675	617.8
315.068	596
315.461	595.6
315.854	622.8
316.247	597
316.64	585.4
317.033	593.2
317.405	599.2
317.798	596
318.192	593
318.585	579.8
318.979	590
319.372	584.8
319.766	589
320.16	603
320.553	604.2
320.947	602.2
321.341	588.6
321.735	592.2
322.129	585.2
322.523	607.4
322.917	585.8
323.311	601.4
323.705	601.6
324.099	595.2
324.494	611.8
324.888	604.2
325.282	589.8
325.677	604.2
326.071	594.8
326.466	602.2
326.861	590.8
327.255	600
327.65	596.6
328.045	603
328.44	596
328.835	595
329.23	580.6
329.625	611.4
330.02	588.8
330.415	609.8
330.81	598.6
331.206	593.2
331.601	583.6
331.996	593.4
332.37	603.2
332.766	584
333.161	607.4
333.557	587.8
333.953	589.6
334.348	901.6
334.744	591.8
335.14	584
335.536	582
335.932	599
336.328	584.6
336.724	608.6
337.12	587.8
337.516	592.6
337.913	586.2
338.309	604.4
338.705	587.8
339.102	607.4
339.498	585.4
339.895	600
340.291	583.2
340.688	591.4
341.085	581
341.481	580.4
341.878	592.6
342.275	602
342.672	588.2
343.069	588.2
343.466	580.2
343.842	599.2
344.239	595.8
344.636	596.6
345.033	583
345.431	586
345.828	590.8
346.225	585.8
346.623	614.4
347.02	586.4
347.418	589.4
347.816	595.6
348.213	579.4
348.611	592.4
349.009	584.2
349.407	600.4
349.805	583
350.203	587.8
350.601	592.6
350.999	583.2
351.397	627.8
351.795	589.4
352.193	589.4
352.57	590.4
352.969	602
353.367	584.8
353.766	582.8
354.164	588.2
354.563	589.6
354.961	591.2
355.36	585.2
355.759	583.8
356.158	592.2
356.557	583
356.956	590
357.355	568.2
357.754	587.2
358.153	594.2
358.552	608.2
358.951	579.2
359.35	595.4
359.75	585.8
360.149	576.6
360.527	574.6
360.926	580.6
361.326	585.6
361.726	588.6
362.125	572.8
362.525	589.2
362.925	581
363.325	583.2
363.724	582
364.124	576.6
364.524	578.2
364.924	584
365.324	592
365.725	570.4
366.125	591.6
366.525	587.8
366.904	575.4
367.304	566.8
367.705	594.4
368.105	598.2
368.506	581.8
368.906	586.6
369.307	584.6
369.708	586.2
370.108	574.2
370.509	591.2
370.91	578.8
371.311	586.6
371.712	585.6
372.113	585
372.514	582
372.894	586
373.295	576.2
373.696	591.2
374.097	590
374.499	606.6
374.9	582
375.301	582.8
375.703	579.4
376.105	578.4
376.506	590.8
376.908	587.4
377.309	586.6
377.711	585.4
378.113	577.4
378.493	584.4
378.895	587.4
379.297	593.2
379.699	574
380.102	581.2
380.504	582.4
380.906	574
381.308	607
381.71	584
382.113	587.4
382.515	583.6
382.918	582.2
383.299	578.8
383.701	588.8
384.104	588.8
384.507	566.8
384.909	579.6
385.312	570.8
385.715	580.6
386.118	589.2
386.521	576
386.924	593.8
387.327	580.2
387.709	571.8
388.112	570.4
388.515	577.4
388.918	584.8
389.322	593.8
389.725	583.8
390.129	599.4
390.532	588.6
390.936	577.4
391.339	576.6
391.743	583.4
392.125	579.8
392.529	589.4
392.933	588.2
393.337	585.4
393.74	586.2
394.144	584.4
394.548	578.8
394.953	584
395.357	590.2
395.761	575.8
396.144	586
396.548	580.8
396.952	581.4
397.357	579.4
397.761	583.6
398.166	575.2
398.57	581.4
398.975	576.4
399.379	580.8
399.763	628.6
400.168	588.2
400.572	584.8
400.977	581.8
401.382	602
401.787	579.8
402.192	591.8
402.597	598.4
403.002	570
403.386	590
403.791	598
404.197	584.2
404.602	585.2
405.007	581.6
405.413	575.8
405.818	580.2
406.224	579
406.608	580.2
407.014	577.6
407.42	605.4
407.825	572.2
408.231	592.4
408.637	589.6
409.043	593.4
409.449	580.2
409.834	579.6
410.24	582
410.646	607.8
411.052	586.6
411.458	592
411.865	593.6
412.271	584.6
412.677	592.8
413.062	594.8
413.469	572.8
413.875	604
414.282	596
414.689	587.4
415.095	591.4
415.502	583.2
415.888	589
416.294	574.2
416.701	618
417.108	577.4
417.515	594.8
417.923	592.4
418.33	603.2
418.715	593.2
419.123	584.4
419.53	586.4
419.937	583.6
420.345	599.4
420.752	584.6
421.16	599.2
421.546	584.8
421.953	588
422.361	576.4
422.769	587.4
423.177	576.2
423.585	596
423.992	596.2
424.379	586.8
424.787	590.8
425.195	601
425.603	588
426.011	590
426.419	596.4
426.806	588.2
427.214	589.8
427.623	593.4
428.031	600.8
428.44	588.4
428.848	600.4
429.235	611.8
429.644	603.4
430.053	593.2
430.461	600.4
430.87	625.4
431.279	607.6
431.666	616.6
432.075	611.8
432.484	627
432.893	630.6
433.302	648
433.711	681
434.099	648.4
434.508	648.4
434.918	653.4
435.327	682.8
435.737	674.4
436.125	691.4
436.534	696.2
436.944	711.6
437.353	719.4
437.763	733.8
438.173	721.8
438.561	737.8
438.971	731.6
439.381	751
439.791	748.2
440.201	740
440.589	762.4
440.999	787
441.409	776.4
441.819	776.6
442.23	796
442.619	801.4
443.029	804
443.439	806
443.85	815.8
444.26	819
444.649	823
445.06	818.8
445.471	823.2
445.881	831.4
446.292	835.6
446.682	846
447.092	829.2
447.503	880.4
447.914	857.8
448.325	845.2
448.715	850.8
449.126	836.6
449.537	841.2
449.948	854.8
450.338	850.6
450.75	860.2
451.161	867
451.572	864.6
451.984	854
452.374	845.2
452.786	866.2
453.197	863.6
453.609	875.6
453.999	864
454.411	863.8
454.823	874
455.235	876.2
455.647	867.6
456.037	874.8
456.449	861.4
456.862	871.6
457.274	869.4
457.665	863.2
458.077	888.2
458.489	905
458.902	887.2
459.293	877.8
459.705	871.6
460.118	868
460.53	880.6
460.921	871.4
461.334	877.8
461.747	875.4
462.16	886.8
462.551	887.4
462.964	876.2
463.377	856.6
463.79	879.8
464.182	886.2
464.595	875.2
465.008	881
465.421	884.4
465.813	879.6
466.226	881
466.64	882.2
467.053	918
467.445	887.2
467.859	900.8
468.272	881.8
468.686	885.8
469.078	880.2
469.492	870.6
469.906	886.8
470.298	885
470.712	874
471.126	935
471.54	864.8
471.933	862.2
472.347	872.4
472.761	873.8
473.175	858.8
473.568	853.4
473.982	855.6
474.397	864.2
474.79	868.2
475.204	880.6
475.619	858.2
476.033	886.4
476.426	864.8
476.841	860
477.256	887.4
477.649	858.8
478.064	849.2
478.479	860.6
478.872	842.6
479.287	840.2
479.702	842.4
480.118	856.6
480.511	857.6
480.927	838.4
481.342	841.6
481.736	848.6
482.151	836.8
482.566	855.4
482.96	844.2
483.376	850
483.792	833.4
484.186	843
484.602	835.6
485.017	839.6
485.412	834.4
485.827	841
486.243	834.8
486.638	846.2
487.054	837.6
487.47	841
487.865	820.6
488.281	824.4
488.697	823.6
489.092	811.6
489.508	813.8
489.925	822
490.32	807
490.736	821.4
491.153	805
491.548	803
491.964	821.2
492.381	795.4
492.776	797.8
493.193	800.6
493.61	803.8
494.006	800
494.422	818.6
494.84	794
495.235	806.8
495.652	792.2
496.069	787.8
496.465	778.4
496.883	785.8
497.3	807.4
497.696	791.8
498.113	794.6
498.509	772
498.927	765.4
499.344	770.2
499.741	767.2
500.158	781.8
500.576	775
500.973	763.2
501.39	762.2
501.787	762.8
502.205	766.4
502.623	758.4
503.02	755.6
503.438	755.6
503.856	757
504.253	757.8
504.671	760.2
505.068	744.6
505.486	752.4
505.905	765.6
506.302	750
506.72	755.4
507.118	739
507.536	738
507.955	735.2
508.352	736
508.771	744.6
509.169	742.8
509.587	730.2
510.006	726.8
510.404	725.6
510.823	731.8
511.221	730.4
511.64	726.2
512.038	736.4
512.457	719.4
512.877	717
513.275	720.4
513.694	730.8
514.092	714
514.512	718
514.91	720.2
515.33	710.6
515.749	715
516.148	713.4
516.568	708
516.966	711.4
517.386	698.4
517.785	701.4
518.205	704.2
518.603	695.4
519.024	694.4
519.444	702.4
519.843	707
520.263	698.6
520.662	697.4
521.082	694.2
521.481	689.8
521.902	691.8
522.301	695.4
522.722	695.4
523.121	689.4
523.542	677.2
523.963	668.8
524.362	693.4
524.783	689
525.183	674.6
525.604	680.8
526.003	670.6
526.425	671.4
526.824	682.2
527.246	688
527.646	677.2
528.067	671.8
528.467	675
528.888	677
529.289	667.6
529.71	673.8
530.11	660.8
530.532	660.6
530.932	654.4
531.354	654.6
531.755	691.8
532.176	676.8
532.577	665.8
532.999	658.8
533.4	653.6
533.822	662.4
534.223	663.6
534.645	652.8
535.046	660.8
535.468	655.8
535.869	666.2
536.292	651.8
536.693	678.6
537.115	652.6
537.516	652.2
537.939	655.8
538.34	667.8
538.742	670.4
539.165	646.2
539.566	652.4
539.989	644.4
540.391	647.4
540.814	658.6
541.216	644
541.639	638
542.041	649.2
542.464	628.2
542.866	633.8
543.268	637.4
543.691	641.4
544.093	645.6
544.517	648.6
544.919	630.6
545.343	662.2
545.745	619
546.147	635.2
546.571	631.8
546.974	626.4
547.398	626
547.8	647.4
548.224	626.8
548.627	621.6
549.03	638
549.454	625.2
549.857	618.8
550.281	622.6
550.684	625
551.087	634.6
551.512	631.4
551.915	631.4
552.34	627.4
552.743	615.2
553.146	621.8
553.571	622.4
553.975	638
554.399	627
554.803	657.6
555.207	616.2
555.632	610.6
556.036	623.2
556.461	614.6
556.865	612.8
557.268	611.2
557.694	616
558.098	615.2
558.502	614.4
558.927	613.6
559.332	614.8
559.736	612.4
560.162	623.2
560.566	602.4
560.992	619.4
561.396	616.6
561.801	613
562.227	610
562.631	602.4
563.036	616.2
563.462	612
563.867	611.8
564.272	603.6
564.698	614
565.103	604.8
565.508	617
565.935	609.4
566.34	610.6
566.745	622.6
567.172	605
567.577	622.6
567.982	621.4
568.409	611.8
568.815	595.8
569.22	606.4
569.626	607.8
570.053	592.8
570.459	603.2
570.865	612.4
571.292	606.6
571.698	598
572.104	589.6
572.531	603
572.937	602.2
573.343	589
573.75	607.8
574.177	594.6
574.583	607.8
574.99	599.8
575.396	601.2
575.824	604.6
576.231	611.2
576.637	597.2
577.065	617
577.472	589
577.879	598.6
578.286	606.8
578.714	593.4
579.121	594.2
579.528	598.4
579.935	604
580.364	598
580.771	588.2
581.178	587
581.585	599.2
582.014	600.4
582.421	591
582.829	588.2
583.236	605.2
583.644	589.8
584.073	595.8
584.481	589.4
584.889	584.8
585.296	595.2
585.726	597.8
586.134	584
586.542	587.4
586.95	602
587.358	585.2
587.787	595
588.196	605.6
588.604	590.6
589.012	594.4
589.421	578.4
589.851	582.8
590.259	586.4
590.668	584.8
591.076	612.4
591.485	589.6
591.894	591.2
592.324	596.4
592.733	596.6
593.142	578
593.551	581.8
593.96	587.8
594.369	574.4
594.8	582.2
595.209	584.2
595.618	569.4
596.028	572.2
596.437	575.8
596.847	588.2
597.256	580.8
597.687	588.2
598.097	582
598.507	575.8
598.917	582.6
599.327	588.6
599.736	588
600.146	590.2
600.556	578.8
600.988	593.2
601.398	580
601.808	592.4
602.219	573.4
602.629	580.8
603.039	588
603.45	598.6
603.86	579.8
604.271	592.8
604.703	580
605.114	583
605.525	573.8
605.935	588.2
606.346	588.2
606.757	586
607.168	583.4
607.579	577.2
607.99	590
608.402	582.8
608.813	583.6
609.224	572.8
609.636	579.2
610.047	576.2
610.48	580.6
610.892	583.6
611.303	588.6
611.715	580.2
612.127	570
612.539	577.6
612.95	583
613.362	567.4
613.774	570.6
614.186	574.2
614.599	579.8
615.011	584
615.423	580.2
615.835	578
616.248	570.6
616.66	582.8
617.073	570
617.485	576.4
617.898	583.2
618.311	578
618.723	574
619.136	605.6
619.549	589.8
619.962	593.4
620.375	575.8
620.788	579.2
621.201	578.6
621.614	590
622.028	570.4
622.441	584
622.854	593
623.268	572.6
623.681	583.2
624.095	580.2
624.509	587.4
624.922	591
625.336	567.6
625.728	576
626.142	585.4
626.556	594.6
626.97	581
627.384	576.2
627.799	572.8
628.213	580.2
628.627	576
629.041	574.8
629.456	577
629.87	570.6
630.285	591.6
630.699	583
631.093	573.4
631.507	579.4
631.922	579.2
632.337	581.6
632.752	566.8
633.167	574.8
633.582	569.4
633.997	572.2
634.412	570.8
634.806	572.6
635.221	564
635.637	586
636.052	564
636.468	573.8
636.883	589.8
637.299	576
637.715	570
638.109	571.8
638.525	564.4
638.941	585.2
639.357	573.8
639.773	580.6
640.189	572.4
640.584	576.4
641	580.2
641.416	565.6
641.832	568
642.249	572.2
642.665	566.6
643.06	580
643.477	582.4
643.894	562.6
644.31	567.8
644.727	567.4
645.123	574.6
645.54	560
645.957	579
646.374	585.4
646.77	579.2
647.187	592.6
647.604	575.2
648.021	565.2
648.439	569.6
648.835	577.4
649.252	566.6
649.67	567.8
650.088	577.2
650.484	575.4
650.902	577.4
651.32	568
651.738	568
652.134	572.8
652.552	596.4
652.971	572.8
653.389	572.2
653.786	575.8
654.204	590.2
654.622	564.4
655.019	573.4
655.438	575.6
655.857	566.6
656.275	577.6
656.673	557.8
657.091	576.6
657.51	562.2
657.908	570.8
658.327	591.8
658.746	558
659.144	573
659.563	582.2
659.982	569.6
660.38	560.4
660.8	573.4
661.219	580.6
661.617	567.8
662.037	576.8
662.457	586
662.855	563.8
663.275	589
663.695	568.4
664.094	565.4
664.514	573.8
664.934	566
665.333	575.8
665.753	563
666.152	559.6
666.572	561.2
666.993	575
667.392	570.2
667.812	568.2
668.212	562
668.632	572.6
669.053	566.2
669.453	564.2
669.874	568.2
670.273	571.6
670.694	567.8
671.116	573.4
671.515	575
671.937	567
672.337	557.4
672.758	561.8
673.158	579.8
673.58	557.8
673.98	564.6
674.402	582.2
674.824	567.4
675.224	561.6
675.646	557.4
676.047	564.2
676.469	575.2
676.869	564.2
677.292	577.8
677.693	567.2
678.115	566.8
678.516	574
678.939	577
679.34	570.8
679.762	573.8
680.164	570.2
680.586	563.8
680.988	569.6
681.411	586.2
681.812	567.4
682.236	561.8
682.637	563.6
683.061	564
683.462	572.4
683.864	562.6
684.288	563.2
684.69	562.8
685.114	570.8
685.516	566.2
685.94	569.6
686.342	573.2
686.766	563.8
687.168	559.4
687.571	579.2
687.995	567
688.398	565.8
688.822	564.4
689.225	583
689.628	582.4
690.052	565
690.456	577.6
690.88	574
691.284	556.6
691.687	571.2
692.112	552.8
692.515	561.4
692.919	568.4
693.344	570.4
693.747	561.6
694.173	560.6
694.577	575.4
694.98	572
695.406	562.6
695.81	575
696.214	572.4
696.64	570.4
697.044	571
697.448	572.8
697.874	567.2
698.279	566
698.684	558.2
699.11	562.8
699.514	569.6
699.919	560.2
700.324	555
700.75	569
701.156	570.2
701.561	572.4
701.987	572.4
702.393	572.2
702.798	578.6
703.203	569
703.63	564.4
704.036	563.4
704.442	563
704.847	555.6
705.274	555.6
705.68	570.4
706.086	571
706.492	558.6
706.92	562.2
707.326	580.4
707.732	563
708.139	560.6
708.545	556.2
708.973	562.2
709.38	561.2
709.786	560.2
710.193	575.4
710.6	568.2
711.028	554
711.435	564.4
711.842	570
712.249	552.2
712.656	565.2
713.064	567.8
713.492	558.2
713.9	552.2
714.307	560.6
714.715	560.8
715.123	567.8
715.53	563
715.938	573.4
716.367	568.6
716.775	556
717.184	562.4
717.592	565.6
718	563.6
718.408	589.6
718.816	600.2
719.225	564.2
719.633	566.8
720.042	556.8
720.472	563.6
720.881	580
721.29	565.2
721.699	559.8
722.108	566.8
722.517	563.8
722.926	561.6
723.335	565.4
723.744	558
724.154	565.6
724.563	563.8
724.973	568.4
725.382	563.8
725.792	562.4
726.202	554.8
726.612	582
727.022	561.6
727.432	556.4
779.813	559
780.223	597.2
780.634	558
781.044	557
781.454	562.8
781.865	573.2
782.276	556
782.686	571
783.097	562.6
783.508	561.8
783.919	565
784.33	572
784.741	573.4
785.152	568
785.563	556
785.974	559
786.386	569.6
786.776	564.2
787.188	566.8
787.599	560.8
788.011	566.4
788.423	563.2
788.835	554.8
789.247	555
789.659	554
790.071	564.2
790.483	592
790.874	558.6
791.286	572.8
791.699	563.2
792.111	563.8
792.524	562.4
792.937	558.4
793.349	552.2
793.741	560.8
794.154	558.6
794.567	573.4
794.98	560
795.393	545.4
795.785	569.6
796.198	560
796.612	556.2
797.026	551.6
797.439	549.2
797.831	555.4
798.245	551.6
798.659	560.2
799.073	560
799.487	556.6
799.88	557.8
800.294	563.6
800.708	573
801.123	560.8
801.516	577.8
801.93	552.4
802.345	549.8
802.76	563.4
803.153	583.4
803.568	570.6
803.983	567.8
804.377	564.6
804.792	559
805.207	547.8
805.601	555
806.016	586.2
806.432	562
806.826	587.2
807.242	569.4
807.658	566.2
808.052	561
808.468	552.8
808.884	556.2
809.279	562.2
809.695	572.8
810.111	588
810.506	563.6
810.922	574.4
811.339	559.8
811.734	571.2
812.151	556.4
812.546	555.2
812.963	545.4
813.38	571
813.776	563.6
814.193	575
814.589	548
815.006	558.8
815.402	551.4
815.82	554
816.237	567.4
816.633	558.8
817.051	559.8
817.448	564.6
817.866	556.8
818.262	577.4
818.68	555
819.077	555.8
819.495	563.2
819.892	592.8
820.311	559.2
820.708	556.2
821.127	557.2
821.524	569
821.943	562.4
822.34	571.2
822.759	562.2
823.157	564.2
823.576	569
823.974	564.2
824.393	575
824.791	557.8
825.189	553.4
825.609	560.2
826.007	559.2
826.427	554.4
826.826	560.6
827.246	566.8
827.644	550.8
828.043	567.6
828.463	561.4
828.862	569.4
829.261	566.4
829.682	557.4
830.081	570.8
830.502	552
830.901	567
831.301	574.8
831.722	554.6
832.121	560.8
832.521	557.8
832.943	558
833.342	568.8
833.742	554.8
834.164	565.4
834.564	560.6
834.965	565.2
835.386	554.4
835.787	560.2
836.188	564.2
836.588	560.6
837.01	561.2
837.411	560
837.812	561.8
838.213	567.4
838.636	564.2
839.037	614
839.438	567.4
839.84	565
840.263	560
840.664	561.8
841.066	559.4
841.468	565.6
841.891	560
842.293	569
842.695	558.8
843.098	568.8
843.5	551.8
843.902	569
844.326	564.2
844.729	561.8
845.131	571.6
845.534	563.2
845.937	569.4
846.34	574
846.764	560
847.167	563.4
847.571	557.2
847.974	556.2
848.377	556.4
848.781	592
849.184	565.4
849.588	556.2
849.992	555.8
850.396	560.2
850.821	571
851.225	571
851.63	559.4
852.034	568
852.438	558.2
852.843	626.4
853.247	561.2
853.652	560.2
854.057	572.8
854.462	565
854.867	559.2
855.272	581.8
855.677	560
856.082	552.2
856.487	556
856.893	560.4
857.298	565.6
857.704	558
