#lambda/nm	C1
208.295	557
208.67	498.8
209.045	461.8
209.419	454.2
209.794	594.6
210.169	574.6
210.544	677.4
210.919	593.2
211.295	583
211.67	589.4
212.045	593.2
212.421	581.2
212.796	622
213.172	584.2
213.547	585.6
213.923	580
214.299	583.8
214.675	597.8
215.051	591.2
215.427	592.2
215.803	601.2
216.179	591.8
216.555	592.6
216.932	597.8
217.308	587.4
217.684	592.4
218.061	587.2
218.438	591
218.814	581.4
219.191	589.8
219.568	591
219.945	587.4
220.322	592
220.699	584.2
221.076	590.6
221.453	591.8
221.83	579.8
222.208	580.4
222.585	588.6
222.962	584.4
223.34	589.4
223.717	591.4
224.095	589
224.473	589.6
224.851	580.8
225.229	587.6
225.607	598.4
225.985	581.4
226.363	594.6
226.741	589.4
227.119	582.6
227.497	589.6
227.876	574.8
228.254	596.4
228.633	591
229.011	584.6
229.39	588
229.769	584
230.148	591
230.527	604.6
230.905	589.2
231.284	585
231.664	579.6
232.043	599.2
232.422	590
232.801	583.6
233.181	596.6
233.56	586
233.94	590
234.319	581.6
234.699	579.8
235.079	626.8
235.458	606.2
235.838	596.4
236.218	581.4
236.598	581.2
236.978	583.2
237.358	578.6
237.738	576.2
238.119	588.8
238.499	574.4
238.88	586
239.26	601.4
239.641	582.2
240.021	579.8
240.402	587
240.783	576
241.163	589.2
241.544	587.2
241.925	592.4
242.306	599.2
242.687	588.8
243.069	592.8
243.45	598.4
243.831	587
244.212	588.4
244.594	622.6
244.975	593.4
245.357	590.6
245.739	579.4
246.12	593.8
246.502	597.8
246.884	589.4
247.266	578.2
247.648	597.6
248.03	606
248.412	587
248.794	592.4
249.176	584.2
249.559	590.8
249.941	582.4
250.323	580.6
250.706	583.2
251.089	588.4
251.471	580.2
251.854	587.6
252.237	582.4
252.62	599.2
253.002	588.4
253.385	586
253.769	597
254.152	586.4
254.535	588.2
254.918	577
255.301	587
255.685	578.6
256.068	584
256.452	604.2
256.835	603.6
257.219	591.4
257.603	598.2
257.986	585.8
258.37	590.4
258.754	573.6
259.138	589.6
259.522	602.6
259.906	583.4
260.29	592
260.675	584
261.059	587.6
261.443	579
261.828	586.2
262.212	586.6
262.597	576.6
262.981	587.6
263.366	590.2
263.751	588.8
264.136	588.6
264.521	591.4
264.906	586
265.291	598
265.676	583.8
266.061	590.2
266.446	603.6
266.831	592
267.217	601.6
267.602	581.2
267.987	585
268.373	584
268.759	585.6
269.144	594
269.53	585.6
269.916	588.6
270.302	581.6
270.688	591
271.074	591.4
271.46	600.6
271.846	625.2
272.232	593.6
272.618	582.4
273.004	592
273.391	602
273.777	596.6
274.164	597
274.55	600.6
274.937	597.4
275.324	582.6
275.71	601.4
276.097	594.8
276.484	584.8
276.871	594.2
277.258	585.6
277.645	575.6
278.032	587.8
278.419	586.8
278.807	583.8
279.194	578.4
279.581	578.2
279.969	590.2
280.356	598.2
280.744	601.4
281.131	611.8
281.519	600.8
281.907	589.2
282.295	587
282.682	603.6
283.07	590.8
283.458	591.6
283.846	596
284.235	602.4
284.623	596.2
285.011	569.8
285.399	594.4
285.788	591.2
286.176	580
286.565	596.8
286.953	577.6
287.342	577.6
287.731	586.4
288.119	575.6
288.508	587.6
288.897	587.4
289.286	586.6
289.675	593.6
290.064	595.4
290.453	574.4
290.821	591.6
291.21	597.6
291.599	590.8
291.989	587.4
292.378	590.4
292.768	603.8
293.157	589.2
293.547	592.2
293.936	586.2
294.326	583.6
294.716	589.8
295.106	584
295.496	592.2
295.886	582
296.276	585.6
296.666	587.4
297.056	579
297.446	580.4
297.836	604
298.227	581
298.617	582.8
299.008	594.4
299.398	586
299.789	581
300.179	591.4
300.57	596
300.961	585.6
301.352	578.6
301.742	584.8
302.133	580.4
302.524	580.8
302.915	585.8
303.307	569.4
303.698	590.2
304.089	588
304.48	575.4
304.872	589
305.263	581
305.655	582.8
306.046	590.6
306.438	588.8
306.829	576.4
307.221	593.2
307.613	589.2
308.005	600
308.397	594
308.789	599.8
309.181	607.8
309.573	597
309.965	592
310.357	588.2
310.749	596.4
311.142	578.2
311.534	583.2
311.926	595
312.319	589.6
312.711	584.4
313.104	592.4
313.497	594
313.889	616.2
314.282	606.2
314.675	610.4
315.068	587.6
315.461	585.2
315.854	614.2
316.247	590.6
316.64	581.4
317.033	587.8
317.405	590.8
317.798	588.4
318.192	595.2
318.585	582.4
318.979	595.4
319.372	584
319.766	588.8
320.16	601
320.553	596
320.947	607.4
321.341	586.8
321.735	588.2
322.129	575.2
322.523	608.6
322.917	581.2
323.311	596.6
323.705	592.2
324.099	584.6
324.494	592.2
324.888	593.2
325.282	585.4
325.677	594.2
326.071	596.6
326.466	592.2
326.861	586.8
327.255	590
327.65	594.6
328.045	600.4
328.44	585.6
328.835	591.6
329.23	576.6
329.625	601.6
330.02	573.8
330.415	603
330.81	586
331.206	585.8
331.601	581.4
331.996	595.8
332.37	599.6
332.766	582
333.161	600.4
333.557	585.6
333.953	587
334.348	844.8
334.744	585.4
335.14	584.6
335.536	586.2
335.932	595.4
336.328	580.8
336.724	588
337.12	583
337.516	590.2
337.913	588.8
338.309	599
338.705	584.4
339.102	596.6
339.498	585
339.895	606.4
340.291	575.8
340.688	590.8
341.085	577.6
341.481	589.2
341.878	580.4
342.275	606.6
342.672	585.6
343.069	594.8
343.466	575.8
343.842	595.8
344.239	585.2
344.636	581.4
345.033	577
345.431	582.8
345.828	593.4
346.225	580
346.623	609
347.02	589.8
347.418	588.4
347.816	598.2
348.213	576
348.611	587.8
349.009	581.8
349.407	601.4
349.805	576.6
350.203	576.2
350.601	594.8
350.999	581.6
351.397	631.6
351.795	580.4
352.193	594.6
352.57	590.2
352.969	590.6
353.367	580.6
353.766	586.6
354.164	590
354.563	592.2
354.961	587.2
355.36	580.2
355.759	578.4
356.158	570.4
356.557	586.6
356.956	576.2
357.355	569.4
357.754	584.6
358.153	590.2
358.552	603
358.951	588.4
359.35	597.8
359.75	578.6
360.149	573.4
360.527	579.6
360.926	573
361.326	582.4
361.726	580.2
362.125	585.6
362.525	587.4
362.925	583.4
363.325	585.8
363.724	585.4
364.124	579.2
364.524	580.4
364.924	583.2
365.324	593
365.725	573.4
366.125	589.2
366.525	583.4
366.904	579.4
367.304	570.6
367.705	594.8
368.105	596.8
368.506	580.8
368.906	582.8
369.307	579
369.708	584.8
370.108	574.6
370.509	589.2
370.91	573.4
371.311	580.4
371.712	576.6
372.113	571.8
372.514	577.2
372.894	580.2
373.295	578.8
373.696	589.2
374.097	589.4
374.499	606
374.9	590.8
375.301	573.8
375.703	586.4
376.105	575.2
376.506	578.8
376.908	584.2
377.309	576
377.711	579.8
378.113	576.4
378.493	583.2
378.895	572.8
379.297	588.4
379.699	570.6
380.102	587.4
380.504	581.2
380.906	581.4
381.308	602.4
381.71	577.6
382.113	584
382.515	584
382.918	593.4
383.299	582.8
383.701	589.4
384.104	584.8
384.507	563.2
384.909	586.6
385.312	570.2
385.715	577.2
386.118	575.2
386.521	572.6
386.924	589
387.327	574.8
387.709	575
388.112	566.6
388.515	576
388.918	584.8
389.322	582.2
389.725	574.4
390.129	600
390.532	586.4
390.936	578
391.339	571.6
391.743	574
392.125	569.8
392.529	583
392.933	592.6
393.337	583.4
393.74	576.4
394.144	583.2
394.548	579.8
394.953	579.8
395.357	581.6
395.761	580.2
396.144	579.6
396.548	578.4
396.952	580
397.357	575.2
397.761	571.2
398.166	574
398.57	572.4
398.975	571.8
399.379	576
399.763	614.6
400.168	570
400.572	577.2
400.977	565.2
401.382	597.4
401.787	589.2
402.192	594
402.597	587.6
403.002	568.8
403.386	583
403.791	586.8
404.197	569.4
404.602	582.4
405.007	580.8
405.413	577.2
405.818	581.8
406.224	568.6
406.608	585.6
407.014	574
407.42	591.6
407.825	572
408.231	588.4
408.637	581.4
409.043	594.4
409.449	578
409.834	575.8
410.24	578
410.646	588.6
411.052	581.4
411.458	588.4
411.865	589.2
412.271	581.6
412.677	582.4
413.062	582
413.469	577.2
413.875	593.6
414.282	590
414.689	586.2
415.095	582.8
415.502	578.2
415.888	585.6
416.294	570
416.701	612
417.108	567.6
417.515	590.6
417.923	580.2
418.33	598.6
418.715	584.6
419.123	578.2
419.53	573.8
419.937	574.2
420.345	583.2
420.752	579.6
421.16	588
421.546	583.4
421.953	577
422.361	576.4
422.769	586
423.177	575.6
423.585	590
423.992	595
424.379	587.4
424.787	594.6
425.195	591.2
425.603	578.6
426.011	586
426.419	595.4
426.806	585.2
427.214	583
427.623	591.8
428.031	597.6
428.44	588
428.848	593.6
429.235	597.8
429.644	592.8
430.053	586.4
430.461	606.4
430.87	623
431.279	610
431.666	599.6
432.075	613.8
432.484	622.4
432.893	615.8
433.302	647.2
433.711	665.8
434.099	639.6
434.508	646.2
434.918	649
435.327	674.8
435.737	661.2
436.125	681.6
436.534	687.8
436.944	698.2
437.353	694
437.763	721.4
438.173	711.4
438.561	726.2
438.971	715.2
439.381	731.4
439.791	748.6
440.201	735.4
440.589	746.4
440.999	775
441.409	763.8
441.819	761.2
442.23	789
442.619	787.2
443.029	789.2
443.439	792
443.85	806
444.26	820
444.649	810.8
445.06	800.4
445.471	810.6
445.881	821.8
446.292	830.2
446.682	826.2
447.092	804.2
447.503	861
447.914	825
448.325	827
448.715	836.6
449.126	833.4
449.537	832
449.948	850.4
450.338	848.6
450.75	860
451.161	842.8
451.572	846.2
451.984	833.8
452.374	835.4
452.786	855.6
453.197	848
453.609	847.6
453.999	847.8
454.411	859
454.823	866.2
455.235	864.2
455.647	862.8
456.037	858
456.449	852.4
456.862	856.4
457.274	864
457.665	853.2
458.077	860.8
458.489	873
458.902	861.2
459.293	860.6
459.705	871
460.118	861
460.53	875.2
460.921	870.4
461.334	864.6
461.747	861.8
462.16	870.2
462.551	880.8
462.964	877.6
463.377	857
463.79	864.4
464.182	873.8
464.595	865.6
465.008	874.8
465.421	866.8
465.813	867
466.226	876.8
466.64	861
467.053	907.6
467.445	866.2
467.859	873.8
468.272	858.4
468.686	878.4
469.078	861
469.492	852.4
469.906	860.6
470.298	865.4
470.712	869.6
471.126	896.8
471.54	850.2
471.933	849.8
472.347	863
472.761	855
473.175	853.8
473.568	847.2
473.982	844.6
474.397	853
474.79	853.8
475.204	862.6
475.619	848.8
476.033	858.4
476.426	857.6
476.841	841.8
477.256	867.6
477.649	845
478.064	846.4
478.479	843.2
478.872	833
479.287	829
479.702	832
480.118	835.2
480.511	839.4
480.927	840.4
481.342	842.8
481.736	840
482.151	822.4
482.566	835
482.96	838.4
483.376	838
483.792	828.4
484.186	828.2
484.602	827.4
485.017	825.8
485.412	809.8
485.827	831
486.243	817.4
486.638	838.6
487.054	825.2
487.47	825.8
487.865	805.6
488.281	807.8
488.697	800.4
489.092	813.4
489.508	806.4
489.925	812.4
490.32	809
490.736	821.2
491.153	807.4
491.548	808.2
491.964	802.4
492.381	782.4
492.776	797
493.193	790.6
493.61	794.2
494.006	783
494.422	795.4
494.84	768.8
495.235	791.8
495.652	771.4
496.069	778.4
496.465	762.6
496.883	782
497.3	782.2
497.696	766.4
498.113	776.4
498.509	768.2
498.927	756.8
499.344	757.6
499.741	747.6
500.158	766
500.576	770.6
500.973	746.8
501.39	742.2
501.787	746.4
502.205	762
502.623	745.6
503.02	745.8
503.438	742.6
503.856	749
504.253	748.4
504.671	743.2
505.068	744.2
505.486	737.8
505.905	762.8
506.302	743.6
506.72	739.8
507.118	726.8
507.536	729.8
507.955	722.8
508.352	737.4
508.771	731.8
509.169	729.2
509.587	721.4
510.006	722.6
510.404	718.2
510.823	718.4
511.221	719.8
511.64	717.8
512.038	725.4
512.457	713
512.877	712
513.275	714.2
513.694	712.6
514.092	696.4
514.512	720.6
514.91	711.8
515.33	700
515.749	695.6
516.148	713.4
516.568	705.2
516.966	704
517.386	694.4
517.785	710.2
518.205	696
518.603	686
519.024	688.6
519.444	686.8
519.843	700.2
520.263	690.2
520.662	689.2
521.082	679
521.481	680.6
521.902	680.8
522.301	674.6
522.722	677
523.121	674.8
523.542	682
523.963	673.6
524.362	673.2
524.783	680.4
525.183	673.8
525.604	673.6
526.003	668.8
526.425	656.6
526.824	671.4
527.246	677.6
527.646	672
528.067	670.4
528.467	661
528.888	672.4
529.289	656.2
529.71	671.4
530.11	650.2
530.532	660.8
530.932	652.6
531.354	649.2
531.755	680.6
532.176	661.8
532.577	649
532.999	650.8
533.4	649
533.822	660.8
534.223	664
534.645	653
535.046	649.8
535.468	654.4
535.869	664.4
536.292	643.4
536.693	673.6
537.115	648.4
537.516	648.2
537.939	642.4
538.34	656.8
538.742	656.6
539.165	651.6
539.566	651.4
539.989	640.4
540.391	636.6
540.814	638.4
541.216	640.2
541.639	643.4
542.041	646.8
542.464	636.8
542.866	628
543.268	641.6
543.691	634
544.093	645.2
544.517	642.8
544.919	629.2
545.343	652.4
545.745	625.6
546.147	629.4
546.571	628.6
546.974	622.4
547.398	630
547.8	633.8
548.224	631.4
548.627	624.8
549.03	634
549.454	629
549.857	618
550.281	619.6
550.684	618
551.087	634
551.512	621.6
551.915	626.2
552.34	627.2
552.743	613.4
553.146	625.4
553.571	619
553.975	634
554.399	619.2
554.803	659.8
555.207	618.4
555.632	611
556.036	618.4
556.461	605.2
556.865	617.6
557.268	612
557.694	613.4
558.098	618.4
558.502	619
558.927	604.8
559.332	610.4
559.736	616.6
560.162	614.2
560.566	617
560.992	615.6
561.396	611
561.801	603.6
562.227	611.2
562.631	603.6
563.036	604.8
563.462	611.8
563.867	624.4
564.272	604
564.698	613.8
565.103	601
565.508	628.4
565.935	606.4
566.34	597.2
566.745	608.2
567.172	603.2
567.577	619.2
567.982	607
568.409	600.2
568.815	593
569.22	604.4
569.626	609.8
570.053	587.2
570.459	602.2
570.865	606.2
571.292	609.2
571.698	596.2
572.104	593
572.531	592.4
572.937	613.2
573.343	597
573.75	593.4
574.177	600.4
574.583	600.8
574.99	589.2
575.396	600.4
575.824	600
576.231	602.2
576.637	587.2
577.065	620.2
577.472	597.4
577.879	596.4
578.286	604
578.714	588
579.121	592.6
579.528	589.6
579.935	599
580.364	599.2
580.771	580.8
581.178	587.2
581.585	600.4
582.014	603.2
582.421	584
582.829	587.8
583.236	599.8
583.644	579
584.073	594.2
584.481	588.2
584.889	589
585.296	593.6
585.726	586.2
586.134	580.4
586.542	583.8
586.95	599
587.358	580.8
587.787	588.4
588.196	595.8
588.604	578.8
589.012	581.8
589.421	583.6
589.851	583.8
590.259	586.4
590.668	579.6
591.076	611.8
591.485	575.8
591.894	585
592.324	583.4
592.733	587.8
593.142	569.2
593.551	575
593.96	585.2
594.369	567
594.8	570.8
595.209	581
595.618	572
596.028	570.4
596.437	567.6
596.847	576.8
597.256	581.4
597.687	586.4
598.097	584.4
598.507	565.6
598.917	586.4
599.327	578
599.736	578.4
600.146	588.4
600.556	580.4
600.988	580.4
601.398	577
601.808	581.6
602.219	564.4
602.629	576.8
603.039	577.4
603.45	598.4
603.86	587.4
604.271	585
604.703	581.8
605.114	572
605.525	579.4
605.935	576.2
606.346	598
606.757	583.2
607.168	573.8
607.579	575.2
607.99	581.8
608.402	570.8
608.813	577.2
609.224	565.2
609.636	564.6
610.047	571.6
610.48	569.2
610.892	579
611.303	587.6
611.715	571.2
612.127	570.4
612.539	578.6
612.95	577
613.362	567.6
613.774	575
614.186	570.8
614.599	570.4
615.011	590
615.423	579.8
615.835	564.2
616.248	560
616.66	572
617.073	560.8
617.485	569.6
617.898	570.4
618.311	571.4
618.723	579.2
619.136	585.4
619.549	580
619.962	585.4
620.375	579
620.788	572.8
621.201	561.8
621.614	578
622.028	568.8
622.441	564
622.854	587.2
623.268	557.2
623.681	572.2
624.095	582
624.509	573
624.922	579.4
625.336	563.2
625.728	564
626.142	580.8
626.556	585.2
626.97	573
627.384	565.2
627.799	565.8
628.213	576.8
628.627	571
629.041	569.8
629.456	567
629.87	572
630.285	570.8
630.699	578.8
631.093	564.8
631.507	576.4
631.922	572.6
632.337	584
632.752	562.6
633.167	563.4
633.582	569.2
633.997	570.2
634.412	556.2
634.806	568.6
635.221	566.8
635.637	578.2
636.052	560.4
636.468	577.2
636.883	584
637.299	562.2
637.715	560
638.109	565.2
638.525	553.6
638.941	578.6
639.357	570
639.773	577
640.189	565.6
640.584	569.4
641	577.2
641.416	555
641.832	578
642.249	561.4
642.665	567
643.06	569.4
643.477	568.2
643.894	565.4
644.31	570.4
644.727	560
645.123	570.4
645.54	560.2
645.957	564.2
646.374	576.4
646.77	570
647.187	593.2
647.604	564.8
648.021	559.8
648.439	565.8
648.835	566.8
649.252	570
649.67	568.6
650.088	570
650.484	568.6
650.902	581.8
651.32	573
651.738	560.8
652.134	568.2
652.552	587
652.971	580.2
653.389	558.6
653.786	572.4
654.204	584
654.622	568.4
655.019	570.4
655.438	562.4
655.857	566.4
656.275	565.2
656.673	560.6
657.091	577.6
657.51	568.4
657.908	567.4
658.327	576.6
658.746	559.6
659.144	564.2
659.563	574.6
659.982	571.6
660.38	560.6
660.8	565.6
661.219	575.6
661.617	565.4
662.037	559.4
662.457	575.4
662.855	556
663.275	592
663.695	567.4
664.094	570.8
664.514	561
664.934	563.8
665.333	572.2
665.753	554
666.152	556.4
666.572	559
666.993	579.4
667.392	562.8
667.812	562.4
668.212	564.2
668.632	578.2
669.053	565.2
669.453	568.4
669.874	567.4
670.273	571.2
670.694	558.8
671.116	571.4
671.515	576
671.937	561.6
672.337	562.2
672.758	567
673.158	572.4
673.58	557.4
673.98	572.2
674.402	577.8
674.824	562.4
675.224	562.2
675.646	562.8
676.047	564.4
676.469	566.2
676.869	565.6
677.292	560.6
677.693	563.4
678.115	560.2
678.516	574
678.939	560
679.34	569.8
679.762	573
680.164	565.4
680.586	558.2
680.988	560.6
681.411	586.2
681.812	567.2
682.236	559.4
682.637	564.6
683.061	560
683.462	569.6
683.864	566.6
684.288	572.6
684.69	568.4
685.114	565.8
685.516	569.2
685.94	557.6
686.342	568.8
686.766	556.4
687.168	558.4
687.571	565.8
687.995	558.6
688.398	548.6
688.822	558
689.225	570.6
689.628	571.8
690.052	562.4
690.456	559
690.88	553
691.284	553.4
691.687	563.8
692.112	550.8
692.515	555.6
692.919	571.4
693.344	566.2
693.747	558.8
694.173	552.4
694.577	564.6
694.98	558
695.406	561.6
695.81	568.2
696.214	565.6
696.64	566.8
697.044	561.4
697.448	569.4
697.874	562.6
698.279	558.4
698.684	553.2
699.11	558.4
699.514	557.8
699.919	559.4
700.324	559.8
700.75	566
701.156	560.2
701.561	572
701.987	560.2
702.393	570.6
702.798	571.6
703.203	563.2
703.63	554.2
704.036	563.8
704.442	564
704.847	555.8
705.274	562
705.68	565.8
706.086	570.4
706.492	558
706.92	564.2
707.326	563.6
707.732	570.8
708.139	554.4
708.545	554.6
708.973	554.4
709.38	557.4
709.786	551.4
710.193	578.4
710.6	565.6
711.028	547
711.435	561.2
711.842	552.4
712.249	549.4
712.656	565.4
713.064	568
713.492	558.8
713.9	559.8
714.307	557
714.715	560.4
715.123	561.2
715.53	569.2
715.938	566.4
716.367	556.6
716.775	557.8
717.184	553
717.592	556.6
718	568.2
718.408	586.4
718.816	598
719.225	569.2
719.633	559.2
720.042	551.2
720.472	558.4
720.881	573.2
721.29	562.2
721.699	552.4
722.108	560.8
722.517	561.6
722.926	559.2
723.335	563.4
723.744	550.6
724.154	559.2
724.563	557.8
724.973	557.8
725.382	550
725.792	558.8
726.202	555.2
726.612	575.2
727.022	567.6
727.432	558
779.813	551
780.223	593.8
780.634	563
781.044	550.8
781.454	563
781.865	567.6
782.276	544.6
782.686	561.6
783.097	558.6
783.508	558.2
783.919	565.4
784.33	572
784.741	566.6
785.152	559.4
785.563	548
785.974	563
786.386	571.8
786.776	553.4
787.188	561.2
787.599	556.2
788.011	569.2
788.423	571.2
788.835	559.2
789.247	550.8
789.659	559.4
790.071	563.2
790.483	590.6
790.874	560.4
791.286	563.8
791.699	556.2
792.111	563.8
792.524	568.4
792.937	559.2
793.349	548.8
793.741	556.4
794.154	556
794.567	576
794.98	559
795.393	547.2
795.785	566
796.198	554.6
796.612	559.2
797.026	560
797.439	551
797.831	554.2
798.245	549.4
798.659	562
799.073	552.4
799.487	557
799.88	563
800.294	557.4
800.708	560.6
801.123	556.4
801.516	575.6
801.93	552.6
802.345	544
802.76	563
803.153	568.6
803.568	568.6
803.983	568.2
804.377	558.6
804.792	552
805.207	554.2
805.601	558.2
806.016	587
806.432	549.8
806.826	582.6
807.242	568.4
807.658	559.2
808.052	560.2
808.468	552.4
808.884	556.4
809.279	563.2
809.695	573
810.111	579.8
810.506	561.6
810.922	577
811.339	560.2
811.734	562
812.151	557.8
812.546	566.4
812.963	552.8
813.38	565.8
813.776	559
814.193	572.2
814.589	556
815.006	549.4
815.402	552.2
815.82	552.4
816.237	557.4
816.633	560
817.051	547
817.448	564.8
817.866	554.4
818.262	576.2
818.68	549.8
819.077	556.6
819.495	557.2
819.892	589.2
820.311	554.8
820.708	563
821.127	554
821.524	573.8
821.943	568.8
822.34	575.6
822.759	564.6
823.157	555.4
823.576	570.2
823.974	566.2
824.393	574.2
824.791	561.2
825.189	554.6
825.609	555
826.007	565.6
826.427	558.6
826.826	557
827.246	569.8
827.644	545.4
828.043	567.8
828.463	555.2
828.862	568.6
829.261	558
829.682	556
830.081	557.2
830.502	550.8
830.901	555.8
831.301	565.8
831.722	552.4
832.121	556.8
832.521	552
832.943	552.6
833.342	553.8
833.742	556.6
834.164	544.8
834.564	550.4
834.965	558.6
835.386	552.8
835.787	554.2
836.188	550.6
836.588	553.2
837.01	553.6
837.411	553.4
837.812	555.2
838.213	550.4
838.636	559.6
839.037	611.6
839.438	549
839.84	547.2
840.263	556.8
840.664	556.2
841.066	551.8
841.468	546.4
841.891	549
842.293	563.6
842.695	559.8
843.098	561.6
843.5	548.2
843.902	559.2
844.326	561.6
844.729	553
845.131	561.6
845.534	559.2
845.937	564.4
846.34	563.8
846.764	551.8
847.167	560.6
847.571	550.4
847.974	560
848.377	557.4
848.781	593.2
849.184	569
849.588	557.8
849.992	564.2
850.396	561
850.821	571.6
851.225	560.6
851.63	557.8
852.034	570.2
852.438	553.2
852.843	617.6
853.247	556.4
853.652	557.4
854.057	563.8
854.462	568.6
854.867	558.4
855.272	579.6
855.677	566
856.082	552.2
856.487	554
856.893	562.6
857.298	555.8
857.704	553.2
