#lambda/nm	C1
208.295	542.6
208.67	486.6
209.045	450.2
209.419	449
209.794	604.4
210.169	587.6
210.544	702.4
210.919	603.8
211.295	594.8
211.67	601.2
212.045	598.6
212.421	599
212.796	625.8
213.172	594.4
213.547	592.8
213.923	598.4
214.299	592.8
214.675	603.4
215.051	606.8
215.427	606.8
215.803	623.2
216.179	599.6
216.555	598.4
216.932	606.6
217.308	601.8
217.684	601.8
218.061	606.4
218.438	602.4
218.814	595.2
219.191	604.2
219.568	595.6
219.945	589.4
220.322	604.4
220.699	606.2
221.076	598
221.453	601
221.83	599.6
222.208	595.4
222.585	598
222.962	607.6
223.34	598.6
223.717	599
224.095	594.6
224.473	597
224.851	593.4
225.229	588.8
225.607	609.4
225.985	594.8
226.363	600.2
226.741	602.6
227.119	598.8
227.497	609.2
227.876	597
228.254	604.6
228.633	597.2
229.011	601.2
229.39	598.2
229.769	597
230.148	599.8
230.527	616.4
230.905	596.4
231.284	607.2
231.664	589.2
232.043	612.8
232.422	605.8
232.801	587.4
233.181	605.8
233.56	600
233.94	592
234.319	582.8
234.699	600.2
235.079	636.2
235.458	627
235.838	607.6
236.218	594.4
236.598	588.2
236.978	591.8
237.358	589.2
237.738	585.4
238.119	598.4
238.499	593
238.88	597.8
239.26	616.8
239.641	593.6
240.021	590.8
240.402	602.8
240.783	594.2
241.163	588.6
241.544	607
241.925	594.8
242.306	609.8
242.687	598.2
243.069	603
243.45	596.8
243.831	592.2
244.212	602.2
244.594	626.4
244.975	611.2
245.357	601.2
245.739	595.6
246.12	606.6
246.502	617.8
246.884	599.8
247.266	596.8
247.648	600.6
248.03	623
248.412	601
248.794	612.2
249.176	598
249.559	604.4
249.941	604.6
250.323	588.4
250.706	599.6
251.089	604.4
251.471	605.8
251.854	598
252.237	596.8
252.62	603.2
253.002	602.8
253.385	602.6
253.769	623.8
254.152	594.4
254.535	604.6
254.918	593.4
255.301	596.6
255.685	591
256.068	587.6
256.452	617.8
256.835	612.4
257.219	607.4
257.603	615.4
257.986	591.2
258.37	611.8
258.754	590.4
259.138	599.4
259.522	611.4
259.906	596.2
260.29	601.6
260.675	599
261.059	604
261.443	597.4
261.828	603.2
262.212	596.6
262.597	593.4
262.981	597.2
263.366	603.8
263.751	605.6
264.136	595.6
264.521	593.4
264.906	590.4
265.291	611.2
265.676	602.2
266.061	612.2
266.446	625.4
266.831	602
267.217	617.6
267.602	604.4
267.987	605.8
268.373	590.8
268.759	605.8
269.144	609.8
269.53	596.4
269.916	597
270.302	594.8
270.688	608.4
271.074	604.2
271.46	613.2
271.846	631.4
272.232	605
272.618	595.4
273.004	603
273.391	606.4
273.777	613.4
274.164	607.4
274.55	610.2
274.937	607.8
275.324	603.6
275.71	607.4
276.097	603.6
276.484	592.6
276.871	607.8
277.258	598.8
277.645	593.4
278.032	601.2
278.419	601.8
278.807	612.2
279.194	598.6
279.581	595.8
279.969	611
280.356	612.4
280.744	605
281.131	631
281.519	606.2
281.907	591.6
282.295	593.2
282.682	610.2
283.07	604.4
283.458	605.8
283.846	609.2
284.235	612.6
284.623	604.2
285.011	589.2
285.399	607.2
285.788	609.2
286.176	593.6
286.565	608.8
286.953	595.4
287.342	593.8
287.731	591.8
288.119	597.4
288.508	594.4
288.897	606.8
289.286	598.6
289.675	597.2
290.064	609.8
290.453	595.8
290.821	600.8
291.21	611.8
291.599	602.4
291.989	598.2
292.378	607.4
292.768	618.8
293.157	604.8
293.547	605.6
293.936	594.6
294.326	592.2
294.716	599.6
295.106	594.8
295.496	600
295.886	614
296.276	601.4
296.666	595.4
297.056	596.4
297.446	590.6
297.836	619.6
298.227	597
298.617	604.4
299.008	620.6
299.398	591.2
299.789	590.8
300.179	605.8
300.57	607.4
300.961	602.4
301.352	597.2
301.742	606.2
302.133	602.6
302.524	601.2
302.915	599.2
303.307	604.4
303.698	609.2
304.089	613.4
304.48	603
304.872	613.6
305.263	613.6
305.655	595
306.046	604.4
306.438	603.8
306.829	597.2
307.221	611.2
307.613	607.4
308.005	609.2
308.397	616.4
308.789	625.6
309.181	625.2
309.573	622.8
309.965	610.6
310.357	591.2
310.749	607.8
311.142	596.4
311.534	597.6
311.926	610.4
312.319	603.2
312.711	591.4
313.104	612.8
313.497	595.8
313.889	636.2
314.282	615.6
314.675	627.8
315.068	608.2
315.461	605.2
315.854	633.2
316.247	607
316.64	606.4
317.033	603
317.405	607
317.798	602
318.192	607
318.585	592
318.979	607.8
319.372	596.6
319.766	592
320.16	615.2
320.553	616.4
320.947	620.2
321.341	601.4
321.735	594.6
322.129	580.8
322.523	621
322.917	592
323.311	603.4
323.705	599.8
324.099	600.4
324.494	611.8
324.888	614.4
325.282	599.6
325.677	611.6
326.071	612.4
326.466	613.6
326.861	603.6
327.255	615.2
327.65	612
328.045	613
328.44	604.4
328.835	605
329.23	594.4
329.625	621.2
330.02	601.4
330.415	609
330.81	599
331.206	609.4
331.601	599.4
331.996	612
332.37	623.8
332.766	591.8
333.161	617.2
333.557	593.8
333.953	593.8
334.348	969.8
334.744	603.4
335.14	593.2
335.536	592.8
335.932	610.4
336.328	596.6
336.724	599.6
337.12	605.2
337.516	600.4
337.913	590.2
338.309	608
338.705	592
339.102	603.6
339.498	595.2
339.895	611.8
340.291	593.4
340.688	601
341.085	589.6
341.481	604.2
341.878	602
342.275	616
342.672	597.6
343.069	593.6
343.466	588.6
343.842	604.8
344.239	588
344.636	594
345.033	600
345.431	593
345.828	605.4
346.225	594
346.623	634
347.02	598.6
347.418	610.2
347.816	609
348.213	585.8
348.611	602
349.009	596.8
349.407	613.2
349.805	587
350.203	589.8
350.601	613.8
350.999	596.2
351.397	652.8
351.795	608.2
352.193	609.8
352.57	597.8
352.969	612.4
353.367	592
353.766	594
354.164	594.2
354.563	611
354.961	596.2
355.36	599.8
355.759	601.4
356.158	593.2
356.557	593.2
356.956	591
357.355	586
357.754	600
358.153	604.2
358.552	619.6
358.951	593.4
359.35	608
359.75	598.2
360.149	592
360.527	579.6
360.926	585.8
361.326	603.6
361.726	598.8
362.125	592
362.525	607.2
362.925	600.4
363.325	605.6
363.724	600.6
364.124	590
364.524	594
364.924	597
365.324	604.6
365.725	591.8
366.125	610
366.525	590.6
366.904	577.8
367.304	585.4
367.705	607.8
368.105	603.6
368.506	586.6
368.906	598.4
369.307	592.6
369.708	606.4
370.108	590.6
370.509	605.4
370.91	591
371.311	597.8
371.712	599.2
372.113	590.8
372.514	586.2
372.894	587.8
373.295	590.4
373.696	608.2
374.097	599.8
374.499	625.4
374.9	589.2
375.301	595
375.703	599.2
376.105	586.6
376.506	599.2
376.908	592.2
377.309	600.2
377.711	590.6
378.113	594.2
378.493	592
378.895	589.2
379.297	601.6
379.699	585.4
380.102	609.8
380.504	594
380.906	584
381.308	612.8
381.71	589.2
382.113	599.8
382.515	579.8
382.918	595.8
383.299	589.2
383.701	598.2
384.104	594.8
384.507	583
384.909	594.2
385.312	584.4
385.715	576.6
386.118	594
386.521	579.6
386.924	604.2
387.327	592.2
387.709	581.2
388.112	582.4
388.515	585.6
388.918	583.4
389.322	589.6
389.725	588
390.129	612
390.532	605
390.936	586.4
391.339	589.8
391.743	596
392.125	585.8
392.529	596.6
392.933	607.6
393.337	598
393.74	588
394.144	595.2
394.548	584
394.953	577.4
395.357	598.8
395.761	594.6
396.144	591
396.548	591.6
396.952	600.2
397.357	596.2
397.761	592.4
398.166	594.6
398.57	587.4
398.975	583.6
399.379	591.4
399.763	640.2
400.168	593.8
400.572	599.2
400.977	592.6
401.382	612
401.787	600.2
402.192	614.2
402.597	600.8
403.002	597.4
403.386	609.8
403.791	614.4
404.197	593
404.602	594
405.007	587.6
405.413	589.4
405.818	598.4
406.224	578.6
406.608	594.4
407.014	582
407.42	604
407.825	583.4
408.231	607
408.637	596.8
409.043	608.2
409.449	590.6
409.834	584.2
410.24	601.6
410.646	606
411.052	602.8
411.458	598.6
411.865	603.8
412.271	590.4
412.677	597.8
413.062	597.8
413.469	587.2
413.875	618.2
414.282	609.4
414.689	602.6
415.095	610.2
415.502	589.8
415.888	598
416.294	581
416.701	626.6
417.108	592.2
417.515	602.8
417.923	592.4
418.33	614.4
418.715	601.6
419.123	588.2
419.53	587.6
419.937	597.2
420.345	599.4
420.752	591.4
421.16	602.2
421.546	597
421.953	601.8
422.361	591.4
422.769	595
423.177	584.4
423.585	609
423.992	617
424.379	603
424.787	596.6
425.195	607.8
425.603	591
426.011	604.4
426.419	611
426.806	597.6
427.214	593.4
427.623	600.4
428.031	612
428.44	597.6
428.848	616.6
429.235	612
429.644	607.4
430.053	604.6
430.461	618.2
430.87	623.8
431.279	609.8
431.666	602.6
432.075	605
432.484	620
432.893	614.4
433.302	637.8
433.711	660.2
434.099	628.8
434.508	626
434.918	624.8
435.327	648.4
435.737	650.8
436.125	644.2
436.534	653.2
436.944	660.8
437.353	670.4
437.763	690.2
438.173	664.6
438.561	682
438.971	665.8
439.381	682
439.791	691.8
440.201	682.8
440.589	694.8
440.999	708.2
441.409	706
441.819	711.6
442.23	725.2
442.619	728
443.029	724.2
443.439	729.4
443.85	738
444.26	752.6
444.649	734.2
445.06	743
445.471	746.6
445.881	745.8
446.292	769.6
446.682	763.6
447.092	738.2
447.503	791.6
447.914	755.8
448.325	768.8
448.715	761
449.126	755.2
449.537	761.6
449.948	759.8
450.338	766.4
450.75	776
451.161	766
451.572	775.2
451.984	766.6
452.374	756
452.786	769.6
453.197	776.8
453.609	786.8
453.999	764.6
454.411	771
454.823	786.4
455.235	775.8
455.647	779.6
456.037	785.2
456.449	762.8
456.862	770.8
457.274	778.6
457.665	776.6
458.077	778.6
458.489	804.8
458.902	775.4
459.293	779.4
459.705	774.2
460.118	778
460.53	782
460.921	777.4
461.334	787.2
461.747	777.2
462.16	801.6
462.551	799.6
462.964	787
463.377	773.4
463.79	784
464.182	796
464.595	781.4
465.008	785
465.421	786
465.813	786.2
466.226	794
466.64	770.2
467.053	830
467.445	792.8
467.859	811
468.272	786
468.686	788.4
469.078	778.8
469.492	775.6
469.906	787.8
470.298	803.2
470.712	774
471.126	830
471.54	772.4
471.933	783
472.347	774.8
472.761	785.6
473.175	767.6
473.568	787
473.982	781.8
474.397	777.6
474.79	777.4
475.204	788.4
475.619	780
476.033	775.2
476.426	780
476.841	780.8
477.256	794
477.649	760.4
478.064	764.6
478.479	761.8
478.872	761.4
479.287	756.4
479.702	765.4
480.118	768.6
480.511	759.8
480.927	761.8
481.342	757.4
481.736	767.6
482.151	758.8
482.566	763.8
482.96	759.8
483.376	781.8
483.792	752.2
484.186	765.8
484.602	763.4
485.017	748.2
485.412	744.4
485.827	763
486.243	756.2
486.638	777.6
487.054	767.2
487.47	763.4
487.865	758.2
488.281	743.2
488.697	740.6
489.092	755.4
489.508	738
489.925	751.8
490.32	734.8
490.736	746.8
491.153	747
491.548	751.4
491.964	750.6
492.381	723.8
492.776	728.8
493.193	731.2
493.61	738.8
494.006	731.6
494.422	735
494.84	726
495.235	747.4
495.652	725.8
496.069	729.2
496.465	720.6
496.883	736.6
497.3	746.8
497.696	709.4
498.113	718
498.509	703.8
498.927	712
499.344	710
499.741	711.6
500.158	724.2
500.576	723.2
500.973	720.6
501.39	712
501.787	696.2
502.205	706.6
502.623	710.8
503.02	694
503.438	706.8
503.856	697.8
504.253	701
504.671	705.4
505.068	701.8
505.486	701.6
505.905	718.8
506.302	707
506.72	708.4
507.118	697
507.536	693.6
507.955	694.2
508.352	699
508.771	696
509.169	688.4
509.587	685.4
510.006	696
510.404	676.2
510.823	676.2
511.221	683.4
511.64	689.6
512.038	688.8
512.457	683.8
512.877	678.2
513.275	686.4
513.694	686.4
514.092	676
514.512	675.2
514.91	683.8
515.33	681.6
515.749	668
516.148	671.6
516.568	668
516.966	664.6
517.386	668.8
517.785	670
518.205	652.6
518.603	664.6
519.024	662.6
519.444	665
519.843	668
520.263	672.8
520.662	663.2
521.082	660.2
521.481	662.4
521.902	652
522.301	662
522.722	656.6
523.121	656.2
523.542	659.2
523.963	659.4
524.362	652.4
524.783	651
525.183	649.6
525.604	656.4
526.003	649.6
526.425	643.8
526.824	653.8
527.246	657
527.646	652.8
528.067	643.8
528.467	649.2
528.888	646.8
529.289	642.4
529.71	640.2
530.11	642.6
530.532	629.8
530.932	636.8
531.354	636.8
531.755	664.8
532.176	643
532.577	636.6
532.999	643
533.4	633.4
533.822	652.6
534.223	645.4
534.645	642.8
535.046	635.8
535.468	639.2
535.869	647.4
536.292	623.4
536.693	659.8
537.115	628
537.516	631
537.939	626.6
538.34	648
538.742	646.6
539.165	634.8
539.566	628.2
539.989	624
540.391	628.4
540.814	636.2
541.216	636.2
541.639	631.4
542.041	637.8
542.464	629
542.866	626.4
543.268	620
543.691	632
544.093	629.2
544.517	655.2
544.919	622.6
545.343	654.8
545.745	621.8
546.147	626.6
546.571	616.8
546.974	615.4
547.398	632.2
547.8	633.4
548.224	623.2
548.627	617.4
549.03	621.2
549.454	609
549.857	613.8
550.281	612.2
550.684	612.2
551.087	631.8
551.512	628.2
551.915	626.2
552.34	615.4
552.743	614.8
553.146	618.8
553.571	618.4
553.975	639.8
554.399	604.2
554.803	658.8
555.207	616.4
555.632	608.8
556.036	627.8
556.461	607.6
556.865	611.2
557.268	618.4
557.694	614
558.098	625.2
558.502	622.2
558.927	610.6
559.332	612.2
559.736	604
560.162	609
560.566	614.6
560.992	622.4
561.396	615.8
561.801	606.8
562.227	610
562.631	615
563.036	611.6
563.462	623.6
563.867	614.6
564.272	602.8
564.698	617.8
565.103	600.2
565.508	619.6
565.935	607
566.34	605.6
566.745	613.2
567.172	598.8
567.577	626
567.982	625.6
568.409	613.6
568.815	599.4
569.22	608.8
569.626	611.2
570.053	592.2
570.459	605
570.865	606.4
571.292	609.8
571.698	611.8
572.104	595.6
572.531	597.4
572.937	610.4
573.343	602.8
573.75	598.6
574.177	602
574.583	606.8
574.99	600.2
575.396	604.6
575.824	593.8
576.231	616.4
576.637	597.8
577.065	624.4
577.472	595.8
577.879	595.6
578.286	611.6
578.714	599
579.121	592.4
579.528	596.6
579.935	606.2
580.364	596.8
580.771	583.6
581.178	593
581.585	604.8
582.014	595.6
582.421	592.4
582.829	589.2
583.236	604
583.644	589.6
584.073	597.8
584.481	599.6
584.889	590.6
585.296	595
585.726	595.8
586.134	586.2
586.542	600.6
586.95	610.4
587.358	588.4
587.787	596.2
588.196	612.8
588.604	598.6
589.012	594.8
589.421	584.2
589.851	590.8
590.259	598.6
590.668	598.4
591.076	625
591.485	595.6
591.894	591.4
592.324	601.4
592.733	608
593.142	577.4
593.551	582.4
593.96	591
594.369	585.6
594.8	587
595.209	585.8
595.618	578.2
596.028	584
596.437	581.8
596.847	597.2
597.256	593.2
597.687	594
598.097	590.2
598.507	578.6
598.917	590.2
599.327	596.4
599.736	592.6
600.146	593
600.556	588.4
600.988	601
601.398	586.6
601.808	600.8
602.219	574.8
602.629	592.4
603.039	589.6
603.45	605.2
603.86	594
604.271	601.6
604.703	587.4
605.114	583.8
605.525	584
605.935	587.2
606.346	604.4
606.757	589.8
607.168	587.6
607.579	582
607.99	600.8
608.402	588.2
608.813	588.4
609.224	575
609.636	572.6
610.047	580.4
610.48	585
610.892	584.6
611.303	598
611.715	584.4
612.127	568.8
612.539	579.4
612.95	585
613.362	576
613.774	579
614.186	576.8
614.599	573.8
615.011	587.8
615.423	588.4
615.835	582.8
616.248	587.6
616.66	586.4
617.073	581.4
617.485	582.2
617.898	588.4
618.311	591.2
618.723	583.8
619.136	605.6
619.549	595.6
619.962	601.6
620.375	584.6
620.788	588.8
621.201	576.8
621.614	593.2
622.028	588.4
622.441	590.2
622.854	604.4
623.268	581
623.681	589
624.095	585.2
624.509	593
624.922	583.4
625.336	570.6
625.728	582.2
626.142	592
626.556	599.4
626.97	586.2
627.384	578.4
627.799	578.6
628.213	584.2
628.627	580.4
629.041	576
629.456	586.4
629.87	577
630.285	590.6
630.699	596
631.093	574.2
631.507	585.8
631.922	585.8
632.337	590
632.752	578.2
633.167	575.6
633.582	580.4
633.997	575.4
634.412	577
634.806	582.6
635.221	576.2
635.637	589.8
636.052	576.2
636.468	587.8
636.883	590.4
637.299	582
637.715	575.4
638.109	581.6
638.525	574
638.941	597.6
639.357	582.2
639.773	591.4
640.189	576.8
640.584	584.8
641	583.8
641.416	566.2
641.832	579.8
642.249	583.6
642.665	590
643.06	580.6
643.477	589.4
643.894	568
644.31	574.6
644.727	584.4
645.123	580.8
645.54	572.2
645.957	578
646.374	586
646.77	585.6
647.187	609.4
647.604	582.6
648.021	565.2
648.439	575.4
648.835	579.4
649.252	577.4
649.67	583.8
650.088	580.2
650.484	582.4
650.902	591.6
651.32	585.4
651.738	576.6
652.134	587.2
652.552	588.2
652.971	583.6
653.389	574.6
653.786	586
654.204	594.8
654.622	579.8
655.019	581.2
655.438	587.2
655.857	579.8
656.275	597.4
656.673	573.8
657.091	584.2
657.51	577.4
657.908	590
658.327	594.4
658.746	565.2
659.144	574
659.563	593
659.982	583.6
660.38	575.6
660.8	587
661.219	588
661.617	587.4
662.037	582.2
662.457	594.2
662.855	572.6
663.275	607.6
663.695	591.4
664.094	573
664.514	587
664.934	575.4
665.333	590.8
665.753	570.8
666.152	579.6
666.572	572
666.993	589.6
667.392	577.4
667.812	572.6
668.212	576
668.632	591.8
669.053	577
669.453	583.4
669.874	580
670.273	577.2
670.694	573.4
671.116	587.8
671.515	593.2
671.937	579.2
672.337	572.4
672.758	572.4
673.158	583
673.58	564.2
673.98	575
674.402	592.6
674.824	577
675.224	571.2
675.646	568
676.047	579.6
676.469	578.4
676.869	581.6
677.292	575.6
677.693	567.2
678.115	582.2
678.516	578.6
678.939	582.4
679.34	570.2
679.762	595
680.164	581
680.586	566.2
680.988	574.8
681.411	597
681.812	578.2
682.236	565.2
682.637	565.6
683.061	568.6
683.462	574.8
683.864	575
684.288	578.4
684.69	565.2
685.114	585.2
685.516	574.6
685.94	569.8
686.342	582.2
686.766	576.4
687.168	572.4
687.571	596.6
687.995	580.8
688.398	568.6
688.822	571.4
689.225	586.6
689.628	587.6
690.052	571.2
690.456	581.2
690.88	579.8
691.284	572.4
691.687	584.4
692.112	572.4
692.515	574
692.919	572.8
693.344	580.6
693.747	578.2
694.173	570.2
694.577	589
694.98	571.4
695.406	569.8
695.81	581.4
696.214	576
696.64	581.6
697.044	574.4
697.448	583.2
697.874	582.4
698.279	576.6
698.684	573.8
699.11	571.6
699.514	570.8
699.919	569.2
700.324	563.6
700.75	577
701.156	577.4
701.561	588.6
701.987	580.6
702.393	587.2
702.798	586.6
703.203	573.4
703.63	573
704.036	573.6
704.442	573
704.847	558
705.274	565.6
705.68	575
706.086	589.4
706.492	570.8
706.92	569.8
707.326	579
707.732	566
708.139	570.6
708.545	563.8
708.973	576.2
709.38	585.6
709.786	567.6
710.193	592
710.6	579.2
711.028	568.6
711.435	576.8
711.842	572
712.249	563.2
712.656	578.4
713.064	582.2
713.492	567
713.9	566.4
714.307	570.6
714.715	576.6
715.123	568.2
715.53	571.4
715.938	576
716.367	568.8
716.775	567.4
717.184	560.6
717.592	575
718	579.6
718.408	598.6
718.816	606
719.225	587.6
719.633	576.8
720.042	567.6
720.472	573.2
720.881	589.4
721.29	581.2
721.699	570.4
722.108	579.8
722.517	572.4
722.926	563.6
723.335	581.8
723.744	569.4
724.154	568.8
724.563	573
724.973	568.2
725.382	567.8
725.792	565.2
726.202	561.8
726.612	590
727.022	568.4
727.432	566.4
779.813	562.4
780.223	611.4
780.634	568.2
781.044	558
781.454	573
781.865	582
782.276	558
782.686	582
783.097	569.2
783.508	566
783.919	577.4
784.33	576.6
784.741	584.2
785.152	573.4
785.563	565.2
785.974	566.6
786.386	573.6
786.776	566
787.188	577
787.599	565.8
788.011	575.4
788.423	581
788.835	562.4
789.247	566
789.659	564
790.071	574.4
790.483	610.8
790.874	569.8
791.286	575.2
791.699	575.6
792.111	574.4
792.524	572.4
792.937	573
793.349	563.2
793.741	564.6
794.154	570
794.567	588
794.98	562.6
795.393	563.6
795.785	579.6
796.198	572
796.612	569.4
797.026	563.8
797.439	561
797.831	567.6
798.245	559.4
798.659	571.4
799.073	569.2
799.487	567.2
799.88	569.4
800.294	569.2
800.708	575.2
801.123	571.6
801.516	583.6
801.93	559.2
802.345	554.6
802.76	573.4
803.153	583.2
803.568	586
803.983	582
804.377	571.2
804.792	559.8
805.207	555.8
805.601	563.4
806.016	597.4
806.432	566.2
806.826	605.8
807.242	585.4
807.658	577.4
808.052	571.4
808.468	568.2
808.884	559.8
809.279	566.2
809.695	572.6
810.111	582.6
810.506	573.4
810.922	581.2
811.339	577
811.734	573.6
812.151	567.6
812.546	566.2
812.963	554.8
813.38	573.2
813.776	574
814.193	587
814.589	567.8
815.006	573.6
815.402	568
815.82	562.8
816.237	565.4
816.633	572
817.051	561.4
817.448	570.8
817.866	551.8
818.262	580.4
818.68	566.4
819.077	568.2
819.495	573.8
819.892	607.4
820.311	560.8
820.708	576
821.127	568.4
821.524	582.4
821.943	577.4
822.34	594.6
822.759	566.2
823.157	571.2
823.576	580
823.974	586.6
824.393	618.2
824.791	573
825.189	569.2
825.609	570
826.007	577.6
826.427	562.2
826.826	567.8
827.246	573
827.644	561
828.043	580.4
828.463	576.2
828.862	577.2
829.261	575.6
829.682	559.2
830.081	580.8
830.502	566.4
830.901	577
831.301	581
831.722	563.8
832.121	572.2
832.521	565.8
832.943	565
833.342	574.8
833.742	568.4
834.164	572.8
834.564	563.4
834.965	575.4
835.386	574.4
835.787	570.8
836.188	564.6
836.588	573.2
837.01	577
837.411	560.6
837.812	579
838.213	572.2
838.636	566.6
839.037	630.2
839.438	570.6
839.84	574
840.263	580.4
840.664	573.8
841.066	570.6
841.468	569.8
841.891	571.4
842.293	580.2
842.695	580
843.098	574.8
843.5	564.6
843.902	571.4
844.326	572.4
844.729	571.4
845.131	579.6
845.534	569.8
845.937	581.8
846.34	579
846.764	564.8
847.167	579.4
847.571	556.8
847.974	568.2
848.377	565.4
848.781	613.2
849.184	576.8
849.588	566.4
849.992	572.6
850.396	566.2
850.821	589.6
851.225	566.8
851.63	564
852.034	586.6
852.438	573.6
852.843	636.6
853.247	562.4
853.652	561.6
854.057	583.6
854.462	566.6
854.867	579.8
855.272	598.8
855.677	570.2
856.082	568.6
856.487	564.4
856.893	570.2
