#lambda/nm	C1
208.295	558.8
208.67	497.4
209.045	461.6
209.419	460.6
209.794	595.6
210.169	582.6
210.544	680.8
210.919	602.8
211.295	581.6
211.67	596.2
212.045	586.4
212.421	589
212.796	610.4
213.172	589.8
213.547	591.4
213.923	585
214.299	581
214.675	590.8
215.051	590.8
215.427	597.8
215.803	600.4
216.179	585.4
216.555	586.6
216.932	595.4
217.308	595.8
217.684	594.4
218.061	594.2
218.438	603.4
218.814	582.4
219.191	600.4
219.568	578.6
219.945	588
220.322	588.2
220.699	590.2
221.076	590.4
221.453	593.4
221.83	580.6
222.208	589.2
222.585	590.2
222.962	585.8
223.34	600
223.717	587.4
224.095	583.6
224.473	588
224.851	590.2
225.229	586.6
225.607	603.4
225.985	576.6
226.363	593.2
226.741	594.6
227.119	589.8
227.497	592.8
227.876	581.2
228.254	593.8
228.633	589.8
229.011	582.8
229.39	597.8
229.769	586.4
230.148	600.8
230.527	603
230.905	591
231.284	588.8
231.664	579.2
232.043	592.4
232.422	590.2
232.801	581.8
233.181	600
233.56	594.4
233.94	588.4
234.319	577.2
234.699	580.4
235.079	620.6
235.458	624.4
235.838	599.2
236.218	578
236.598	581
236.978	571.2
237.358	582.2
237.738	585.8
238.119	595.4
238.499	577.8
238.88	584.8
239.26	609
239.641	578
240.021	587.2
240.402	588
240.783	590
241.163	581.8
241.544	590
241.925	593.4
242.306	598.6
242.687	579
243.069	591.2
243.45	591.4
243.831	589.2
244.212	582.4
244.594	619.6
244.975	593.2
245.357	591.2
245.739	585.4
246.12	585
246.502	597.2
246.884	588.4
247.266	583.6
247.648	590.8
248.03	604
248.412	593.4
248.794	588.6
249.176	586.8
249.559	602.8
249.941	581.8
250.323	581
250.706	581.6
251.089	586.6
251.471	587.6
251.854	589.8
252.237	590.4
252.62	589.2
253.002	590.8
253.385	586.4
253.769	598.2
254.152	589.2
254.535	596.2
254.918	575.2
255.301	581.8
255.685	585.6
256.068	583.4
256.452	605.4
256.835	593.8
257.219	592.8
257.603	603.8
257.986	579
258.37	596.4
258.754	578.6
259.138	590
259.522	598
259.906	586.2
260.29	591.2
260.675	587.4
261.059	583.2
261.443	577
261.828	591
262.212	598
262.597	574
262.981	579.2
263.366	585.6
263.751	581.6
264.136	581.8
264.521	580.2
264.906	578.6
265.291	597.4
265.676	576.6
266.061	584.6
266.446	598.2
266.831	583
267.217	598.4
267.602	588
267.987	595.6
268.373	583.6
268.759	588.4
269.144	592
269.53	588.6
269.916	584.6
270.302	587.8
270.688	596.4
271.074	586.4
271.46	597
271.846	610.8
272.232	583
272.618	587.8
273.004	590
273.391	589.6
273.777	598.6
274.164	593
274.55	602.2
274.937	594.8
275.324	588.6
275.71	595.6
276.097	596
276.484	587.8
276.871	593.6
277.258	593.2
277.645	579.8
278.032	585.8
278.419	585.6
278.807	592.8
279.194	578.8
279.581	583.4
279.969	592.6
280.356	599
280.744	589
281.131	607.6
281.519	598.4
281.907	581.6
282.295	590.8
282.682	598.6
283.07	594.6
283.458	602
283.846	600.6
284.235	597
284.623	598.2
285.011	587
285.399	587.6
285.788	586.2
286.176	583.2
286.565	600
286.953	581.4
287.342	582.2
287.731	586
288.119	582.4
288.508	584.8
288.897	584.2
289.286	570.8
289.675	590.2
290.064	601.6
290.453	594
290.821	601
291.21	601.4
291.599	583.2
291.989	582.2
292.378	595.8
292.768	605
293.157	592.4
293.547	585.6
293.936	590.4
294.326	589.2
294.716	583.6
295.106	586.4
295.496	589.4
295.886	594
296.276	589.6
296.666	586.4
297.056	582
297.446	582.2
297.836	599.4
298.227	588.4
298.617	592.4
299.008	603.6
299.398	590
299.789	576.6
300.179	597.2
300.57	601.4
300.961	588.2
301.352	584.6
301.742	596.6
302.133	595.4
302.524	585.6
302.915	589.6
303.307	583.2
303.698	594.6
304.089	589.4
304.48	588
304.872	598.8
305.263	592.2
305.655	589.4
306.046	596.6
306.438	594.2
306.829	585.8
307.221	601
307.613	598
308.005	599.4
308.397	602.2
308.789	606.8
309.181	613.2
309.573	602.6
309.965	603.4
310.357	587.8
310.749	605.8
311.142	577
311.534	585.6
311.926	591.2
312.319	581
312.711	577.4
313.104	602.2
313.497	583.2
313.889	615.6
314.282	596.4
314.675	612.4
315.068	586.2
315.461	589
315.854	616.6
316.247	586.4
316.64	592.8
317.033	584.4
317.405	596
317.798	590.2
318.192	593.4
318.585	584
318.979	590.2
319.372	593.6
319.766	585.6
320.16	596.6
320.553	606.8
320.947	604.2
321.341	593.8
321.735	584.2
322.129	576.2
322.523	621.6
322.917	582.8
323.311	598.8
323.705	593.4
324.099	595.8
324.494	602.8
324.888	598.2
325.282	591
325.677	595.4
326.071	596.2
326.466	599.2
326.861	589.8
327.255	603.8
327.65	591.4
328.045	605.4
328.44	590.6
328.835	588.6
329.23	582.4
329.625	604.6
330.02	591.6
330.415	602
330.81	590.8
331.206	599
331.601	589.6
331.996	596.2
332.37	608.4
332.766	576.4
333.161	604.2
333.557	582.8
333.953	589.6
334.348	893.2
334.744	582.4
335.14	585.4
335.536	592.2
335.932	591.4
336.328	588
336.724	596.2
337.12	588.4
337.516	593.6
337.913	590.6
338.309	597.6
338.705	586.6
339.102	590.4
339.498	587.6
339.895	604.6
340.291	582
340.688	600.4
341.085	583.6
341.481	584
341.878	583.8
342.275	603.8
342.672	583.4
343.069	587
343.466	570.8
343.842	592.2
344.239	576.6
344.636	588.6
345.033	578
345.431	579.4
345.828	590.4
346.225	584.2
346.623	608.6
347.02	587
347.418	591.8
347.816	596.8
348.213	577.6
348.611	582.6
349.009	590.6
349.407	596.8
349.805	580.6
350.203	572.8
350.601	589.4
350.999	580
351.397	640.8
351.795	579.4
352.193	590.4
352.57	585
352.969	582.8
353.367	577
353.766	582.2
354.164	588
354.563	586.4
354.961	587.8
355.36	578
355.759	582
356.158	577.2
356.557	584.6
356.956	576.8
357.355	573.2
357.754	586.2
358.153	591.8
358.552	605
358.951	577.8
359.35	592.8
359.75	582.2
360.149	573
360.527	568
360.926	576.8
361.326	586
361.726	578.8
362.125	578.2
362.525	582
362.925	578
363.325	581.4
363.724	583.2
364.124	576.8
364.524	577
364.924	578.8
365.324	588.8
365.725	575
366.125	578.2
366.525	582
366.904	581.6
367.304	567.6
367.705	597.6
368.105	597
368.506	582.6
368.906	579
369.307	579.6
369.708	593.4
370.108	576.8
370.509	589.2
370.91	584.4
371.311	582.8
371.712	585.2
372.113	581.6
372.514	568.6
372.894	584.2
373.295	577.2
373.696	587.6
374.097	592.4
374.499	604.2
374.9	585.4
375.301	577.6
375.703	585.2
376.105	578.2
376.506	589.6
376.908	584
377.309	579.8
377.711	583
378.113	574.4
378.493	580.2
378.895	580.8
379.297	586.4
379.699	574.4
380.102	585.2
380.504	584
380.906	578
381.308	609.6
381.71	578
382.113	584.6
382.515	580.2
382.918	584.2
383.299	581
383.701	586.2
384.104	585.6
384.507	569.2
384.909	571.4
385.312	568.6
385.715	578.2
386.118	582.2
386.521	573.6
386.924	592.6
387.327	579
387.709	568.4
388.112	568.2
388.515	578.6
388.918	583.2
389.322	595.8
389.725	582
390.129	605
390.532	583
390.936	581.8
391.339	580.4
391.743	586.8
392.125	566.8
392.529	592.6
392.933	594
393.337	585
393.74	579.2
394.144	581
394.548	576.8
394.953	581.2
395.357	588.8
395.761	580.2
396.144	578.2
396.548	576.4
396.952	587
397.357	585.2
397.761	565.8
398.166	579.4
398.57	579.6
398.975	577.2
399.379	578.4
399.763	624
400.168	577.8
400.572	582.2
400.977	582.2
401.382	595.4
401.787	592.4
402.192	589.8
402.597	595.8
403.002	573
403.386	589.6
403.791	588.2
404.197	579
404.602	585.2
405.007	583.8
405.413	579.2
405.818	578.2
406.224	579
406.608	577.6
407.014	583.2
407.42	599
407.825	577
408.231	598.4
408.637	586.8
409.043	588.2
409.449	568
409.834	578.2
410.24	582.2
410.646	581.8
411.052	591.4
411.458	579.8
411.865	599.6
412.271	588.2
412.677	584.2
413.062	588.2
413.469	573.4
413.875	594.6
414.282	585.6
414.689	584.2
415.095	583.6
415.502	575.6
415.888	585.2
416.294	564.6
416.701	613.4
417.108	580.2
417.515	581.4
417.923	581.8
418.33	594.8
418.715	588
419.123	582.6
419.53	586
419.937	577.6
420.345	597.2
420.752	583.4
421.16	591.4
421.546	576
421.953	591
422.361	578.8
422.769	581.6
423.177	576.4
423.585	601.4
423.992	591.8
424.379	589.6
424.787	592.2
425.195	598.8
425.603	585.6
426.011	587.6
426.419	596.4
426.806	580.4
427.214	590.6
427.623	588.4
428.031	602
428.44	587
428.848	598.8
429.235	602.6
429.644	587.4
430.053	596.6
430.461	610.6
430.87	621.2
431.279	611.4
431.666	599
432.075	610
432.484	617.2
432.893	612
433.302	633.2
433.711	650.8
434.099	629.2
434.508	632.6
434.918	635
435.327	651.6
435.737	653
436.125	667.2
436.534	675.8
436.944	672
437.353	686.4
437.763	697.6
438.173	683.8
438.561	694.2
438.971	694.2
439.381	711.4
439.791	713.4
440.201	698.2
440.589	711.8
440.999	726.4
441.409	731.6
441.819	719.2
442.23	739.8
442.619	745.2
443.029	739.2
443.439	732.8
443.85	763.6
444.26	755.4
444.649	758.2
445.06	765.6
445.471	763.6
445.881	769.8
446.292	778.6
446.682	788
447.092	760.4
447.503	811.8
447.914	773
448.325	773.2
448.715	789
449.126	780.8
449.537	780.8
449.948	779.2
450.338	788.2
450.75	795.2
451.161	788.8
451.572	790.6
451.984	790.4
452.374	782.4
452.786	793.4
453.197	787.8
453.609	803.2
453.999	790.8
454.411	788.8
454.823	808.6
455.235	801.8
455.647	792.8
456.037	803.8
456.449	794.2
456.862	805.6
457.274	810.8
457.665	795.8
458.077	800.8
458.489	823.6
458.902	800.2
459.293	805.6
459.705	793.6
460.118	789.4
460.53	803.4
460.921	799.2
461.334	795
461.747	800.8
462.16	818
462.551	810
462.964	815.2
463.377	798.6
463.79	811.6
464.182	825.2
464.595	792.6
465.008	806.8
465.421	813.6
465.813	799.6
466.226	813.2
466.64	812.6
467.053	848.2
467.445	815.8
467.859	825.8
468.272	798.6
468.686	814.6
469.078	800
469.492	793.2
469.906	806.4
470.298	814.4
470.712	799
471.126	843.4
471.54	794.4
471.933	795.4
472.347	803
472.761	803.4
473.175	802
473.568	810.6
473.982	792.8
474.397	804.4
474.79	795.4
475.204	808.4
475.619	792.2
476.033	805.2
476.426	796.8
476.841	792.4
477.256	810
477.649	803.6
478.064	788.4
478.479	787.6
478.872	791.2
479.287	769.8
479.702	782.4
480.118	780.8
480.511	772
480.927	780.4
481.342	775.4
481.736	779.2
482.151	785.6
482.566	775
482.96	773.6
483.376	788.2
483.792	781.2
484.186	779.6
484.602	776.8
485.017	775.8
485.412	766.4
485.827	773.6
486.243	765.6
486.638	784.4
487.054	777.4
487.47	795
487.865	764.4
488.281	763.2
488.697	766.6
489.092	760.4
489.508	757
489.925	771.2
490.32	753.2
490.736	770.8
491.153	767
491.548	762
491.964	763.8
492.381	751
492.776	762.2
493.193	760.2
493.61	747.8
494.006	748.4
494.422	764.4
494.84	741
495.235	749.8
495.652	732.6
496.069	750.6
496.465	726.2
496.883	745.2
497.3	763.8
497.696	738.8
498.113	755
498.509	731.8
498.927	715.8
499.344	735.4
499.741	731.6
500.158	737.6
500.576	734.4
500.973	729.2
501.39	708.8
501.787	714.4
502.205	728.8
502.623	709.6
503.02	716.6
503.438	713.4
503.856	717.8
504.253	718
504.671	714.2
505.068	706.6
505.486	705
505.905	730
506.302	705.4
506.72	716.4
507.118	702.6
507.536	697.8
507.955	700.6
508.352	701.4
508.771	708.8
509.169	699.2
509.587	686
510.006	693.8
510.404	687
510.823	686.6
511.221	698.2
511.64	685
512.038	702
512.457	684.4
512.877	689.8
513.275	685.4
513.694	676.8
514.092	677.6
514.512	688
514.91	697.2
515.33	690.2
515.749	679.8
516.148	688
516.568	677.6
516.966	684.4
517.386	667
517.785	674.2
518.205	668.4
518.603	671
519.024	662.6
519.444	659.8
519.843	681.4
520.263	675.2
520.662	663
521.082	668.2
521.481	666.4
521.902	658.4
522.301	663
522.722	659.4
523.121	665.4
523.542	661.4
523.963	654.6
524.362	658.6
524.783	653.4
525.183	654.2
525.604	655.4
526.003	646.8
526.425	646.4
526.824	654.6
527.246	656.6
527.646	657.8
528.067	643
528.467	653
528.888	653.4
529.289	649.6
529.71	643.2
530.11	644.6
530.532	648
530.932	642.8
531.354	638.2
531.755	669.4
532.176	647.8
532.577	645
532.999	648.8
533.4	632.2
533.822	643.6
534.223	648.6
534.645	639.6
535.046	629.4
535.468	639.2
535.869	643.8
536.292	628.8
536.693	659.8
537.115	626.8
537.516	632.6
537.939	630.2
538.34	638
538.742	639
539.165	628.2
539.566	624.8
539.989	626.8
540.391	625
540.814	635.2
541.216	619.8
541.639	633
542.041	637.8
542.464	620.8
542.866	623.6
543.268	620.4
543.691	627.4
544.093	626.2
544.517	635
544.919	615.4
545.343	635.2
545.745	615.2
546.147	624.2
546.571	620
546.974	603.2
547.398	625
547.8	630.8
548.224	609.2
548.627	616.4
549.03	616.6
549.454	616.6
549.857	607
550.281	605.6
550.684	615.4
551.087	628.8
551.512	620
551.915	624.6
552.34	612.6
552.743	606
553.146	614.2
553.571	616.2
553.975	628.2
554.399	601.2
554.803	644.6
555.207	602.4
555.632	599
556.036	602.2
556.461	603
556.865	610.4
557.268	605.4
557.694	601.6
558.098	614.2
558.502	612
558.927	602
559.332	613.8
559.736	601.4
560.162	620.4
560.566	604.6
560.992	611.8
561.396	614
561.801	600.2
562.227	602.2
562.631	609.4
563.036	601.6
563.462	607.4
563.867	608.8
564.272	590.4
564.698	603.2
565.103	588.4
565.508	610.2
565.935	602.4
566.34	605.4
566.745	605.2
567.172	595.8
567.577	618.2
567.982	596.4
568.409	606
568.815	588.8
569.22	588.4
569.626	602.2
570.053	590.6
570.459	598
570.865	600.2
571.292	604.6
571.698	601.4
572.104	588.6
572.531	596.6
572.937	608
573.343	590.2
573.75	593.6
574.177	599.8
574.583	606
574.99	586.8
575.396	602.8
575.824	585.6
576.231	596.2
576.637	589
577.065	610.8
577.472	588.6
577.879	591
578.286	603.8
578.714	580.2
579.121	587.8
579.528	593.8
579.935	595
580.364	581.2
580.771	586.6
581.178	583.6
581.585	596.4
582.014	590.2
582.421	589
582.829	583.8
583.236	596.8
583.644	575
584.073	588.2
584.481	583.6
584.889	585.4
585.296	588.4
585.726	587.2
586.134	585
586.542	581.6
586.95	599.4
587.358	579.8
587.787	581
588.196	591
588.604	580.2
589.012	577.2
589.421	569.8
589.851	577.4
590.259	589
590.668	579.6
591.076	608
591.485	580.4
591.894	579.2
592.324	594.6
592.733	586
593.142	573.8
593.551	580.2
593.96	601.6
594.369	577.2
594.8	582.8
595.209	583.2
595.618	565.8
596.028	576.8
596.437	565.2
596.847	585.8
597.256	582.2
597.687	584.2
598.097	573
598.507	568.4
598.917	581.6
599.327	578.6
599.736	581.8
600.146	587.8
600.556	577.8
600.988	583.8
601.398	570.2
601.808	592
602.219	569.6
602.629	575.6
603.039	573.4
603.45	599.6
603.86	582.2
604.271	589
604.703	574.4
605.114	578.2
605.525	578
605.935	586
606.346	595.2
606.757	578.2
607.168	574.4
607.579	566.6
607.99	577.6
608.402	572.2
608.813	571.2
609.224	563.6
609.636	562.4
610.047	570.8
610.48	578.4
610.892	574.8
611.303	584
611.715	572
612.127	571.2
612.539	569
612.95	578
613.362	565.4
613.774	560.6
614.186	572.8
614.599	571.8
615.011	583.8
615.423	579.4
615.835	568.8
616.248	566.4
616.66	580.2
617.073	567.4
617.485	571
617.898	578.8
618.311	577.8
618.723	576.6
619.136	600.8
619.549	588.2
619.962	596.4
620.375	573.2
620.788	582.6
621.201	575
621.614	583
622.028	573.8
622.441	586.4
622.854	584
623.268	568
623.681	586.8
624.095	570.2
624.509	594.4
624.922	581.4
625.336	567.8
625.728	581.4
626.142	586.8
626.556	587.2
626.97	588
627.384	575.2
627.799	581.4
628.213	586.2
628.627	574.8
629.041	574.4
629.456	568.8
629.87	580.4
630.285	585.4
630.699	582.4
631.093	573.2
631.507	576.6
631.922	577.2
632.337	594.4
632.752	573.4
633.167	578.6
633.582	575.8
633.997	562
634.412	569.8
634.806	571
635.221	562.6
635.637	580.6
636.052	557.8
636.468	575.2
636.883	593.4
637.299	565.8
637.715	555.8
638.109	571.4
638.525	563.2
638.941	574.6
639.357	564.4
639.773	574.4
640.189	563.6
640.584	571.8
641	569
641.416	559.2
641.832	575.4
642.249	572.2
642.665	569.2
643.06	566.8
643.477	575.8
643.894	565.8
644.31	565.4
644.727	569.4
645.123	569
645.54	569.6
645.957	573.4
646.374	579
646.77	572.2
647.187	594.8
647.604	570.6
648.021	558.8
648.439	565.6
648.835	573.6
649.252	578.8
649.67	564.2
650.088	575.4
650.484	573
650.902	569
651.32	584.6
651.738	577.6
652.134	573.4
652.552	588.2
652.971	575.4
653.389	566.8
653.786	583.2
654.204	589.2
654.622	565
655.019	568.6
655.438	570.6
655.857	571.8
656.275	570.6
656.673	561.4
657.091	578.6
657.51	565.2
657.908	574
658.327	586.4
658.746	563.4
659.144	569
659.563	583.2
659.982	571.4
660.38	565.4
660.8	572.8
661.219	574.6
661.617	572.8
662.037	567.2
662.457	585.2
662.855	560.2
663.275	593
663.695	572.4
664.094	566.2
664.514	577.4
664.934	563.2
665.333	576.4
665.753	561.4
666.152	564
666.572	563.2
666.993	576.4
667.392	563.2
667.812	567.4
668.212	558.6
668.632	569.2
669.053	562.2
669.453	569.6
669.874	578.4
670.273	570.2
670.694	560.6
671.116	573.8
671.515	570.4
671.937	577.8
672.337	567.4
672.758	558.6
673.158	572
673.58	561.4
673.98	573.2
674.402	574.8
674.824	566.6
675.224	560.4
675.646	555.4
676.047	566.2
676.469	568.8
676.869	574.2
677.292	562.8
677.693	566.4
678.115	563.8
678.516	569.2
678.939	570.4
679.34	559.6
679.762	567.8
680.164	568.4
680.586	561.6
680.988	564.4
681.411	584
681.812	562.2
682.236	552
682.637	561.8
683.061	553.6
683.462	563.8
683.864	566.4
684.288	575.6
684.69	562
685.114	575.8
685.516	583.8
685.94	565.2
686.342	571
686.766	559.4
687.168	563.6
687.571	579
687.995	567.6
688.398	554.6
688.822	559.2
689.225	572.6
689.628	584.8
690.052	565.8
690.456	576.6
690.88	564.2
691.284	554.6
691.687	571
692.112	553.6
692.515	558.6
692.919	562.2
693.344	568
693.747	567.2
694.173	561.2
694.577	573.8
694.98	570
695.406	566
695.81	564.2
696.214	565.6
696.64	558.8
697.044	566.4
697.448	572
697.874	563.8
698.279	559.4
698.684	564.4
699.11	559.8
699.514	564.4
699.919	564.2
700.324	552.4
700.75	568.2
701.156	564
701.561	569.6
701.987	573.2
702.393	569.6
702.798	564.6
703.203	558.8
703.63	558.2
704.036	561.4
704.442	566.8
704.847	545.4
705.274	566.6
705.68	562.4
706.086	570.8
706.492	551.4
706.92	556.8
707.326	569
707.732	558.2
708.139	554.4
708.545	546.4
708.973	556.2
709.38	566.2
709.786	549.2
710.193	576.6
710.6	564.6
711.028	553.8
711.435	567
711.842	562.8
712.249	557.6
712.656	564.2
713.064	571.2
713.492	554.8
713.9	559
714.307	561.6
714.715	560.8
715.123	558.8
715.53	566.2
715.938	571.2
716.367	556.8
716.775	563.8
717.184	558.2
717.592	557.4
718	569.4
718.408	585
718.816	592.6
719.225	569
719.633	567.4
720.042	556
720.472	559.8
720.881	573.4
721.29	569.4
721.699	559.8
722.108	565.8
722.517	563.6
722.926	568
723.335	570.8
723.744	562
724.154	563.6
724.563	560.8
724.973	559.2
725.382	570.2
725.792	568.2
726.202	554
726.612	580.2
727.022	561.2
727.432	567
779.813	560.2
780.223	599.2
780.634	552.6
781.044	553.4
781.454	565.2
781.865	572
782.276	556.8
782.686	566
783.097	556.4
783.508	554.2
783.919	567.4
784.33	570.8
784.741	577
785.152	557
785.563	556.4
785.974	555
786.386	564
786.776	558.2
787.188	557.4
787.599	552.6
788.011	566.8
788.423	564
788.835	548.4
789.247	548.6
789.659	554
790.071	552.2
790.483	593.2
790.874	553.8
791.286	566.2
791.699	557.4
792.111	560.2
792.524	557.2
792.937	560.6
793.349	557.8
793.741	554.8
794.154	562.8
794.567	574.8
794.98	562.8
795.393	555.6
795.785	562.4
796.198	556
796.612	562.6
797.026	559.2
797.439	556
797.831	571.6
798.245	547.6
798.659	559.2
799.073	555.4
799.487	557.8
799.88	562.8
800.294	556.2
800.708	564.6
801.123	563.6
801.516	574.6
801.93	555.2
802.345	549.6
802.76	571
803.153	571.8
803.568	571.2
803.983	567.4
804.377	560.8
804.792	550.2
805.207	548.2
805.601	564.2
806.016	587.4
806.432	551.6
806.826	592.6
807.242	572
807.658	562
808.052	565.2
808.468	557.4
808.884	553
809.279	565.6
809.695	579.2
810.111	576.6
810.506	563.8
810.922	576.8
811.339	561.2
811.734	563.2
812.151	556.8
812.546	564.6
812.963	555.8
813.38	570.6
813.776	568.6
814.193	581.2
814.589	553.4
815.006	556.6
815.402	554.2
815.82	554.2
816.237	559.2
816.633	560.2
817.051	553
817.448	559.6
817.866	550.6
818.262	577.4
818.68	554.8
819.077	553.2
819.495	568.6
819.892	592.6
820.311	559.6
820.708	564
821.127	553.4
821.524	570.2
821.943	567.2
822.34	583.4
822.759	563
823.157	555
823.576	572.4
823.974	567.8
824.393	577.4
824.791	559.4
825.189	555.8
825.609	560.2
826.007	558.2
826.427	558.4
826.826	561.4
827.246	552.2
827.644	555.2
828.043	559.8
828.463	558
828.862	571.2
829.261	566.8
829.682	550.8
830.081	563.4
830.502	560
830.901	572.2
831.301	571.8
831.722	549.6
832.121	562.4
832.521	561.4
832.943	556.8
833.342	562
833.742	558
834.164	558.6
834.564	554.2
834.965	558
835.386	551.2
835.787	556.4
836.188	562.6
836.588	554
837.01	560
837.411	550.8
837.812	563.2
838.213	561.6
838.636	558
839.037	606.8
839.438	555.8
839.84	565.4
840.263	568.8
840.664	566
841.066	565.2
841.468	562.2
841.891	553.6
842.293	570.8
842.695	557.6
843.098	568
843.5	556
843.902	562.8
844.326	569
844.729	558.6
845.131	573
845.534	562.6
845.937	564.4
846.34	577.2
846.764	554.6
847.167	566.2
847.571	557.2
847.974	551
848.377	556
848.781	595.8
849.184	563
849.588	556
849.992	558
850.396	558.6
850.821	573.8
851.225	552.6
851.63	549.8
852.034	565
852.438	550.2
852.843	624.2
853.247	545.6
853.652	553.2
854.057	572.6
854.462	558
854.867	560.2
855.272	573.4
