#lambda/nm	C1
208.295	540.6
208.67	482.6
209.045	446.4
209.419	439.4
209.794	608.2
210.169	595.6
210.544	706.6
210.919	617.6
211.295	603.6
211.67	614
212.045	606.6
212.421	603.4
212.796	647.8
213.172	598.2
213.547	603.6
213.923	606.8
214.299	605.4
214.675	612
215.051	610
215.427	609.4
215.803	623.6
216.179	623.2
216.555	604.2
216.932	611.4
217.308	604.8
217.684	610.6
218.061	615.6
218.438	612.8
218.814	594.8
219.191	613.4
219.568	607.8
219.945	603
220.322	609.4
220.699	620.4
221.076	612.8
221.453	609
221.83	597.8
222.208	594.6
222.585	607
222.962	610
223.34	604.8
223.717	609.8
224.095	601
224.473	612.8
224.851	605.8
225.229	597.6
225.607	627.6
225.985	603
226.363	609.2
226.741	613.4
227.119	605
227.497	619.2
227.876	588.2
228.254	616.8
228.633	622
229.011	605.6
229.39	603.4
229.769	607.4
230.148	612.6
230.527	626.4
230.905	607
231.284	613
231.664	596.4
232.043	621.8
232.422	614.8
232.801	603
233.181	609.6
233.56	606.2
233.94	606.8
234.319	593.8
234.699	604.6
235.079	642.8
235.458	638.6
235.838	629.6
236.218	601
236.598	597
236.978	603.8
237.358	610
237.738	604.2
238.119	616.4
238.499	587.2
238.88	608.4
239.26	614.8
239.641	599.2
240.021	602.6
240.402	611.8
240.783	600.6
241.163	608
241.544	608.6
241.925	610.4
242.306	617.6
242.687	609.6
243.069	611
243.45	617.2
243.831	603
244.212	603
244.594	631.2
244.975	624.6
245.357	611
245.739	606.4
246.12	609.2
246.502	623.8
246.884	599.2
247.266	602.8
247.648	608
248.03	632.2
248.412	610
248.794	614.8
249.176	607.2
249.559	613.6
249.941	599.8
250.323	601.8
250.706	602.4
251.089	605.4
251.471	605.6
251.854	601.6
252.237	609.4
252.62	620.8
253.002	607
253.385	606
253.769	617.6
254.152	613.8
254.535	614.6
254.918	597.4
255.301	598.6
255.685	607.4
256.068	604.6
256.452	635.4
256.835	626.4
257.219	616.2
257.603	616.6
257.986	602.2
258.37	619.4
258.754	599.6
259.138	613
259.522	619.6
259.906	616.8
260.29	601.2
260.675	608.4
261.059	608.8
261.443	599.2
261.828	613.8
262.212	611
262.597	605
262.981	605.2
263.366	609.2
263.751	612.8
264.136	599.2
264.521	602
264.906	599.8
265.291	615
265.676	603.4
266.061	613.6
266.446	617.2
266.831	601.6
267.217	628
267.602	610.2
267.987	617
268.373	603.2
268.759	621
269.144	612
269.53	611.2
269.916	599.6
270.302	604
270.688	612.2
271.074	607.4
271.46	608.8
271.846	640
272.232	613.4
272.618	597.2
273.004	603
273.391	624.6
273.777	613.6
274.164	613.6
274.55	622.6
274.937	618
275.324	598.6
275.71	610.4
276.097	618
276.484	600.8
276.871	616.4
277.258	611.4
277.645	590.2
278.032	610.2
278.419	607
278.807	617
279.194	608.6
279.581	601.2
279.969	614.8
280.356	607.8
280.744	612.4
281.131	633.8
281.519	617.6
281.907	601.6
282.295	604.6
282.682	616
283.07	612.6
283.458	617.2
283.846	615
284.235	616.8
284.623	611.6
285.011	605.2
285.399	616.4
285.788	611.8
286.176	595.6
286.565	617
286.953	603
287.342	611
287.731	594.4
288.119	606.6
288.508	601.8
288.897	605.8
289.286	598.2
289.675	600.4
290.064	623.6
290.453	607.4
290.821	608
291.21	615.4
291.599	605.8
291.989	618.6
292.378	617
292.768	624.6
293.157	609.8
293.547	606
293.936	606.4
294.326	604.4
294.716	609.8
295.106	605
295.496	613.8
295.886	612.4
296.276	605.4
296.666	605
297.056	599.8
297.446	600.8
297.836	623.6
298.227	606.4
298.617	609
299.008	614.8
299.398	607
299.789	603.2
300.179	609.8
300.57	624.2
300.961	604.2
301.352	593.2
301.742	622.6
302.133	610.8
302.524	610
302.915	608
303.307	592.2
303.698	623.6
304.089	612.6
304.48	606.4
304.872	616.2
305.263	601.2
305.655	604.6
306.046	613.6
306.438	613.4
306.829	599.2
307.221	619.6
307.613	615.8
308.005	621.8
308.397	620.8
308.789	634.4
309.181	634.2
309.573	626.2
309.965	632.6
310.357	609.4
310.749	622
311.142	605.6
311.534	604.4
311.926	608
312.319	608.6
312.711	600.6
313.104	619.2
313.497	603.2
313.889	647.8
314.282	625.6
314.675	634.6
315.068	613.4
315.461	618.6
315.854	644.2
316.247	606.6
316.64	600.8
317.033	613.6
317.405	611.8
317.798	605.2
318.192	613
318.585	604.6
318.979	618.2
319.372	603.6
319.766	609
320.16	612.6
320.553	622.2
320.947	629.6
321.341	608.6
321.735	618
322.129	602.4
322.523	630.8
322.917	602.6
323.311	619.2
323.705	606.8
324.099	613.4
324.494	623
324.888	620.6
325.282	605.8
325.677	612.8
326.071	613
326.466	622.4
326.861	615.8
327.255	619.8
327.65	624.8
328.045	627
328.44	612.6
328.835	602.4
329.23	599.6
329.625	631.6
330.02	596.6
330.415	623.2
330.81	608
331.206	608.8
331.601	606.2
331.996	617
332.37	621.8
332.766	597.2
333.161	629.2
333.557	602.2
333.953	611.2
334.348	878.6
334.744	604.4
335.14	605.4
335.536	604
335.932	617.2
336.328	614.4
336.724	619
337.12	608
337.516	611.8
337.913	603
338.309	618.6
338.705	613
339.102	612.6
339.498	609.4
339.895	622
340.291	603.8
340.688	612.8
341.085	598
341.481	608.4
341.878	609.6
342.275	626.6
342.672	591.8
343.069	603.4
343.466	598.4
343.842	613.6
344.239	602.6
344.636	608.2
345.033	604.6
345.431	606.4
345.828	608.8
346.225	600.8
346.623	630.4
347.02	605.6
347.418	611.2
347.816	619.2
348.213	603.8
348.611	608.4
349.009	604.4
349.407	621.6
349.805	589.4
350.203	592.4
350.601	619.6
350.999	598.2
351.397	661.8
351.795	610.8
352.193	617.4
352.57	620
352.969	610.6
353.367	608
353.766	595.6
354.164	606
354.563	611.2
354.961	601
355.36	605.8
355.759	605.4
356.158	602.4
356.557	601.4
356.956	593.4
357.355	606.4
357.754	603.8
358.153	609.2
358.552	629
358.951	599.4
359.35	619.2
359.75	601.6
360.149	596.6
360.527	588.6
360.926	597.4
361.326	599.8
361.726	598.4
362.125	596.2
362.525	611.4
362.925	605
363.325	605.8
363.724	601.4
364.124	598
364.524	596
364.924	608.6
365.324	610.8
365.725	591.2
366.125	602.2
366.525	594.8
366.904	597.4
367.304	591.8
367.705	619.4
368.105	623.2
368.506	605.2
368.906	603.8
369.307	603.4
369.708	615.8
370.108	592.4
370.509	605.2
370.91	599.8
371.311	605.4
371.712	613.6
372.113	600.6
372.514	586.4
372.894	597.4
373.295	599.6
373.696	619
374.097	608.2
374.499	633.4
374.9	605.8
375.301	597.6
375.703	602.6
376.105	596.2
376.506	603.4
376.908	606.2
377.309	604.2
377.711	602.2
378.113	598
378.493	603.4
378.895	602.6
379.297	605.2
379.699	593.2
380.102	611.2
380.504	601.2
380.906	593.6
381.308	621.2
381.71	599.6
382.113	605
382.515	599.4
382.918	605.8
383.299	593
383.701	606.6
384.104	602.4
384.507	583.6
384.909	593.6
385.312	581.8
385.715	592.8
386.118	593.6
386.521	591.4
386.924	609.6
387.327	596.2
387.709	592.4
388.112	577.6
388.515	597
388.918	604.4
389.322	598.4
389.725	596.4
390.129	617.4
390.532	605.2
390.936	595.4
391.339	593.8
391.743	598.8
392.125	595.8
392.529	611.4
392.933	605.6
393.337	593.8
393.74	601.2
394.144	598.6
394.548	591.4
394.953	587.6
395.357	597.6
395.761	599.6
396.144	594.8
396.548	598
396.952	605
397.357	606.4
397.761	595.2
398.166	600.4
398.57	611.6
398.975	590.6
399.379	603.2
399.763	646.6
400.168	600
400.572	595.4
400.977	605.6
401.382	621.2
401.787	609.2
402.192	615.4
402.597	616.2
403.002	587.4
403.386	607.4
403.791	622
404.197	599
404.602	604.6
405.007	599
405.413	593.6
405.818	601.2
406.224	595.2
406.608	601
407.014	587.6
407.42	624
407.825	602.4
408.231	612.4
408.637	599.6
409.043	616.2
409.449	604.8
409.834	599.6
410.24	605.6
410.646	607.6
411.052	611.2
411.458	602.4
411.865	612.6
412.271	613
412.677	595.8
413.062	609.2
413.469	587.6
413.875	618.4
414.282	620
414.689	602.8
415.095	602
415.502	602
415.888	600.2
416.294	583.6
416.701	639.4
417.108	596
417.515	618.8
417.923	597.4
418.33	621
418.715	614.8
419.123	601.4
419.53	599.6
419.937	605.4
420.345	613.4
420.752	601.4
421.16	617
421.546	595.6
421.953	609
422.361	594
422.769	600.2
423.177	597.2
423.585	629.6
423.992	615
424.379	604.8
424.787	618
425.195	616.6
425.603	603.8
426.011	607
426.419	620.4
426.806	606
427.214	604.8
427.623	618.6
428.031	618
428.44	609.8
428.848	617.2
429.235	618.8
429.644	612.4
430.053	614.4
430.461	629.4
430.87	638.2
431.279	632
431.666	616.8
432.075	628.4
432.484	645.8
432.893	644
433.302	661
433.711	689
434.099	657.8
434.508	663.4
434.918	662.6
435.327	685.4
435.737	697.2
436.125	689.6
436.534	701.6
436.944	716
437.353	714.8
437.763	734
438.173	724.6
438.561	736
438.971	717.8
439.381	746.8
439.791	746
440.201	738.6
440.589	770.8
440.999	774.4
441.409	787.2
441.819	769
442.23	795.4
442.619	796.2
443.029	805
443.439	807.2
443.85	818.6
444.26	820.8
444.649	824.2
445.06	829.8
445.471	816.8
445.881	824.2
446.292	857.4
446.682	864
447.092	832.8
447.503	891.6
447.914	852.8
448.325	846.8
448.715	855.2
449.126	852.8
449.537	848.6
449.948	855.8
450.338	874.2
450.75	873.6
451.161	848
451.572	868.8
451.984	871.4
452.374	859.2
452.786	868.8
453.197	865.2
453.609	874.8
453.999	861
454.411	857.6
454.823	895.4
455.235	879
455.647	867.6
456.037	883.8
456.449	864.4
456.862	877
457.274	877
457.665	868.6
458.077	871.8
458.489	905.2
458.902	870.8
459.293	873.2
459.705	876.2
460.118	872.6
460.53	880.6
460.921	876.8
461.334	870.8
461.747	877.6
462.16	885.6
462.551	892
462.964	881
463.377	875.8
463.79	888.2
464.182	894.8
464.595	880.4
465.008	880.8
465.421	882.8
465.813	879
466.226	878.4
466.64	878.2
467.053	923.2
467.445	890.6
467.859	902
468.272	900
468.686	898
469.078	885.6
469.492	879.8
469.906	890.6
470.298	897
470.712	883.2
471.126	921
471.54	868.2
471.933	866.8
472.347	873.8
472.761	867.8
473.175	868.4
473.568	884.4
473.982	865.6
474.397	884
474.79	869.8
475.204	874.8
475.619	864.8
476.033	866.4
476.426	868
476.841	857.6
477.256	885.8
477.649	864.4
478.064	860.6
478.479	863.2
478.872	858.4
479.287	840.4
479.702	855.2
480.118	840
480.511	854.4
480.927	846
481.342	853.8
481.736	853.8
482.151	838.2
482.566	862
482.96	856.6
483.376	854
483.792	835.6
484.186	850.2
484.602	838.4
485.017	844.4
485.412	844
485.827	844.6
486.243	824.6
486.638	845.8
487.054	836
487.47	853
487.865	818.6
488.281	824.8
488.697	826.4
489.092	821
489.508	816.2
489.925	837.4
490.32	808.4
490.736	827.8
491.153	825
491.548	818
491.964	824.2
492.381	804.4
492.776	816.2
493.193	802.4
493.61	821.4
494.006	813.2
494.422	812.6
494.84	799.2
495.235	811.4
495.652	805.4
496.069	796
496.465	781.4
496.883	799.6
497.3	820.2
497.696	792.4
498.113	801.6
498.509	780
498.927	770.4
499.344	783.8
499.741	787.6
500.158	790.6
500.576	791.2
500.973	783.8
501.39	776
501.787	768
502.205	774
502.623	770.8
503.02	758.4
503.438	760.6
503.856	777.4
504.253	769
504.671	763.8
505.068	767.8
505.486	765.8
505.905	780.8
506.302	761
506.72	768.6
507.118	749.8
507.536	749.4
507.955	747.2
508.352	746.2
508.771	750.8
509.169	750.6
509.587	740.8
510.006	746.6
510.404	729.2
510.823	739.2
511.221	734.8
511.64	725.6
512.038	743
512.457	729
512.877	734.2
513.275	718.8
513.694	716.6
514.092	720.8
514.512	739.8
514.91	729
515.33	719.8
515.749	726.2
516.148	731
516.568	720.8
516.966	714.2
517.386	722.4
517.785	714.4
518.205	709.4
518.603	703.2
519.024	703
519.444	714.8
519.843	717.8
520.263	716.8
520.662	717.4
521.082	706.2
521.481	701.2
521.902	702.6
522.301	706.8
522.722	703
523.121	703.8
523.542	695
523.963	690.2
524.362	696.2
524.783	700.6
525.183	686.2
525.604	692.8
526.003	684.2
526.425	681.6
526.824	691.8
527.246	695
527.646	685.2
528.067	689.8
528.467	686.4
528.888	685.8
529.289	681.6
529.71	685.6
530.11	678.2
530.532	678.2
530.932	676
531.354	659.4
531.755	709.4
532.176	687.2
532.577	676.8
532.999	677.4
533.4	668.8
533.822	681.2
534.223	678.4
534.645	664.2
535.046	661.2
535.468	662.8
535.869	672.8
536.292	666.4
536.693	703.8
537.115	675.4
537.516	658.4
537.939	660.8
538.34	676.2
538.742	668.2
539.165	652.8
539.566	657.6
539.989	650.8
540.391	657.6
540.814	657.6
541.216	653.8
541.639	661.2
542.041	667.4
542.464	658.8
542.866	656.4
543.268	652.8
543.691	657.6
544.093	660.4
544.517	664.6
544.919	652
545.343	674
545.745	656.6
546.147	661.4
546.571	645.2
546.974	641.8
547.398	647.4
547.8	661
548.224	651.6
548.627	641.4
549.03	652.8
549.454	642.8
549.857	642.2
550.281	640.6
550.684	640
551.087	649.2
551.512	641.2
551.915	653
552.34	644.4
552.743	632.2
553.146	645.8
553.571	635.4
553.975	657
554.399	627.6
554.803	680
555.207	626.4
555.632	625
556.036	643.2
556.461	626.2
556.865	641.4
557.268	633.4
557.694	632.4
558.098	640.2
558.502	640.2
558.927	628.2
559.332	630.4
559.736	634.6
560.162	637
560.566	621.4
560.992	634.8
561.396	645.2
561.801	622
562.227	627.8
562.631	632.2
563.036	619.2
563.462	638.8
563.867	629.4
564.272	613.6
564.698	632.6
565.103	620.8
565.508	635.4
565.935	620.6
566.34	620.2
566.745	633.6
567.172	612.2
567.577	635.8
567.982	639.8
568.409	634.2
568.815	618.2
569.22	625.2
569.626	628.2
570.053	602.2
570.459	621.2
570.865	620.8
571.292	618.8
571.698	622
572.104	613.2
572.531	617.8
572.937	626
573.343	623
573.75	612
574.177	624.8
574.583	615.2
574.99	607.4
575.396	614.6
575.824	609.4
576.231	622.6
576.637	604.4
577.065	631.6
577.472	619.6
577.879	619.6
578.286	622.8
578.714	608.2
579.121	603.4
579.528	614.8
579.935	614.2
580.364	613.8
580.771	600.4
581.178	597.8
581.585	613
582.014	615.4
582.421	606.2
582.829	600.2
583.236	614.8
583.644	601.8
584.073	601
584.481	593.8
584.889	601
585.296	605
585.726	596.2
586.134	602
586.542	597.6
586.95	621.8
587.358	598.2
587.787	608
588.196	612.6
588.604	605.8
589.012	615.4
589.421	598
589.851	597.4
590.259	607.2
590.668	594.2
591.076	640.2
591.485	594.2
591.894	600.2
592.324	614.6
592.733	610.8
593.142	594.8
593.551	594
593.96	631.6
594.369	583.8
594.8	590.8
595.209	600.8
595.618	586.8
596.028	593
596.437	586.8
596.847	596
597.256	600.6
597.687	604.6
598.097	598.6
598.507	591.2
598.917	603.2
599.327	602.8
599.736	603.2
600.146	613.8
600.556	596.6
600.988	610
601.398	599.2
601.808	613
602.219	591.8
602.629	603.6
603.039	602.6
603.45	616.6
603.86	591.4
604.271	616
604.703	598
605.114	592.8
605.525	600.6
605.935	607
606.346	618.2
606.757	600.6
607.168	597.2
607.579	593
607.99	602.4
608.402	596.6
608.813	597.8
609.224	590.2
609.636	587.4
610.047	586
610.48	594.8
610.892	599.8
611.303	604.8
611.715	598.2
612.127	594
612.539	590
612.95	597.4
613.362	583.4
613.774	586.6
614.186	585.4
614.599	591.2
615.011	602.8
615.423	597.2
615.835	592.8
616.248	590.2
616.66	603.4
617.073	590.8
617.485	588.4
617.898	595.2
618.311	586.8
618.723	588.6
619.136	614.6
619.549	610.6
619.962	602
620.375	583.2
620.788	590.4
621.201	587.2
621.614	597.4
622.028	587.4
622.441	600.2
622.854	611.6
623.268	587.4
623.681	584.2
624.095	580.4
624.509	603.8
624.922	590.8
625.336	578.4
625.728	588.4
626.142	610.6
626.556	614.6
626.97	597.4
627.384	593.4
627.799	592
628.213	590.2
628.627	587.6
629.041	590.8
629.456	592.4
629.87	593.4
630.285	594.6
630.699	603.2
631.093	587.8
631.507	592.4
631.922	591.6
632.337	599.2
632.752	582
633.167	588.8
633.582	577.8
633.997	585.8
634.412	580
634.806	585.2
635.221	581.6
635.637	597.8
636.052	579.8
636.468	585.6
636.883	602.2
637.299	590.6
637.715	576.4
638.109	594.8
638.525	580.4
638.941	596.4
639.357	588.8
639.773	601.8
640.189	589.2
640.584	586.2
641	588.6
641.416	579.4
641.832	589.6
642.249	581.6
642.665	581.4
643.06	592
643.477	603.8
643.894	576.4
644.31	593.6
644.727	589.4
645.123	596.2
645.54	577.2
645.957	586.8
646.374	600.2
646.77	592
647.187	622.2
647.604	583.6
648.021	575.4
648.439	579.2
648.835	588.6
649.252	589.4
649.67	585.2
650.088	583.4
650.484	591.6
650.902	588.6
651.32	589.4
651.738	583
652.134	589.8
652.552	611
652.971	593
653.389	581.2
653.786	597
654.204	608.6
654.622	581.2
655.019	591
655.438	584.8
655.857	583.6
656.275	593.8
656.673	576.8
657.091	586
657.51	579.4
657.908	589.6
658.327	604
658.746	570.6
659.144	582.6
659.563	594
659.982	587
660.38	581.4
660.8	589.2
661.219	597.4
661.617	591.2
662.037	591.2
662.457	602.6
662.855	576
663.275	610.4
663.695	584.2
664.094	584.6
664.514	588
664.934	581.2
665.333	590
665.753	577.6
666.152	588.6
666.572	577
666.993	598.6
667.392	578.4
667.812	582.4
668.212	578.8
668.632	588.4
669.053	578
669.453	595.4
669.874	587.6
670.273	592.6
670.694	579
671.116	599.2
671.515	593.2
671.937	589.6
672.337	577.6
672.758	584.6
673.158	581
673.58	578.6
673.98	586.8
674.402	596
674.824	586.8
675.224	577.4
675.646	577.4
676.047	578.2
676.469	586
676.869	587.6
677.292	584.2
677.693	580
678.115	582.2
678.516	579.6
678.939	589
679.34	586.2
679.762	591
680.164	588.4
680.586	574.8
680.988	585.6
681.411	604.4
681.812	584
682.236	573.4
682.637	583
683.061	569.4
683.462	589.4
683.864	581.4
684.288	580.8
684.69	577.8
685.114	590.2
685.516	598.8
685.94	582.2
686.342	594.8
686.766	569.6
687.168	582.2
687.571	608.2
687.995	589
688.398	580.2
688.822	589.4
689.225	604.8
689.628	600
690.052	577.8
690.456	591.8
690.88	588.6
691.284	576.6
691.687	584.6
692.112	570
692.515	573
692.919	592.6
693.344	585.6
693.747	572.4
694.173	577.8
694.577	597.8
694.98	579.8
695.406	580.6
695.81	580.4
696.214	590
696.64	579.8
697.044	586.4
697.448	583.6
697.874	582
698.279	585.2
698.684	577.2
699.11	577
699.514	582
699.919	582.4
700.324	575.2
700.75	588.6
701.156	583.2
701.561	585.2
701.987	581.8
702.393	590.8
702.798	592.4
703.203	579
703.63	583.2
704.036	579.2
704.442	579.2
704.847	582.8
705.274	578.4
705.68	587.8
706.086	585
706.492	562.6
706.92	571.6
707.326	585.4
707.732	573.8
708.139	565.2
708.545	568.8
708.973	577
709.38	584.4
709.786	569
710.193	599.6
710.6	583.4
711.028	574.8
711.435	568.2
711.842	578
712.249	574.8
712.656	570.4
713.064	588
713.492	566.2
713.9	571.2
714.307	590.2
714.715	579.8
715.123	582.2
715.53	576.6
715.938	588.8
716.367	579.2
716.775	579.6
717.184	567.8
717.592	578.6
718	587.2
718.408	608.6
718.816	616.2
719.225	582.8
719.633	584.6
720.042	578.8
720.472	580.4
720.881	592.6
721.29	578
721.699	567.4
722.108	588.8
722.517	582.4
722.926	577.2
723.335	595.2
723.744	582.2
724.154	581.2
724.563	584.4
724.973	581.4
725.382	584.8
725.792	579
726.202	576.8
726.612	605.6
727.022	574.2
727.432	579.2
779.813	579.2
780.223	614
780.634	581.6
781.044	569
781.454	583.2
781.865	586.4
782.276	566
782.686	585.2
783.097	574.4
783.508	576.2
783.919	584.8
784.33	589.2
784.741	588.4
785.152	578.8
785.563	560.2
785.974	580.4
786.386	580
786.776	581.4
787.188	576
787.599	567.6
788.011	578
788.423	576
788.835	571.8
789.247	570.2
789.659	580.4
790.071	577
790.483	619.2
790.874	583.8
791.286	584.2
791.699	580.8
792.111	575
792.524	580.2
792.937	580.4
793.349	576.4
793.741	579.8
794.154	576
794.567	601.8
794.98	582
795.393	568.2
795.785	585.4
796.198	577.2
796.612	577.2
797.026	576.6
797.439	555.2
797.831	575
798.245	571.4
798.659	574.2
799.073	581.6
799.487	570.2
799.88	582.6
800.294	575.4
800.708	583.8
801.123	576.6
801.516	589.4
801.93	564
802.345	564.4
802.76	578.2
803.153	587.8
803.568	588.4
803.983	586.6
804.377	580.4
804.792	573.4
805.207	573.8
805.601	570.6
806.016	609
806.432	575
806.826	600.4
807.242	580.8
807.658	588
808.052	576.2
808.468	574.8
808.884	579.2
809.279	581.6
809.695	581.8
810.111	606.4
810.506	580.4
810.922	598.4
811.339	562.4
811.734	589.4
812.151	573
812.546	571.8
812.963	568.6
813.38	589
813.776	585.2
814.193	602
814.589	573.4
815.006	571.6
815.402	569
815.82	576.8
816.237	575.2
816.633	576.6
817.051	571.2
817.448	577
817.866	570.6
818.262	589.6
818.68	575.6
819.077	569.6
819.495	581.4
819.892	612.4
820.311	567
820.708	576.4
821.127	567.6
821.524	586.8
821.943	581.2
822.34	590
822.759	581
823.157	576.8
823.576	590.2
823.974	580
824.393	616.6
824.791	567
825.189	574.2
825.609	579.4
826.007	573
826.427	558.8
826.826	578.2
827.246	575
827.644	567.4
828.043	578.6
828.463	562.8
828.862	580.2
829.261	572.8
829.682	568.2
830.081	577.8
830.502	575.2
830.901	578.4
831.301	593.4
831.722	563.2
832.121	574.2
832.521	572
832.943	580.2
833.342	573.4
833.742	569.4
834.164	576.4
834.564	578.6
834.965	581.4
835.386	577
835.787	575.8
836.188	576
836.588	576.6
837.01	582.2
837.411	572
837.812	581.8
838.213	579.4
838.636	572.6
839.037	645.6
839.438	578
839.84	585.4
840.263	582.2
840.664	581.6
841.066	573.6
841.468	578.4
841.891	577.2
842.293	581.2
842.695	582.4
843.098	585.4
843.5	574.8
843.902	579.4
844.326	582.8
844.729	579
845.131	595
845.534	582.6
845.937	586.6
846.34	589.6
846.764	578.6
847.167	581.4
847.571	579
847.974	586
848.377	579.8
848.781	621.2
849.184	593.6
849.588	576.6
849.992	567.2
850.396	580.8
850.821	593.2
851.225	576.8
851.63	572
852.034	592
852.438	568.8
852.843	595.6
853.247	567.6
853.652	566.2
854.057	591.4
854.462	581.6
854.867	587
855.272	605
855.677	576.6
