#lambda/nm	C1
208.295	577.6
208.67	507.8
209.045	472
209.419	466.8
209.794	587.6
210.169	564.4
210.544	657
210.919	586.2
211.295	573.4
211.67	580
212.045	570.8
212.421	565.8
212.796	606.2
213.172	575.8
213.547	575.2
213.923	576.4
214.299	577.6
214.675	579
215.051	581.6
215.427	590
215.803	595.2
216.179	584
216.555	574.6
216.932	583
217.308	580.4
217.684	588.8
218.061	584.4
218.438	576.8
218.814	577.4
219.191	585.2
219.568	576.4
219.945	577.6
220.322	581.4
220.699	583
221.076	583
221.453	583.4
221.83	573.6
222.208	571.2
222.585	572.8
222.962	576.2
223.34	578.2
223.717	579.2
224.095	573.4
224.473	583.2
224.851	569.6
225.229	581
225.607	586.2
225.985	566.6
226.363	575.2
226.741	577.8
227.119	575.6
227.497	589
227.876	571.2
228.254	584
228.633	587.2
229.011	580.4
229.39	578
229.769	576.8
230.148	582.4
230.527	593.4
230.905	578.8
231.284	580.2
231.664	575.2
232.043	593.4
232.422	587.6
232.801	566.2
233.181	575.2
233.56	578.2
233.94	565.8
234.319	565.2
234.699	573.2
235.079	609
235.458	606.4
235.838	588.2
236.218	568.8
236.598	571
236.978	569.4
237.358	572.8
237.738	571.4
238.119	580
238.499	572.8
238.88	571.8
239.26	587.2
239.641	572.6
240.021	576.6
240.402	578.6
240.783	575
241.163	578.2
241.544	582.8
241.925	570.2
242.306	586.8
242.687	575.6
243.069	575.2
243.45	580
243.831	568.2
244.212	572.8
244.594	600.6
244.975	574.6
245.357	579.4
245.739	568.8
246.12	577.2
246.502	589
246.884	572.4
247.266	572.8
247.648	583.8
248.03	595.4
248.412	579.2
248.794	580.2
249.176	573
249.559	581
249.941	569.6
250.323	573
250.706	568.6
251.089	573.2
251.471	574.2
251.854	572.8
252.237	572.6
252.62	582.6
253.002	579.2
253.385	581.2
253.769	585.4
254.152	579.6
254.535	584.8
254.918	569.4
255.301	571.6
255.685	576.8
256.068	571
256.452	589.4
256.835	584.8
257.219	585.8
257.603	579.4
257.986	565.4
258.37	576
258.754	565.2
259.138	580.4
259.522	582.8
259.906	574.6
260.29	573.4
260.675	567.2
261.059	576.4
261.443	559.4
261.828	572.2
262.212	581.2
262.597	564
262.981	564.8
263.366	570.6
263.751	577
264.136	573
264.521	567.4
264.906	571.4
265.291	579.4
265.676	569
266.061	578.8
266.446	582.2
266.831	571.6
267.217	581.6
267.602	571.6
267.987	586.4
268.373	574.4
268.759	587.8
269.144	582.6
269.53	577.6
269.916	570.2
270.302	563.4
270.688	581.2
271.074	583.2
271.46	589
271.846	605.4
272.232	575
272.618	573.4
273.004	570.8
273.391	578.2
273.777	586.2
274.164	578.4
274.55	584.4
274.937	574
275.324	579
275.71	571.2
276.097	571.8
276.484	563
276.871	568
277.258	578
277.645	565.6
278.032	572
278.419	578.8
278.807	575.4
279.194	571.4
279.581	568.4
279.969	580.8
280.356	580
280.744	573
281.131	597.6
281.519	585.2
281.907	573.6
282.295	573.2
282.682	585.8
283.07	577.4
283.458	586.4
283.846	583.8
284.235	586.2
284.623	581.2
285.011	566.6
285.399	574.8
285.788	572.2
286.176	569.8
286.565	577.2
286.953	574.8
287.342	574
287.731	564.4
288.119	576.4
288.508	575.2
288.897	569.6
289.286	565.6
289.675	570.2
290.064	579.4
290.453	575.2
290.821	576.2
291.21	587.2
291.599	569.4
291.989	575.8
292.378	579.6
292.768	588.4
293.157	576
293.547	578.2
293.936	579.8
294.326	575.8
294.716	582
295.106	576.8
295.496	582.2
295.886	581.8
296.276	575.8
296.666	568.8
297.056	569.4
297.446	570.2
297.836	589.2
298.227	575
298.617	578.2
299.008	592
299.398	578.6
299.789	574.4
300.179	580.2
300.57	590.8
300.961	580.2
301.352	575.4
301.742	581.6
302.133	579.8
302.524	577.4
302.915	581
303.307	570
303.698	589.4
304.089	577.6
304.48	573
304.872	585.8
305.263	578
305.655	572.4
306.046	574.4
306.438	581
306.829	571.2
307.221	582.4
307.613	582.6
308.005	579.8
308.397	587
308.789	595.6
309.181	601.8
309.573	587.6
309.965	586.4
310.357	573
310.749	587.8
311.142	569.4
311.534	573.6
311.926	584.2
312.319	580
312.711	571.4
313.104	584.6
313.497	572.6
313.889	607.6
314.282	584.2
314.675	598
315.068	574.6
315.461	585.2
315.854	598.8
316.247	580
316.64	577.4
317.033	582.4
317.405	586.4
317.798	579.6
318.192	582.2
318.585	573.8
318.979	580.2
319.372	570.8
319.766	577.8
320.16	581.8
320.553	584.6
320.947	587
321.341	572.2
321.735	579.6
322.129	567.2
322.523	598.6
322.917	572
323.311	583.6
323.705	578.6
324.099	585
324.494	591
324.888	584
325.282	573
325.677	581.8
326.071	580.4
326.466	585.6
326.861	581.8
327.255	582
327.65	586.6
328.045	589.8
328.44	579.4
328.835	575.2
329.23	571.4
329.625	591.6
330.02	567
330.415	601.2
330.81	577.2
331.206	583
331.601	572.2
331.996	585.4
332.37	595
332.766	573.2
333.161	595.8
333.557	575.6
333.953	573.6
334.348	781.2
334.744	586.4
335.14	575.2
335.536	575.4
335.932	585.2
336.328	578.2
336.724	579.6
337.12	573
337.516	582.8
337.913	574.8
338.309	596
338.705	578.4
339.102	576
339.498	574.8
339.895	583.8
340.291	574.8
340.688	582.2
341.085	572
341.481	565.2
341.878	571.4
342.275	588
342.672	571
343.069	567
343.466	563.2
343.842	581.4
344.239	565.4
344.636	564
345.033	565.8
345.431	568.4
345.828	569.8
346.225	569.2
346.623	603.4
347.02	576
347.418	579.4
347.816	588.8
348.213	561
348.611	576.2
349.009	568.2
349.407	587.2
349.805	572.6
350.203	566.6
350.601	584.6
350.999	569.4
351.397	614.2
351.795	579
352.193	586.8
352.57	583.2
352.969	579
353.367	562.2
353.766	567.8
354.164	572
354.563	581.2
354.961	575.2
355.36	568
355.759	571
356.158	564.4
356.557	564.6
356.956	561
357.355	564.8
357.754	575.6
358.153	580.4
358.552	589.6
358.951	574.6
359.35	571.6
359.75	568.8
360.149	569.2
360.527	560.2
360.926	561.2
361.326	570.8
361.726	564
362.125	566.4
362.525	574.8
362.925	563
363.325	570.8
363.724	569
364.124	561.8
364.524	567.6
364.924	565.4
365.324	570.4
365.725	559.8
366.125	573.8
366.525	567
366.904	560.6
367.304	559
367.705	585.4
368.105	577.6
368.506	575.4
368.906	573.4
369.307	566
369.708	568.6
370.108	559.6
370.509	574.6
370.91	566.2
371.311	570.2
371.712	569.6
372.113	574.4
372.514	561.2
372.894	567.4
373.295	569.2
373.696	574.4
374.097	574.8
374.499	592.2
374.9	570.4
375.301	561.6
375.703	565.2
376.105	564.4
376.506	569.2
376.908	572.4
377.309	569.6
377.711	571.8
378.113	569.8
378.493	569.6
378.895	566.6
379.297	570.6
379.699	566.2
380.102	562.4
380.504	569
380.906	562.4
381.308	589.6
381.71	572.6
382.113	579.4
382.515	568.6
382.918	567
383.299	571.4
383.701	576.4
384.104	574.6
384.507	552.8
384.909	568.6
385.312	559.8
385.715	561.8
386.118	565.4
386.521	561.8
386.924	584.4
387.327	567.2
387.709	553.6
388.112	556.4
388.515	571
388.918	564.8
389.322	574.6
389.725	566.2
390.129	588.2
390.532	577
390.936	568.2
391.339	565
391.743	571.2
392.125	561.2
392.529	573.4
392.933	574.8
393.337	568.8
393.74	566.8
394.144	575.6
394.548	564.2
394.953	572
395.357	580
395.761	565.8
396.144	568.2
396.548	570.8
396.952	572.8
397.357	576
397.761	565.2
398.166	562.6
398.57	574
398.975	563.6
399.379	570
399.763	607.8
400.168	565.6
400.572	566.2
400.977	566.8
401.382	581.2
401.787	576.2
402.192	580
402.597	575.4
403.002	555
403.386	585.2
403.791	582.2
404.197	557.2
404.602	575.2
405.007	564.8
405.413	566.8
405.818	563.8
406.224	566.8
406.608	567.4
407.014	567.2
407.42	584.2
407.825	570.2
408.231	568.4
408.637	564.6
409.043	577
409.449	558.2
409.834	568.6
410.24	570.6
410.646	576.8
411.052	573.4
411.458	568
411.865	575.4
412.271	576.6
412.677	567.2
413.062	575.8
413.469	561.4
413.875	584
414.282	570
414.689	577.6
415.095	577.8
415.502	569
415.888	574
416.294	557.6
416.701	608
417.108	566.4
417.515	567.8
417.923	571.8
418.33	582
418.715	573
419.123	572.4
419.53	567.2
419.937	568.8
420.345	580.4
420.752	572
421.16	582.6
421.546	568.6
421.953	575
422.361	564
422.769	575.4
423.177	563.6
423.585	580.4
423.992	580.6
424.379	577.2
424.787	576
425.195	578.4
425.603	570.4
426.011	585.6
426.419	579.4
426.806	573.6
427.214	573
427.623	583.4
428.031	584.4
428.44	574.6
428.848	582.2
429.235	594.4
429.644	576.6
430.053	577.2
430.461	590.6
430.87	597.4
431.279	590.8
431.666	586.2
432.075	595.8
432.484	602
432.893	593.2
433.302	615.2
433.711	631.8
434.099	614.2
434.508	610
434.918	618.4
435.327	635
435.737	638.6
436.125	642.2
436.534	646.6
436.944	652.8
437.353	664.8
437.763	670.4
438.173	657
438.561	670
438.971	666.2
439.381	680.2
439.791	680.4
440.201	682
440.589	694.8
440.999	700
441.409	706.2
441.819	708.6
442.23	725
442.619	724.6
443.029	723.6
443.439	727.4
443.85	745.8
444.26	737
444.649	745.8
445.06	748.8
445.471	744.6
445.881	745.6
446.292	758
446.682	771
447.092	748.2
447.503	799.2
447.914	763.8
448.325	762.2
448.715	762
449.126	762.8
449.537	767.2
449.948	774.2
450.338	772.6
450.75	787.6
451.161	776.4
451.572	778.4
451.984	758.2
452.374	766.4
452.786	769.4
453.197	771
453.609	777.6
453.999	767.6
454.411	766.4
454.823	777.6
455.235	784.2
455.647	771
456.037	778.4
456.449	763.4
456.862	772.8
457.274	771.6
457.665	768.2
458.077	777.2
458.489	806.6
458.902	783.6
459.293	779
459.705	776.8
460.118	780.4
460.53	769
460.921	775.6
461.334	796.2
461.747	787
462.16	780.4
462.551	789
462.964	782.8
463.377	783.2
463.79	775.2
464.182	790.6
464.595	786
465.008	782.2
465.421	784.8
465.813	782.8
466.226	792.2
466.64	784.2
467.053	820.2
467.445	787.4
467.859	796.4
468.272	788.8
468.686	784.2
469.078	781
469.492	773.4
469.906	786.6
470.298	791.4
470.712	768.8
471.126	795.8
471.54	771.2
471.933	775.6
472.347	773.6
472.761	780.8
473.175	768.8
473.568	775.8
473.982	766.6
474.397	781.2
474.79	779.8
475.204	774.8
475.619	770.2
476.033	772.4
476.426	780.6
476.841	767.8
477.256	795.8
477.649	773.4
478.064	773.2
478.479	761.6
478.872	768.2
479.287	754.4
479.702	761.6
480.118	765.2
480.511	755
480.927	770
481.342	758.2
481.736	767
482.151	756
482.566	770.4
482.96	758
483.376	769.6
483.792	741.6
484.186	767.2
484.602	753.8
485.017	755.4
485.412	751.4
485.827	753.2
486.243	755
486.638	760.8
487.054	752.2
487.47	768.6
487.865	749.2
488.281	748.4
488.697	743
489.092	738.8
489.508	738
489.925	747.4
490.32	741.8
490.736	748.8
491.153	742.8
491.548	739
491.964	737.2
492.381	734.8
492.776	728.2
493.193	733.2
493.61	745.8
494.006	727.8
494.422	739
494.84	726.4
495.235	721.8
495.652	718
496.069	722
496.465	709.8
496.883	729.4
497.3	744.2
497.696	713.8
498.113	729.6
498.509	718.6
498.927	707.8
499.344	706.4
499.741	704.8
500.158	715.4
500.576	721.4
500.973	717
501.39	707.6
501.787	701.8
502.205	701.8
502.623	699.8
503.02	689.8
503.438	703
503.856	693.6
504.253	689.8
504.671	692.2
505.068	693.8
505.486	690.6
505.905	701.4
506.302	697.4
506.72	688.6
507.118	682.8
507.536	685.8
507.955	690.4
508.352	679.8
508.771	675.6
509.169	683.8
509.587	682.2
510.006	687.6
510.404	670.6
510.823	673
511.221	678.8
511.64	674.8
512.038	688.6
512.457	684.6
512.877	672.6
513.275	668.8
513.694	669
514.092	667
514.512	676.6
514.91	670
515.33	674.2
515.749	670.8
516.148	670.6
516.568	673.4
516.966	666.6
517.386	663
517.785	667
518.205	658.8
518.603	659.8
519.024	646.8
519.444	660.2
519.843	664
520.263	655.6
520.662	664.6
521.082	660.8
521.481	650.6
521.902	657.6
522.301	649.6
522.722	654.8
523.121	647.2
523.542	645.4
523.963	643.2
524.362	649.4
524.783	657.6
525.183	644.6
525.604	643.8
526.003	640.2
526.425	633.4
526.824	639.4
527.246	647.6
527.646	647.8
528.067	636.8
528.467	635.8
528.888	646.8
529.289	633
529.71	633.2
530.11	628.2
530.532	633.4
530.932	630
531.354	621.2
531.755	654.8
532.176	636.6
532.577	630.6
532.999	629.6
533.4	626
533.822	631.6
534.223	629.2
534.645	618.4
535.046	616.8
535.468	631
535.869	630.8
536.292	620.8
536.693	653.6
537.115	628.4
537.516	621
537.939	614.8
538.34	634
538.742	631
539.165	628
539.566	621.2
539.989	615.2
540.391	615.2
540.814	623.4
541.216	611.2
541.639	618.4
542.041	624.8
542.464	616.2
542.866	610.8
543.268	605.4
543.691	616.2
544.093	613.2
544.517	627
544.919	605.4
545.343	623.8
545.745	613
546.147	614
546.571	611.6
546.974	603.2
547.398	615.8
547.8	619.6
548.224	606
548.627	600.8
549.03	605.4
549.454	608
549.857	595
550.281	598.2
550.684	596
551.087	608.4
551.512	597.4
551.915	606.6
552.34	597.2
552.743	591
553.146	597.8
553.571	597.2
553.975	602.8
554.399	591.2
554.803	629
555.207	597
555.632	579
556.036	596.2
556.461	584.6
556.865	595.6
557.268	587.6
557.694	587.2
558.098	599.6
558.502	601.2
558.927	594.8
559.332	598.4
559.736	593.6
560.162	590.6
560.566	593.4
560.992	602.6
561.396	589.6
561.801	587.8
562.227	590.6
562.631	593.2
563.036	599
563.462	595.8
563.867	588
564.272	582.2
564.698	594.4
565.103	584.4
565.508	608.4
565.935	591.6
566.34	577.8
566.745	590
567.172	590.2
567.577	600.4
567.982	589.2
568.409	587.2
568.815	578.8
569.22	576.6
569.626	593.4
570.053	573
570.459	575.8
570.865	589.2
571.292	584.2
571.698	593.6
572.104	573.4
572.531	579.4
572.937	585.2
573.343	585.4
573.75	576.2
574.177	586.8
574.583	579.4
574.99	583.6
575.396	592.6
575.824	584.2
576.231	583.8
576.637	576.4
577.065	596
577.472	575
577.879	578.2
578.286	590.2
578.714	575.8
579.121	574.8
579.528	580.6
579.935	587.6
580.364	580.2
580.771	568.4
581.178	573
581.585	579.2
582.014	581.2
582.421	566
582.829	576.8
583.236	584.4
583.644	574.2
584.073	576
584.481	574
584.889	570.2
585.296	575
585.726	574.4
586.134	566.4
586.542	570.4
586.95	581.6
587.358	564.8
587.787	575.8
588.196	575
588.604	574
589.012	572.2
589.421	566.8
589.851	563.2
590.259	576.6
590.668	566.2
591.076	600.2
591.485	567
591.894	575.2
592.324	581
592.733	590.2
593.142	569.4
593.551	571
593.96	602.6
594.369	567.2
594.8	568.6
595.209	580
595.618	558.8
596.028	571.2
596.437	568.4
596.847	578.6
597.256	579.4
597.687	580.6
598.097	573.8
598.507	570.2
598.917	572.8
599.327	572.2
599.736	577
600.146	583.2
600.556	575.2
600.988	591
601.398	568.4
601.808	579.6
602.219	567.2
602.629	575.2
603.039	573.8
603.45	597.6
603.86	579.2
604.271	585
604.703	576.6
605.114	575.8
605.525	575
605.935	581.2
606.346	586.6
606.757	579.4
607.168	572.6
607.579	576.6
607.99	588.2
608.402	577
608.813	587.6
609.224	573.8
609.636	564.6
610.047	570.8
610.48	572.2
610.892	577
611.303	590
611.715	577.8
612.127	563.2
612.539	570.6
612.95	573.8
613.362	572.2
613.774	566.6
614.186	570.8
614.599	570
615.011	580.4
615.423	577.4
615.835	568.6
616.248	570.2
616.66	582
617.073	571.4
617.485	582.6
617.898	578.4
618.311	579.8
618.723	574.6
619.136	591.2
619.549	585.8
619.962	592.8
620.375	576.4
620.788	578.4
621.201	574.6
621.614	578.4
622.028	568.4
622.441	573.8
622.854	589.8
623.268	567
623.681	582.6
624.095	574.4
624.509	578.8
624.922	581.4
625.336	570
625.728	577.8
626.142	586.2
626.556	589.6
626.97	573.8
627.384	573
627.799	572.2
628.213	581
628.627	573.4
629.041	569.8
629.456	576.6
629.87	570.4
630.285	590.2
630.699	577
631.093	575.6
631.507	574
631.922	576.4
632.337	575.6
632.752	567.4
633.167	569.8
633.582	566
633.997	567.8
634.412	569
634.806	571.6
635.221	566
635.637	583.4
636.052	562.2
636.468	579.2
636.883	590.6
637.299	571
637.715	560
638.109	569.8
638.525	566.4
638.941	579
639.357	574.8
639.773	570.8
640.189	566
640.584	571
641	573.4
641.416	560.4
641.832	571.2
642.249	570.6
642.665	575
643.06	579.4
643.477	578.4
643.894	561.4
644.31	562.4
644.727	567.6
645.123	563.2
645.54	564.8
645.957	574
646.374	573.6
646.77	562.8
647.187	586.2
647.604	569.8
648.021	556.2
648.439	569
648.835	561.6
649.252	566.4
649.67	553.6
650.088	553.8
650.484	558.4
650.902	563
651.32	570.4
651.738	561.8
652.134	567
652.552	575.4
652.971	563.4
653.389	563.4
653.786	563
654.204	578.4
654.622	552.4
655.019	561.2
655.438	568.8
655.857	560
656.275	557.8
656.673	556.4
657.091	562.8
657.51	563.2
657.908	565.2
658.327	568.2
658.746	552
659.144	558.8
659.563	568
659.982	571.6
660.38	563.8
660.8	562.6
661.219	574.8
661.617	572.4
662.037	571.8
662.457	576.8
662.855	555.8
663.275	582.2
663.695	563.2
664.094	555
664.514	561.4
664.934	560.4
665.333	564.6
665.753	553.2
666.152	553
666.572	552.8
666.993	571.2
667.392	558.2
667.812	558
668.212	563
668.632	568.4
669.053	557.6
669.453	563.4
669.874	557.4
670.273	569
670.694	553.8
671.116	570.2
671.515	563.8
671.937	564.8
672.337	558.4
672.758	559.2
673.158	567.8
673.58	556.2
673.98	563.6
674.402	571.2
674.824	563
675.224	558.8
675.646	548.6
676.047	557
676.469	560.4
676.869	557
677.292	559
677.693	551.6
678.115	552.4
678.516	568.2
678.939	562
679.34	559.8
679.762	570
680.164	561.8
680.586	553
680.988	565.2
681.411	577.2
681.812	561.4
682.236	555
682.637	548
683.061	556.2
683.462	558.8
683.864	550
684.288	569
684.69	552
685.114	564.8
685.516	565.2
685.94	551.2
686.342	564.2
686.766	553.8
687.168	551.4
687.571	568.8
687.995	554.2
688.398	552.2
688.822	563
689.225	568
689.628	572.4
690.052	557
690.456	565
690.88	561.8
691.284	548.2
691.687	558
692.112	544
692.515	552
692.919	563.8
693.344	561
693.747	554.6
694.173	552.2
694.577	563
694.98	553.8
695.406	553.2
695.81	561
696.214	561
696.64	555.8
697.044	554.4
697.448	561.8
697.874	549.2
698.279	553.4
698.684	550.6
699.11	549
699.514	552.4
699.919	550.6
700.324	545.6
700.75	555.4
701.156	556.6
701.561	572.4
701.987	562.4
702.393	559.6
702.798	563.2
703.203	554.8
703.63	549.6
704.036	555.4
704.442	557
704.847	548.8
705.274	550
705.68	557.2
706.086	570.8
706.492	545
706.92	550.6
707.326	566
707.732	546.2
708.139	552.6
708.545	546.4
708.973	544.4
709.38	557.8
709.786	546.8
710.193	560
710.6	554.4
711.028	548.6
711.435	552.8
711.842	561.8
712.249	551.8
712.656	552.2
713.064	564.6
713.492	547.4
713.9	543.8
714.307	557.8
714.715	552.8
715.123	549.8
715.53	556.2
715.938	558
716.367	555
716.775	553
717.184	550
717.592	546.2
718	563.2
718.408	581.8
718.816	584.8
719.225	557.2
719.633	550.4
720.042	547.6
720.472	556.6
720.881	572.8
721.29	553
721.699	546.8
722.108	549.6
722.517	550
722.926	554.2
723.335	556.6
723.744	555.4
724.154	554.6
724.563	558.2
724.973	559.6
725.382	560.8
725.792	547
726.202	545.2
726.612	570.2
727.022	548.6
727.432	545.2
779.813	553
780.223	584.2
780.634	547.4
781.044	546.8
781.454	552.4
781.865	558.6
782.276	546.4
782.686	554.6
783.097	555.4
783.508	551.2
783.919	548
784.33	555.4
784.741	552
785.152	553
785.563	545.2
785.974	546.4
786.386	558.6
786.776	554.4
787.188	548.6
787.599	544.6
788.011	557
788.423	551.6
788.835	547.4
789.247	547.6
789.659	551.2
790.071	539
790.483	580.4
790.874	546.2
791.286	558.6
791.699	550.6
792.111	550.6
792.524	553.6
792.937	552.8
793.349	540.2
793.741	545.6
794.154	541
794.567	568
794.98	540.6
795.393	541.8
795.785	557.2
796.198	542.8
796.612	549.6
797.026	540.8
797.439	535.2
797.831	542.6
798.245	541.6
798.659	546.6
799.073	538.4
799.487	538.8
799.88	552.2
800.294	546.2
800.708	553.4
801.123	541.6
801.516	557.4
801.93	538.4
802.345	532.8
802.76	542.6
803.153	548.8
803.568	551.4
803.983	555.4
804.377	545.2
804.792	546.2
805.207	539
805.601	547.2
806.016	566.2
806.432	540.4
806.826	568.4
807.242	558.4
807.658	545.2
808.052	548.4
808.468	539.6
808.884	540.4
809.279	543
809.695	553
810.111	563.8
810.506	554.8
810.922	561.2
811.339	549.4
811.734	548
812.151	548.8
812.546	545
812.963	551.4
813.38	550
813.776	546.2
814.193	555.6
814.589	547
815.006	546.4
815.402	548.8
815.82	535.6
816.237	539.4
816.633	548
817.051	538.8
817.448	547.2
817.866	538.2
818.262	561.2
818.68	545
819.077	544.8
819.495	542.8
819.892	577.8
820.311	548.2
820.708	540.6
821.127	550.8
821.524	555.8
821.943	549.6
822.34	566.6
822.759	550.6
823.157	543.4
823.576	556
823.974	552
824.393	567.6
824.791	543.2
825.189	544
825.609	545.6
826.007	540.4
826.427	534.8
826.826	550.6
827.246	552
827.644	537.8
828.043	552.2
828.463	543.6
828.862	553.4
829.261	547.6
829.682	541.2
830.081	555.2
830.502	546.4
830.901	555.4
831.301	563.4
831.722	545.8
832.121	549.4
832.521	543.8
832.943	544.2
833.342	547.6
833.742	539.2
834.164	544.2
834.564	538.2
834.965	545.6
835.386	544.4
835.787	549.6
836.188	546.2
836.588	549
837.01	550.4
837.411	542.4
837.812	544.8
838.213	549.2
838.636	543.2
839.037	596
839.438	546.4
839.84	547.6
840.263	557.8
840.664	547.6
841.066	544.8
841.468	554
841.891	542.6
842.293	556
842.695	558.2
843.098	559
843.5	542.4
843.902	553.8
844.326	546.8
844.729	552
845.131	555.4
845.534	551
845.937	557.4
846.34	554
846.764	545.2
847.167	551.2
847.571	548.2
847.974	552.4
848.377	548.4
848.781	584
849.184	547
849.588	553.6
849.992	541
850.396	547
850.821	557
851.225	544.2
851.63	544.2
852.034	556.2
852.438	546
852.843	569.2
853.247	544.6
853.652	543
854.057	568.2
854.462	546.6
854.867	547.8
855.272	562.4
855.677	553.2
856.082	542.8
856.487	539
856.893	547.2
