#lambda/nm	C1
208.295	546.6
208.67	487.4
209.045	453.6
209.419	453.4
209.794	599.8
210.169	583.8
210.544	690.4
210.919	603.2
211.295	590
211.67	597.6
212.045	595.6
212.421	588.6
212.796	620.6
213.172	596.6
213.547	592.2
213.923	596.2
214.299	596.8
214.675	606.8
215.051	596.2
215.427	605.4
215.803	613.6
216.179	594.8
216.555	592.4
216.932	599.8
217.308	600.8
217.684	598.4
218.061	601.8
218.438	593.2
218.814	580.6
219.191	592.2
219.568	586.2
219.945	588.4
220.322	597
220.699	589
221.076	598.6
221.453	593.2
221.83	582.6
222.208	593.6
222.585	586.2
222.962	591.6
223.34	600.4
223.717	597.4
224.095	588
224.473	594
224.851	590.8
225.229	592.8
225.607	607.4
225.985	586.8
226.363	595
226.741	591.4
227.119	586.8
227.497	600
227.876	588.8
228.254	598
228.633	603.2
229.011	591.2
229.39	596
229.769	595.2
230.148	593.6
230.527	611.2
230.905	592
231.284	593.8
231.664	595
232.043	602.4
232.422	593.6
232.801	580
233.181	597.4
233.56	594
233.94	590.4
234.319	587.2
234.699	594.2
235.079	626.6
235.458	621.4
235.838	612.4
236.218	586.6
236.598	587.4
236.978	591.6
237.358	590.2
237.738	592.8
238.119	606
238.499	587.8
238.88	596.2
239.26	604.2
239.641	593.8
240.021	600
240.402	595.8
240.783	594.8
241.163	596.6
241.544	595.2
241.925	604.4
242.306	607
242.687	597.8
243.069	593.6
243.45	607.6
243.831	590.6
244.212	589.8
244.594	621.2
244.975	596.6
245.357	596.6
245.739	591
246.12	587
246.502	606.2
246.884	596.4
247.266	601.2
247.648	596.8
248.03	614.8
248.412	597.8
248.794	609
249.176	593.4
249.559	605
249.941	583
250.323	591.8
250.706	590.6
251.089	597.8
251.471	593.8
251.854	591
252.237	599
252.62	604.8
253.002	591
253.385	598.6
253.769	607.6
254.152	590.4
254.535	599.6
254.918	591.6
255.301	599.6
255.685	588.8
256.068	591
256.452	617.6
256.835	604.4
257.219	600.4
257.603	602.6
257.986	587.4
258.37	600.2
258.754	580.8
259.138	597.2
259.522	603.2
259.906	592.8
260.29	590.4
260.675	590.2
261.059	595.2
261.443	589.2
261.828	593.4
262.212	599.6
262.597	583.8
262.981	587.8
263.366	602.2
263.751	602.8
264.136	585.2
264.521	594.4
264.906	587.4
265.291	597.8
265.676	589.4
266.061	590.8
266.446	614.2
266.831	590.6
267.217	614.4
267.602	597.8
267.987	590.6
268.373	592.2
268.759	604.6
269.144	602.8
269.53	588.4
269.916	594.4
270.302	597
270.688	612.4
271.074	591.6
271.46	599
271.846	620.2
272.232	597.2
272.618	589.2
273.004	589.8
273.391	611.8
273.777	606.6
274.164	598.8
274.55	606
274.937	597.8
275.324	598
275.71	602.6
276.097	600.2
276.484	589.8
276.871	602
277.258	599.8
277.645	584.8
278.032	589.6
278.419	599
278.807	597.6
279.194	586.8
279.581	585.4
279.969	602
280.356	602.2
280.744	597.6
281.131	621
281.519	594
281.907	591
282.295	592
282.682	609
283.07	602.6
283.458	611.4
283.846	609
284.235	602.8
284.623	602.4
285.011	584.2
285.399	596.8
285.788	590.8
286.176	587.4
286.565	598.2
286.953	589.2
287.342	595.8
287.731	588.8
288.119	594
288.508	598.4
288.897	591.4
289.286	584.2
289.675	591
290.064	606.8
290.453	598
290.821	593.6
291.21	614
291.599	592.2
291.989	588.2
292.378	598.8
292.768	613
293.157	601.4
293.547	601.8
293.936	587
294.326	597.8
294.716	594.2
295.106	591.4
295.496	597.8
295.886	603.2
296.276	598
296.666	592.6
297.056	590.6
297.446	587.2
297.836	609
298.227	593.4
298.617	600.4
299.008	607.6
299.398	586.8
299.789	595
300.179	604
300.57	607.4
300.961	596.2
301.352	583.8
301.742	596.2
302.133	596.8
302.524	595.8
302.915	595.2
303.307	594.2
303.698	606
304.089	600.4
304.48	594.4
304.872	599.4
305.263	595.6
305.655	594.8
306.046	597.6
306.438	598.6
306.829	584.4
307.221	605.6
307.613	600
308.005	604.4
308.397	616.6
308.789	611.4
309.181	615.4
309.573	623.2
309.965	605.2
310.357	581.4
310.749	606
311.142	594
311.534	592
311.926	597.4
312.319	596.6
312.711	587
313.104	606
313.497	595
313.889	629.6
314.282	604
314.675	616
315.068	603
315.461	603.6
315.854	621.2
316.247	592
316.64	601
317.033	584.4
317.405	597.8
317.798	586.8
318.192	597.2
318.585	592.4
318.979	603.2
319.372	585.4
319.766	598.2
320.16	599
320.553	612.2
320.947	603.4
321.341	591
321.735	589.4
322.129	586.6
322.523	613.6
322.917	586
323.311	602.8
323.705	589
324.099	598.4
324.494	598.6
324.888	598.4
325.282	598.4
325.677	600.6
326.071	602.2
326.466	610.6
326.861	601.8
327.255	611
327.65	604.2
328.045	614
328.44	602.8
328.835	601.6
329.23	589.4
329.625	608.6
330.02	586
330.415	610.6
330.81	603
331.206	598.2
331.601	589.2
331.996	602.2
332.37	612.8
332.766	588.4
333.161	612.4
333.557	595.4
333.953	591.8
334.348	834
334.744	594.4
335.14	585
335.536	590
335.932	606
336.328	600.6
336.724	600.8
337.12	600
337.516	595.4
337.913	595.2
338.309	614
338.705	590.2
339.102	604.2
339.498	591
339.895	609
340.291	594.8
340.688	605.4
341.085	588.4
341.481	592.4
341.878	594.4
342.275	614.2
342.672	592
343.069	598.6
343.466	588.6
343.842	599.2
344.239	590.2
344.636	591.8
345.033	597.4
345.431	587.8
345.828	604.2
346.225	586.6
346.623	627
347.02	594.8
347.418	591.8
347.816	605.2
348.213	581.8
348.611	590.2
349.009	586
349.407	599.2
349.805	581
350.203	587
350.601	605
350.999	589.2
351.397	634
351.795	592.4
352.193	606.2
352.57	605.4
352.969	596.8
353.367	589.4
353.766	593.4
354.164	593
354.563	608.6
354.961	590
355.36	589.2
355.759	595.6
356.158	586.4
356.557	591.2
356.956	583
357.355	585.4
357.754	584.4
358.153	590.8
358.552	614.2
358.951	591.4
359.35	604
359.75	591.4
360.149	584.2
360.527	571.8
360.926	579.6
361.326	595.4
361.726	591.6
362.125	581
362.525	594.4
362.925	588.8
363.325	591.8
363.724	584.6
364.124	587.4
364.524	586.8
364.924	587.4
365.324	595.4
365.725	573.8
366.125	592.6
366.525	590.2
366.904	583
367.304	574.6
367.705	600
368.105	610.2
368.506	586.2
368.906	584.8
369.307	591.8
369.708	593.8
370.108	580
370.509	601
370.91	581.2
371.311	596.8
371.712	597.6
372.113	588.4
372.514	579.6
372.894	593
373.295	587
373.696	594.6
374.097	592.4
374.499	614
374.9	590.2
375.301	583.2
375.703	587.6
376.105	584
376.506	591.6
376.908	594
377.309	582.6
377.711	593.8
378.113	586
378.493	589.6
378.895	584.4
379.297	596.2
379.699	578.8
380.102	586
380.504	587.2
380.906	588.4
381.308	606.8
381.71	590.2
382.113	590.2
382.515	592.6
382.918	594
383.299	585.2
383.701	596.8
384.104	584.4
384.507	572.4
384.909	583.8
385.312	575.4
385.715	578.8
386.118	586.4
386.521	575.2
386.924	605
387.327	582.2
387.709	576.6
388.112	579
388.515	584
388.918	583.2
389.322	591.8
389.725	586.8
390.129	606.6
390.532	590.6
390.936	588.6
391.339	581.2
391.743	599
392.125	580.6
392.529	593
392.933	597.2
393.337	588.8
393.74	585.4
394.144	590.2
394.548	580.2
394.953	586.6
395.357	582.2
395.761	587.6
396.144	582.2
396.548	585.2
396.952	587.4
397.357	595.2
397.761	575.2
398.166	585.6
398.57	585.4
398.975	587.8
399.379	592.6
399.763	634.6
400.168	586
400.572	579.2
400.977	588.8
401.382	602.8
401.787	594
402.192	608.4
402.597	598.4
403.002	578.6
403.386	599.8
403.791	603.2
404.197	577.4
404.602	583.4
405.007	587.4
405.413	587.6
405.818	585.4
406.224	581.4
406.608	583.2
407.014	582.2
407.42	603
407.825	584.6
408.231	596.2
408.637	594.4
409.043	598.4
409.449	589.2
409.834	574
410.24	586.6
410.646	593.8
411.052	592.6
411.458	589.6
411.865	595.8
412.271	598.4
412.677	592.4
413.062	583.8
413.469	574
413.875	611
414.282	593.8
414.689	587.6
415.095	587.6
415.502	579.8
415.888	585.8
416.294	578.2
416.701	619
417.108	588.2
417.515	598.2
417.923	589.2
418.33	598.6
418.715	591.4
419.123	584.4
419.53	587.6
419.937	597.2
420.345	598.2
420.752	580.6
421.16	600.6
421.546	585.8
421.953	596.8
422.361	588
422.769	589.6
423.177	584.2
423.585	612
423.992	609.6
424.379	600.2
424.787	596.2
425.195	604.4
425.603	595.4
426.011	604
426.419	595.6
426.806	590
427.214	588.8
427.623	601.8
428.031	606.4
428.44	594.8
428.848	596.4
429.235	609.4
429.644	588.4
430.053	590.8
430.461	601.6
430.87	622.8
431.279	589.8
431.666	591.2
432.075	593.2
432.484	595.4
432.893	578.4
433.302	602.4
433.711	632
434.099	598.4
434.508	587.2
434.918	585
435.327	605.8
435.737	596
436.125	588.2
436.534	593.8
436.944	599.2
437.353	589.2
437.763	608.8
438.173	572
438.561	597
438.971	568.8
439.381	581
439.791	590.6
440.201	573.2
440.589	596
440.999	594.2
441.409	591.8
441.819	581.2
442.23	596.6
442.619	596
443.029	584
443.439	589.4
443.85	601.2
444.26	599.6
444.649	594
445.06	590.4
445.471	587
445.881	589
446.292	599.6
446.682	607.4
447.092	582
447.503	630.6
447.914	587.6
448.325	591.8
448.715	582.4
449.126	588.4
449.537	581.2
449.948	576
450.338	590.4
450.75	595
451.161	594.4
451.572	593.4
451.984	583.8
452.374	577.2
452.786	582.4
453.197	589.2
453.609	591.6
453.999	576.6
454.411	577
454.823	593.4
455.235	592.8
455.647	586.4
456.037	587.6
456.449	571.2
456.862	580.2
457.274	584.8
457.665	582.8
458.077	584.8
458.489	605.4
458.902	581.8
459.293	585.2
459.705	576.6
460.118	575.2
460.53	585.4
460.921	587.4
461.334	585
461.747	585
462.16	591.8
462.551	599.8
462.964	584.8
463.377	569.8
463.79	583
464.182	591
464.595	578.4
465.008	589
465.421	592.8
465.813	582.4
466.226	592.6
466.64	573.6
467.053	630.8
467.445	590.8
467.859	597.6
468.272	586.8
468.686	598.2
469.078	578
469.492	573.4
469.906	584
470.298	597.6
470.712	582.8
471.126	626.6
471.54	567.2
471.933	582.8
472.347	573.4
472.761	574.8
473.175	574.8
473.568	583.4
473.982	574.4
474.397	579.4
474.79	582.8
475.204	588
475.619	577
476.033	589.6
476.426	586.8
476.841	576.4
477.256	599
477.649	576.6
478.064	578
478.479	577.8
478.872	577
479.287	570.2
479.702	578.2
480.118	576
480.511	580.8
480.927	575.6
481.342	576.6
481.736	585.2
482.151	574.8
482.566	591.6
482.96	585.4
483.376	588.4
483.792	581
484.186	580.6
484.602	579.6
485.017	586
485.412	579
485.827	583.4
486.243	581.2
486.638	598.4
487.054	582.4
487.47	590.8
487.865	578.2
488.281	572
488.697	573
489.092	576.4
489.508	568.6
489.925	588.2
490.32	568.4
490.736	576.8
491.153	583.2
491.548	586.2
491.964	585
492.381	574.8
492.776	582
493.193	580.8
493.61	590.8
494.006	577
494.422	582
494.84	570.2
495.235	585.6
495.652	576.2
496.069	589
496.465	570.4
496.883	575.6
497.3	600.8
497.696	571
498.113	586.2
498.509	572.2
498.927	567.6
499.344	571.4
499.741	570.4
500.158	585.6
500.576	576
500.973	577.2
501.39	576
501.787	566.6
502.205	584.6
502.623	578.2
503.02	576.2
503.438	575.6
503.856	576.4
504.253	588.8
504.671	576.2
505.068	574.8
505.486	573.4
505.905	592.8
506.302	583
506.72	583.4
507.118	568.6
507.536	573.6
507.955	576.2
508.352	584
508.771	576.6
509.169	586
509.587	573
510.006	576.2
510.404	570
510.823	570.4
511.221	574.6
511.64	578.6
512.038	594.6
512.457	575
512.877	577.6
513.275	572
513.694	573.2
514.092	566.8
514.512	576
514.91	577.6
515.33	569.8
515.749	567.4
516.148	578.4
516.568	587.4
516.966	577.8
517.386	573.4
517.785	576.6
518.205	575.2
518.603	571.4
519.024	571
519.444	583.6
519.843	583.2
520.263	582.4
520.662	583.4
521.082	576.4
521.481	583.2
521.902	576.2
522.301	584
522.722	584.6
523.121	577.8
523.542	579
523.963	576.4
524.362	576.4
524.783	579.6
525.183	571.4
525.604	576.2
526.003	577
526.425	571
526.824	583.2
527.246	587.6
527.646	582.6
528.067	578
528.467	578.8
528.888	569
529.289	574
529.71	576.8
530.11	574.6
530.532	574.2
530.932	574
531.354	571
531.755	599.6
532.176	579.6
532.577	573.2
532.999	572.2
533.4	579.4
533.822	587.2
534.223	581
534.645	579.6
535.046	579
535.468	577.2
535.869	589.6
536.292	573.8
536.693	599.2
537.115	581.6
537.516	580
537.939	565.6
538.34	588.2
538.742	592.8
539.165	582.2
539.566	578
539.989	574.2
540.391	574.4
540.814	578.4
541.216	581
541.639	575.8
542.041	585.6
542.464	574.8
542.866	574.8
543.268	573.2
543.691	575
544.093	579.6
544.517	590.8
544.919	572.6
545.343	598.6
545.745	576.6
546.147	582.8
546.571	573.6
546.974	573.2
547.398	571.2
547.8	588.8
548.224	576
548.627	569.8
549.03	587.4
549.454	571.2
549.857	570.2
550.281	568
550.684	570
551.087	584.8
551.512	579.4
551.915	588.4
552.34	580.6
552.743	577.4
553.146	577.8
553.571	579.8
553.975	593
554.399	575.4
554.803	617.2
555.207	571.8
555.632	568.4
556.036	576.8
556.461	572.8
556.865	577.8
557.268	567.8
557.694	564.8
558.098	588.6
558.502	581.4
558.927	574.6
559.332	577.4
559.736	579.8
560.162	583.4
560.566	575.8
560.992	585
561.396	578.6
561.801	571.2
562.227	581.2
562.631	573
563.036	573
563.462	577.8
563.867	578.8
564.272	563.4
564.698	571.4
565.103	569
565.508	592
565.935	573.6
566.34	569.6
566.745	588.2
567.172	572.8
567.577	596.2
567.982	584.4
568.409	578.6
568.815	575.2
569.22	572
569.626	582.8
570.053	564.2
570.459	575.6
570.865	584.2
571.292	583.8
571.698	580
572.104	569.6
572.531	563.6
572.937	588.2
573.343	573
573.75	574.8
574.177	577
574.583	580.2
574.99	571.6
575.396	576
575.824	578.2
576.231	581.2
576.637	570.2
577.065	598.2
577.472	578.4
577.879	572.4
578.286	592.2
578.714	572.6
579.121	577.8
579.528	575
579.935	585
580.364	570.4
580.771	561.8
581.178	570.8
581.585	574.8
582.014	574.8
582.421	573.4
582.829	572.8
583.236	574.2
583.644	569.2
584.073	575.8
584.481	568.4
584.889	567.2
585.296	576.4
585.726	572
586.134	573
586.542	565.6
586.95	587.8
587.358	568
587.787	580
588.196	576.4
588.604	564.8
589.012	570.6
589.421	570
589.851	573.4
590.259	588.2
590.668	570.2
591.076	606.6
591.485	570.2
591.894	568.4
592.324	582.2
592.733	583.4
593.142	563.4
593.551	568.2
593.96	597.8
594.369	563.6
594.8	560.8
595.209	567.8
595.618	560.2
596.028	570
596.437	568.8
596.847	570.2
597.256	579
597.687	579.2
598.097	575.6
598.507	564.4
598.917	585
599.327	571.6
599.736	575.2
600.146	578.6
600.556	576.2
600.988	581.2
601.398	576
601.808	592.2
602.219	559.6
602.629	578.4
603.039	568.4
603.45	602
603.86	575
604.271	581.2
604.703	571.4
605.114	572.6
605.525	580.2
605.935	578.4
606.346	588.4
606.757	577.8
607.168	569
607.579	570.6
607.99	586.6
608.402	576
608.813	578
609.224	569.2
609.636	568.2
610.047	567.8
610.48	574.6
610.892	574.4
611.303	577.6
611.715	570.6
612.127	574.8
612.539	574.6
612.95	582.6
613.362	560.6
613.774	566.6
614.186	566.6
614.599	572
615.011	583.8
615.423	575.2
615.835	565.2
616.248	565
616.66	580.6
617.073	571.6
617.485	572.4
617.898	580.4
618.311	570.2
618.723	577.6
619.136	607.4
619.549	589
619.962	593.4
620.375	579.2
620.788	581.4
621.201	574
621.614	585.8
622.028	569.2
622.441	585.8
622.854	586.8
623.268	573
623.681	576
624.095	576.8
624.509	577.8
624.922	585.6
625.336	560.6
625.728	574.2
626.142	588.2
626.556	592.4
626.97	580.2
627.384	565.6
627.799	578.2
628.213	585.8
628.627	574.6
629.041	576.6
629.456	578.6
629.87	578.4
630.285	588.6
630.699	577.6
631.093	580.8
631.507	580.8
631.922	576
632.337	589.4
632.752	571.2
633.167	571.6
633.582	576.4
633.997	580.6
634.412	574.6
634.806	577.2
635.221	575.6
635.637	593
636.052	568.6
636.468	578.6
636.883	594.4
637.299	575.4
637.715	572.6
638.109	568
638.525	567.8
638.941	588.4
639.357	581.2
639.773	586.4
640.189	568
640.584	574.4
641	580.6
641.416	565.2
641.832	572.8
642.249	569.6
642.665	572
643.06	582.4
643.477	583.2
643.894	564
644.31	571.2
644.727	571.8
645.123	572.8
645.54	574.4
645.957	579.2
646.374	588.8
646.77	574.8
647.187	599
647.604	576.6
648.021	571.6
648.439	566.4
648.835	576.2
649.252	576.2
649.67	576.2
650.088	572.6
650.484	568.6
650.902	577.2
651.32	576.2
651.738	575
652.134	579.6
652.552	587.2
652.971	583
653.389	566.2
653.786	579.2
654.204	595.8
654.622	568.2
655.019	568.4
655.438	569.6
655.857	574.6
656.275	563.8
656.673	571
657.091	580.4
657.51	569.8
657.908	579
658.327	587.8
658.746	563.8
659.144	573
659.563	584.8
659.982	572.8
660.38	562.2
660.8	567.4
661.219	580.8
661.617	578.8
662.037	572.2
662.457	580.2
662.855	571.6
663.275	590
663.695	575.2
664.094	575
664.514	575.2
664.934	570
665.333	579.8
665.753	571
666.152	565.4
666.572	564.6
666.993	580.2
667.392	565.8
667.812	578.8
668.212	570
668.632	584.8
669.053	558.2
669.453	576.4
669.874	576.8
670.273	570.6
670.694	569
671.116	580.8
671.515	583.4
671.937	570.6
672.337	568.6
672.758	570.8
673.158	573.8
673.58	559.4
673.98	571.2
674.402	582
674.824	571.4
675.224	566.6
675.646	569.2
676.047	563.2
676.469	572.6
676.869	576.4
677.292	574.6
677.693	562
678.115	565.2
678.516	584.6
678.939	574.8
679.34	574
679.762	581.8
680.164	575.6
680.586	567.8
680.988	576.2
681.411	586
681.812	566.6
682.236	564.8
682.637	560
683.061	554
683.462	568.8
683.864	569
684.288	571.2
684.69	561.6
685.114	579.4
685.516	576.8
685.94	560
686.342	572.4
686.766	569.2
687.168	568.6
687.571	576.6
687.995	578.6
688.398	560.2
688.822	571
689.225	590.8
689.628	588.2
690.052	560.6
690.456	578.6
690.88	569.4
691.284	566.6
691.687	578.2
692.112	558.6
692.515	572
692.919	564.4
693.344	572.4
693.747	557.6
694.173	563.2
694.577	576.8
694.98	568.2
695.406	567.6
695.81	565.2
696.214	568.8
696.64	575
697.044	565.6
697.448	575
697.874	568.4
698.279	565.4
698.684	563.8
699.11	577.8
699.514	573.2
699.919	571.8
700.324	561.4
700.75	577.2
701.156	566.2
701.561	583.8
701.987	573.2
702.393	574.8
702.798	579.4
703.203	569.4
703.63	568.6
704.036	561.6
704.442	565.4
704.847	553.6
705.274	567
705.68	567.8
706.086	570.4
706.492	553
706.92	571
707.326	575.6
707.732	554.6
708.139	560
708.545	560.6
708.973	563.8
709.38	566.6
709.786	562.8
710.193	581.6
710.6	574.4
711.028	557.6
711.435	564
711.842	571.2
712.249	566.6
712.656	570.4
713.064	576
713.492	562.4
713.9	559.4
714.307	576.2
714.715	568.8
715.123	572
715.53	569.4
715.938	570.2
716.367	570
716.775	564
717.184	560.8
717.592	562.8
718	572.8
718.408	597.6
718.816	606
719.225	566.4
719.633	578
720.042	568
720.472	568.4
720.881	590.2
721.29	572.8
721.699	556.6
722.108	575.8
722.517	572
722.926	572.6
723.335	576.8
723.744	565.4
724.154	562.6
724.563	572.8
724.973	559.8
725.382	573.6
725.792	573.2
726.202	566.2
726.612	582
727.022	557
727.432	565.2
779.813	567.4
780.223	603.6
780.634	563.4
781.044	560.2
781.454	573.4
781.865	575.4
782.276	557.2
782.686	580.6
783.097	572
783.508	564.8
783.919	566.2
784.33	580
784.741	574
785.152	565.4
785.563	557.8
785.974	561.4
786.386	573.2
786.776	566.2
787.188	572
787.599	559.8
788.011	574.6
788.423	572.4
788.835	561.4
789.247	554.8
789.659	569
790.071	562.4
790.483	605.4
790.874	571.2
791.286	573.6
791.699	558.8
792.111	574.2
792.524	573.8
792.937	566.2
793.349	558.6
793.741	565.6
794.154	570
794.567	585.4
794.98	571.8
795.393	557.2
795.785	578.2
796.198	565.4
796.612	578
797.026	567.6
797.439	559.6
797.831	562.4
798.245	554.8
798.659	563.8
799.073	554.8
799.487	558.8
799.88	565.4
800.294	564.6
800.708	572.8
801.123	564.2
801.516	577.2
801.93	555
802.345	549.2
802.76	556.6
803.153	580.6
803.568	576.8
803.983	575.2
804.377	564
804.792	560.2
805.207	560
805.601	565.2
806.016	589.6
806.432	564.6
806.826	594.4
807.242	573.6
807.658	567.4
808.052	566
808.468	560
808.884	564.2
809.279	560.8
809.695	581.8
810.111	576.2
810.506	571.2
810.922	582.8
811.339	565
811.734	573.4
812.151	557.4
812.546	565.4
812.963	563.4
813.38	567.8
813.776	564.8
814.193	587
814.589	556.8
815.006	560
815.402	558.8
815.82	562
816.237	566.2
816.633	569.2
817.051	559.8
817.448	575.4
817.866	558.2
818.262	588
818.68	554.4
819.077	553
819.495	567.6
819.892	601
820.311	560.4
820.708	565.8
821.127	561.4
821.524	566
821.943	572
822.34	586.6
822.759	565.4
823.157	564.8
823.576	574.6
823.974	575.6
824.393	618.4
824.791	555.6
825.189	563.2
825.609	558.2
826.007	565.8
826.427	558.6
826.826	569.4
827.246	565
827.644	556.8
828.043	574.6
828.463	565.2
828.862	569.2
829.261	570.8
829.682	562.8
830.081	567.2
830.502	555.6
830.901	569.2
831.301	587.4
831.722	554
832.121	568.4
832.521	566.8
832.943	571.6
833.342	569
833.742	565
834.164	566
834.564	554.2
834.965	569.2
835.386	557
835.787	563.4
836.188	562.2
836.588	570.2
837.01	555
837.411	561.6
837.812	573.6
838.213	570.6
838.636	558.8
839.037	620.6
839.438	560.4
839.84	562.8
840.263	568
840.664	575.4
841.066	561
841.468	562.2
841.891	556.6
842.293	569.6
842.695	561
843.098	575.2
843.5	560.8
843.902	563.2
844.326	570
844.729	568.6
845.131	576.2
845.534	569.8
845.937	570.2
846.34	576.4
846.764	557.8
847.167	567.4
847.571	559.6
847.974	567.6
848.377	565.4
848.781	602.4
849.184	580.6
849.588	568.6
849.992	558.4
850.396	563.4
850.821	583.6
851.225	569.8
851.63	566
852.034	569.4
852.438	567.8
852.843	629.4
853.247	553.6
853.652	555.4
854.057	574
854.462	564.6
854.867	566
855.272	593
855.677	562.8
856.082	565.6
856.487	555.4
856.893	568.2
