#lambda/nm	C1
208.295	576
208.67	513.4
209.045	469.6
209.419	471.4
209.794	588.2
210.169	579.8
210.544	661.2
210.919	589.8
211.295	571
211.67	577.8
212.045	576.2
212.421	569.4
212.796	608.8
213.172	579.2
213.547	572.8
213.923	582
214.299	573.8
214.675	577.8
215.051	589.2
215.427	589.8
215.803	588.4
216.179	580.8
216.555	577.4
216.932	588
217.308	578.2
217.684	573.6
218.061	585.4
218.438	583.2
218.814	577.2
219.191	579.8
219.568	579.2
219.945	571
220.322	584.8
220.699	584.6
221.076	580.4
221.453	581.2
221.83	574.2
222.208	574.4
222.585	576.6
222.962	577
223.34	582
223.717	578.8
224.095	576.2
224.473	579
224.851	578
225.229	573.8
225.607	586.8
225.985	566.2
226.363	579.2
226.741	572
227.119	578.6
227.497	583.6
227.876	558.2
228.254	579
228.633	573.6
229.011	577
229.39	572.4
229.769	575.2
230.148	576
230.527	587.2
230.905	571.2
231.284	575.4
231.664	569.8
232.043	582.4
232.422	570.8
232.801	574
233.181	584.8
233.56	570.6
233.94	574.8
234.319	562.8
234.699	569.2
235.079	604.4
235.458	604.2
235.838	583
236.218	570.4
236.598	561.2
236.978	573.2
237.358	576.6
237.738	568.8
238.119	579.2
238.499	564.4
238.88	577
239.26	583.4
239.641	564.8
240.021	571.8
240.402	570.2
240.783	574
241.163	577.8
241.544	577
241.925	569.8
242.306	580.2
242.687	575
243.069	574.2
243.45	573
243.831	564
244.212	571.8
244.594	600.2
244.975	576.4
245.357	579
245.739	566
246.12	575.4
246.502	577.8
246.884	571.6
247.266	578.2
247.648	572.6
248.03	587
248.412	576
248.794	576.6
249.176	571
249.559	584.6
249.941	565.2
250.323	572.6
250.706	568.6
251.089	569.4
251.471	579.4
251.854	572.6
252.237	585.8
252.62	577.6
253.002	574
253.385	573.8
253.769	588.8
254.152	573.6
254.535	579.4
254.918	576.6
255.301	575.4
255.685	577.6
256.068	569
256.452	598.8
256.835	578.8
257.219	586.8
257.603	582.2
257.986	572.4
258.37	587
258.754	563.8
259.138	569.8
259.522	585.8
259.906	576.4
260.29	577.6
260.675	579
261.059	579.4
261.443	569.6
261.828	582.2
262.212	579.6
262.597	566.4
262.981	571.4
263.366	572
263.751	577
264.136	573
264.521	578.8
264.906	573.4
265.291	587.8
265.676	568.8
266.061	582.8
266.446	588.4
266.831	575.2
267.217	590.6
267.602	580.8
267.987	579
268.373	576
268.759	579
269.144	585.6
269.53	576.4
269.916	575.6
270.302	577.4
270.688	582.2
271.074	581
271.46	586.6
271.846	603.8
272.232	586.6
272.618	569.6
273.004	577.8
273.391	581.4
273.777	585.2
274.164	581.6
274.55	582.2
274.937	587
275.324	576.6
275.71	577.4
276.097	573.8
276.484	580
276.871	576.4
277.258	587.2
277.645	576.4
278.032	570.6
278.419	575.2
278.807	578.6
279.194	570.8
279.581	568
279.969	584.6
280.356	580
280.744	572.8
281.131	593.2
281.519	584.6
281.907	581.8
282.295	563.8
282.682	578.6
283.07	579.4
283.458	579.8
283.846	575.6
284.235	590
284.623	577
285.011	562.8
285.399	576
285.788	578.8
286.176	565.2
286.565	578.8
286.953	568.4
287.342	577.6
287.731	567.2
288.119	570.6
288.508	572
288.897	578
289.286	567.2
289.675	573.8
290.064	586.8
290.453	572
290.821	570.4
291.21	591.2
291.599	574.4
291.989	582
292.378	583
292.768	589.8
293.157	583.6
293.547	586.6
293.936	570.6
294.326	571.6
294.716	578.8
295.106	579.2
295.496	573.4
295.886	583
296.276	572
296.666	573.4
297.056	576.6
297.446	565.2
297.836	584.6
298.227	575.4
298.617	574.2
299.008	592.2
299.398	571.8
299.789	570.2
300.179	576.8
300.57	584.4
300.961	580.6
301.352	578.6
301.742	579
302.133	573
302.524	573.4
302.915	578.8
303.307	572.8
303.698	582.2
304.089	580.6
304.48	580
304.872	585.4
305.263	578.6
305.655	575.2
306.046	576
306.438	584.4
306.829	576
307.221	589.8
307.613	584
308.005	590.8
308.397	578.4
308.789	595.6
309.181	598.2
309.573	583.4
309.965	589.4
310.357	575.6
310.749	590.4
311.142	575.2
311.534	572
311.926	577.2
312.319	578.6
312.711	575.6
313.104	582.2
313.497	579.4
313.889	611.4
314.282	585.6
314.675	587.6
315.068	574.6
315.461	582.4
315.854	597.2
316.247	578.6
316.64	578.4
317.033	571.4
317.405	588.6
317.798	577.4
318.192	578
318.585	569
318.979	579.6
319.372	572.4
319.766	571.6
320.16	589.8
320.553	582
320.947	591
321.341	577
321.735	578
322.129	573.4
322.523	602.4
322.917	565.6
323.311	583.2
323.705	582.6
324.099	581
324.494	595
324.888	577.4
325.282	582.4
325.677	587.6
326.071	580
326.466	587.4
326.861	584.8
327.255	581.6
327.65	583.4
328.045	586
328.44	573.6
328.835	576
329.23	576.4
329.625	592.2
330.02	568.8
330.415	585.6
330.81	573.4
331.206	575.8
331.601	565.6
331.996	573
332.37	590
332.766	564.6
333.161	595.2
333.557	573.6
333.953	572.6
334.348	781.8
334.744	575.4
335.14	568.4
335.536	568
335.932	577.2
336.328	578.2
336.724	579.2
337.12	582.6
337.516	573.4
337.913	571
338.309	585.2
338.705	572.8
339.102	576.4
339.498	576.4
339.895	582
340.291	568.4
340.688	577.6
341.085	568.8
341.481	565
341.878	571.4
342.275	581.6
342.672	562
343.069	568.6
343.466	561.8
343.842	578.8
344.239	564.4
344.636	574
345.033	561.4
345.431	570.8
345.828	573
346.225	575.2
346.623	592.8
347.02	571.8
347.418	583.2
347.816	584
348.213	572.2
348.611	578.6
349.009	572.8
349.407	582.4
349.805	567.6
350.203	570.2
350.601	582.6
350.999	569
351.397	618.8
351.795	578
352.193	582
352.57	587.4
352.969	581
353.367	567.4
353.766	570.2
354.164	571.4
354.563	584.4
354.961	577.6
355.36	569
355.759	579.4
356.158	566.2
356.557	569.8
356.956	560.6
357.355	569.8
357.754	576.4
358.153	575.6
358.552	591.2
358.951	570
359.35	579.6
359.75	566.6
360.149	572.2
360.527	564
360.926	565.6
361.326	569
361.726	569.4
362.125	573.8
362.525	571.2
362.925	570.6
363.325	572
363.724	567.6
364.124	561.2
364.524	569.8
364.924	575.4
365.324	580
365.725	559.4
366.125	575
366.525	564.8
366.904	574.4
367.304	557.8
367.705	583.6
368.105	586
368.506	575.6
368.906	578.8
369.307	575.2
369.708	577.8
370.108	563.4
370.509	584
370.91	566.4
371.311	570.6
371.712	579.6
372.113	562.8
372.514	566.4
372.894	573.2
373.295	564.8
373.696	576.4
374.097	571.4
374.499	590.4
374.9	574.4
375.301	572.8
375.703	579.8
376.105	571.4
376.506	572.6
376.908	576.2
377.309	574.4
377.711	573.6
378.113	566.2
378.493	571.2
378.895	563.2
379.297	582.2
379.699	564.2
380.102	574.6
380.504	567.4
380.906	567.8
381.308	594.8
381.71	566.6
382.113	578.6
382.515	574.6
382.918	564.8
383.299	566
383.701	574
384.104	567.8
384.507	558
384.909	570
385.312	562.4
385.715	560.2
386.118	562.6
386.521	558.8
386.924	576.4
387.327	564.2
387.709	558.8
388.112	557.4
388.515	562
388.918	562.4
389.322	570.6
389.725	558.4
390.129	579.4
390.532	573.8
390.936	565.2
391.339	561.4
391.743	574.4
392.125	566
392.529	573.8
392.933	576.2
393.337	571
393.74	567
394.144	566.8
394.548	562.4
394.953	558.8
395.357	574.6
395.761	564.4
396.144	571.4
396.548	565.2
396.952	569.4
397.357	570.8
397.761	564.2
398.166	566.4
398.57	562.6
398.975	564.4
399.379	571.8
399.763	601.6
400.168	563.8
400.572	565.6
400.977	571.8
401.382	588
401.787	575
402.192	584.4
402.597	578
403.002	555.2
403.386	578.6
403.791	577.6
404.197	568.8
404.602	574.8
405.007	561
405.413	559.4
405.818	568.6
406.224	564.4
406.608	571.2
407.014	564.2
407.42	581.2
407.825	559.2
408.231	571.6
408.637	576.6
409.043	582.2
409.449	561.4
409.834	565.8
410.24	566.6
410.646	579.6
411.052	573.6
411.458	570
411.865	573.6
412.271	572.6
412.677	568.8
413.062	571.8
413.469	557
413.875	590.2
414.282	569.6
414.689	570.8
415.095	575.8
415.502	566.6
415.888	571.2
416.294	556.4
416.701	606.8
417.108	571
417.515	576.2
417.923	561.2
418.33	581.2
418.715	572.8
419.123	567.2
419.53	565.6
419.937	572
420.345	583
420.752	571
421.16	581.2
421.546	564.6
421.953	575.6
422.361	557
422.769	569.6
423.177	565.2
423.585	590.4
423.992	579.4
424.379	574.6
424.787	569.2
425.195	585
425.603	559.2
426.011	570.4
426.419	572.6
426.806	568.4
427.214	565.4
427.623	570.6
428.031	578.2
428.44	565.4
428.848	570.6
429.235	577.8
429.644	570.2
430.053	572.6
430.461	576.2
430.87	588
431.279	574.4
431.666	565.4
432.075	567
432.484	567.6
432.893	570.8
433.302	584.2
433.711	605.6
434.099	571.4
434.508	562
434.918	564.8
435.327	572.8
435.737	570.8
436.125	571
436.534	563.4
436.944	576.4
437.353	578.4
437.763	580.8
438.173	560.6
438.561	576.8
438.971	554.4
439.381	563.8
439.791	566.8
440.201	549
440.589	573
440.999	569.8
441.409	571.8
441.819	557.4
442.23	567.2
442.619	571.6
443.029	569.8
443.439	577
443.85	574.4
444.26	583
444.649	575.8
445.06	576.8
445.471	571
445.881	574.4
446.292	578.2
446.682	587
447.092	565.8
447.503	613.2
447.914	572.2
448.325	577.4
448.715	581.4
449.126	569.4
449.537	576
449.948	572.6
450.338	574.4
450.75	578.4
451.161	573
451.572	590.8
451.984	572.2
452.374	563.2
452.786	571.8
453.197	569.4
453.609	582
453.999	560.6
454.411	567.4
454.823	582.6
455.235	578.6
455.647	568.2
456.037	574.4
456.449	563.2
456.862	581.4
457.274	579
457.665	565.2
458.077	572.2
458.489	588.4
458.902	562.2
459.293	571.2
459.705	579
460.118	563.8
460.53	568.8
460.921	567
461.334	575.6
461.747	572.6
462.16	575.4
462.551	576.6
462.964	580.4
463.377	562.6
463.79	568.2
464.182	571.6
464.595	565.4
465.008	569.4
465.421	574.8
465.813	563.2
466.226	566.2
466.64	575.6
467.053	602.4
467.445	571
467.859	589.8
468.272	573.4
468.686	582.6
469.078	567
469.492	556.2
469.906	565.8
470.298	569.6
470.712	572
471.126	594
471.54	558
471.933	554.2
472.347	559.8
472.761	559.4
473.175	553.4
473.568	566
473.982	564.8
474.397	566.6
474.79	561.6
475.204	570.8
475.619	562.4
476.033	566.6
476.426	565.8
476.841	556.2
477.256	580
477.649	559.8
478.064	554.2
478.479	565
478.872	561.6
479.287	559.6
479.702	559.8
480.118	565.6
480.511	560.4
480.927	569
481.342	555.8
481.736	563.6
482.151	559.6
482.566	566.4
482.96	564.8
483.376	567.8
483.792	557.4
484.186	564.2
484.602	561.2
485.017	558.6
485.412	566.4
485.827	564.2
486.243	561.8
486.638	583
487.054	573.2
487.47	577
487.865	553.4
488.281	562.6
488.697	562.2
489.092	552.8
489.508	557
489.925	575.4
490.32	554.8
490.736	570.6
491.153	570.8
491.548	564.2
491.964	571.8
492.381	553
492.776	570.8
493.193	562.8
493.61	566.6
494.006	569.2
494.422	567.4
494.84	559.4
495.235	565.2
495.652	562.8
496.069	571.6
496.465	561.2
496.883	562.8
497.3	588
497.696	557.6
498.113	569.4
498.509	552
498.927	549.6
499.344	560.8
499.741	558.4
500.158	570.8
500.576	577.2
500.973	558.6
501.39	558.2
501.787	549.6
502.205	563
502.623	560.8
503.02	559.8
503.438	559.2
503.856	559.8
504.253	569
504.671	562.8
505.068	562.8
505.486	563.8
505.905	574.6
506.302	573.2
506.72	569.4
507.118	551.4
507.536	567.8
507.955	561.8
508.352	559.4
508.771	565.8
509.169	566.6
509.587	560.4
510.006	569.2
510.404	547.6
510.823	561.6
511.221	562.6
511.64	558.4
512.038	568.6
512.457	567.4
512.877	574.2
513.275	556.8
513.694	564.6
514.092	567.6
514.512	573.8
514.91	572.8
515.33	566.8
515.749	572.8
516.148	565.6
516.568	564.4
516.966	558.6
517.386	554.2
517.785	566
518.205	557.6
518.603	558.4
519.024	560.8
519.444	565.8
519.843	580.8
520.263	572
520.662	565.4
521.082	561.2
521.481	566.6
521.902	556.2
522.301	556
522.722	560
523.121	555.4
523.542	558
523.963	559.6
524.362	563.2
524.783	556.4
525.183	562.6
525.604	566.4
526.003	558.4
526.425	559.6
526.824	559.4
527.246	555.8
527.646	562.4
528.067	559.8
528.467	562.2
528.888	570.2
529.289	562.8
529.71	556.8
530.11	560.2
530.532	562
530.932	556.4
531.354	555.6
531.755	584
532.176	566.8
532.577	559.6
532.999	565
533.4	560.8
533.822	564.8
534.223	567.2
534.645	552.8
535.046	554
535.468	560
535.869	565.6
536.292	560.2
536.693	583.4
537.115	559.8
537.516	552.6
537.939	553.2
538.34	563.8
538.742	570.6
539.165	560.8
539.566	562.2
539.989	553.2
540.391	563.4
540.814	553.4
541.216	563.6
541.639	567.2
542.041	566.2
542.464	558.4
542.866	558.4
543.268	549.4
543.691	560.8
544.093	563
544.517	575.4
544.919	559.6
545.343	583.4
545.745	556.2
546.147	563
546.571	556.2
546.974	554.2
547.398	561.8
547.8	569.8
548.224	559.4
548.627	558.2
549.03	564.4
549.454	554.6
549.857	554
550.281	554.2
550.684	558.6
551.087	570.4
551.512	568.4
551.915	564.8
552.34	563
552.743	561.4
553.146	565
553.571	560
553.975	578.2
554.399	556.2
554.803	599.6
555.207	557.8
555.632	554
556.036	562.6
556.461	555.4
556.865	569.8
557.268	560.2
557.694	560.8
558.098	554.6
558.502	559.2
558.927	554.8
559.332	560
559.736	565
560.162	566.2
560.566	553.8
560.992	568.8
561.396	562.8
561.801	564.6
562.227	556.8
562.631	562.8
563.036	560.8
563.462	565.2
563.867	562.4
564.272	560.2
564.698	565.6
565.103	552.2
565.508	573.4
565.935	566.2
566.34	561.4
566.745	571.2
567.172	555.4
567.577	570.6
567.982	565.6
568.409	567.6
568.815	555
569.22	561
569.626	565.8
570.053	554.6
570.459	564.2
570.865	565
571.292	563.4
571.698	558.4
572.104	552.4
572.531	561.4
572.937	567.4
573.343	560.4
573.75	566.4
574.177	556.2
574.583	562.4
574.99	557
575.396	565.8
575.824	559.2
576.231	563
576.637	553
577.065	574.6
577.472	556.2
577.879	561.4
578.286	569.4
578.714	552
579.121	559.8
579.528	558.4
579.935	563.8
580.364	557.6
580.771	553.8
581.178	554
581.585	559.8
582.014	559.2
582.421	561.6
582.829	548.6
583.236	565
583.644	551.4
584.073	556.2
584.481	562
584.889	559.2
585.296	558.6
585.726	554.2
586.134	551.4
586.542	557.2
586.95	576.6
587.358	561.6
587.787	565.6
588.196	567.4
588.604	559.2
589.012	562.2
589.421	548.4
589.851	556.4
590.259	562.4
590.668	556
591.076	584
591.485	557.2
591.894	567.8
592.324	578
592.733	574.2
593.142	555.2
593.551	563.4
593.96	588.6
594.369	563
594.8	555.4
595.209	561.2
595.618	553.4
596.028	564.4
596.437	564.2
596.847	570
597.256	562.6
597.687	567.6
598.097	560.2
598.507	565.2
598.917	563
599.327	575
599.736	560
600.146	579.8
600.556	566.4
600.988	577.4
601.398	572.2
601.808	581.2
602.219	559.8
602.629	571.2
603.039	567.8
603.45	586.2
603.86	563.6
604.271	572.4
604.703	570.8
605.114	563.4
605.525	568.6
605.935	567.2
606.346	592.2
606.757	567.4
607.168	570.4
607.579	563
607.99	569.4
608.402	567.8
608.813	573
609.224	575
609.636	562.6
610.047	563.6
610.48	565.6
610.892	579
611.303	571.6
611.715	564
612.127	564.6
612.539	566.4
612.95	568.4
613.362	564.6
613.774	564.2
614.186	566.6
614.599	561
615.011	575.8
615.423	561.2
615.835	568.4
616.248	560.8
616.66	572.4
617.073	559.8
617.485	568.8
617.898	573.4
618.311	570.6
618.723	566.6
619.136	586
619.549	583.8
619.962	577
620.375	562
620.788	567.4
621.201	561.8
621.614	573.8
622.028	567.8
622.441	569.8
622.854	578.2
623.268	555.2
623.681	567.4
624.095	565.2
624.509	567.2
624.922	568.8
625.336	558.2
625.728	571
626.142	575.8
626.556	578.8
626.97	561
627.384	563.8
627.799	566.2
628.213	569.8
628.627	569.4
629.041	572.8
629.456	559.8
629.87	561.4
630.285	575.2
630.699	577.8
631.093	563.8
631.507	556.4
631.922	566
632.337	576
632.752	557.6
633.167	559.4
633.582	554
633.997	556.4
634.412	562.4
634.806	561
635.221	559
635.637	568.8
636.052	558.2
636.468	555.6
636.883	571.4
637.299	568.2
637.715	553.2
638.109	568
638.525	560.4
638.941	576.4
639.357	568.2
639.773	568.8
640.189	559.2
640.584	563.4
641	571
641.416	556
641.832	562.6
642.249	557.4
642.665	562.4
643.06	576.4
643.477	571.2
643.894	555.8
644.31	564.8
644.727	566.2
645.123	568
645.54	563.4
645.957	564.2
646.374	570.4
646.77	561.6
647.187	586.6
647.604	570.4
648.021	560.2
648.439	559.2
648.835	566.2
649.252	561.2
649.67	566.6
650.088	564.4
650.484	561.2
650.902	566.8
651.32	572
651.738	558.6
652.134	560.6
652.552	583.4
652.971	570.2
653.389	558.2
653.786	569.4
654.204	586
654.622	555.2
655.019	555.4
655.438	567.8
655.857	563.4
656.275	566.6
656.673	564.8
657.091	568.4
657.51	559.8
657.908	571.4
658.327	573
658.746	558.6
659.144	560.2
659.563	572.6
659.982	561.4
660.38	551.4
660.8	557.8
661.219	563
661.617	561.8
662.037	560.4
662.457	574.4
662.855	553.8
663.275	575.6
663.695	558.2
664.094	563.6
664.514	564
664.934	555.2
665.333	562.6
665.753	561.6
666.152	555.4
666.572	553.8
666.993	566.2
667.392	551.6
667.812	559.6
668.212	556.6
668.632	569
669.053	568.2
669.453	563.4
669.874	559.2
670.273	559.4
670.694	557.6
671.116	572
671.515	564.6
671.937	564.4
672.337	553.6
672.758	553.4
673.158	566
673.58	552
673.98	552.4
674.402	571
674.824	561.4
675.224	550.4
675.646	554.4
676.047	552.4
676.469	562.2
676.869	568
677.292	567.2
677.693	556.4
678.115	552.8
678.516	561
678.939	561
679.34	553
679.762	563.8
680.164	555
680.586	548.8
680.988	554.8
681.411	570.4
681.812	550.2
682.236	551.2
682.637	547.6
683.061	555.4
683.462	565.8
683.864	556.8
684.288	564
684.69	554.4
685.114	563.4
685.516	562.8
685.94	543.2
686.342	562.2
686.766	554.2
687.168	556.6
687.571	566.4
687.995	559.6
688.398	545.2
688.822	551.8
689.225	567.4
689.628	570.4
690.052	554.4
690.456	566.8
690.88	555
691.284	550.8
691.687	554.8
692.112	554.2
692.515	553.8
692.919	554.4
693.344	558.6
693.747	558.8
694.173	548.2
694.577	563.8
694.98	558.4
695.406	552.8
695.81	552.6
696.214	560.2
696.64	556.8
697.044	552.8
697.448	554.8
697.874	550
698.279	556.4
698.684	540.8
699.11	552.8
699.514	549.8
699.919	554.8
700.324	558.4
700.75	561.6
701.156	557
701.561	561.6
701.987	552.6
702.393	566
702.798	565.6
703.203	554.6
703.63	551.6
704.036	555.2
704.442	559.6
704.847	549
705.274	555.6
705.68	553.2
706.086	550.2
706.492	546.2
706.92	548.8
707.326	563.4
707.732	554.2
708.139	550.8
708.545	555.4
708.973	548.4
709.38	553.6
709.786	552
710.193	562.6
710.6	563.6
711.028	542
711.435	550
711.842	555.4
712.249	549.8
712.656	558.4
713.064	562.4
713.492	545
713.9	557.6
714.307	556.4
714.715	549.4
715.123	558
715.53	552.6
715.938	547.2
716.367	550
716.775	545.2
717.184	545
717.592	544.4
718	552.2
718.408	571.4
718.816	581.6
719.225	550.8
719.633	550.2
720.042	545
720.472	550.4
720.881	559.8
721.29	544.2
721.699	547.6
722.108	556.8
722.517	551.6
722.926	548.2
723.335	556.4
723.744	540.4
724.154	550
724.563	550.4
724.973	552.6
725.382	547.6
725.792	543.8
726.202	544
726.612	563.8
727.022	555
727.432	545.8
779.813	549
780.223	584.6
780.634	536.8
781.044	542.2
781.454	541.8
781.865	554.6
782.276	542.2
782.686	550.4
783.097	549.8
783.508	546.6
783.919	551
784.33	553.2
784.741	554
785.152	541.4
785.563	543.2
785.974	543.6
786.386	550.2
786.776	548.6
787.188	545.4
787.599	537.6
788.011	550.6
788.423	542.8
788.835	555
789.247	541
789.659	544.6
790.071	556
790.483	578.6
790.874	545.6
791.286	561.4
791.699	546.2
792.111	546.6
792.524	543.6
792.937	545
793.349	538.8
793.741	540.2
794.154	545.6
794.567	566.6
794.98	546.4
795.393	542.6
795.785	561.2
796.198	541.4
796.612	545.4
797.026	548.8
797.439	535.6
797.831	545
798.245	544.4
798.659	552.6
799.073	541.4
799.487	542.4
799.88	555.4
800.294	555
800.708	555
801.123	546.4
801.516	565
801.93	539.6
802.345	542
802.76	547.8
803.153	561.2
803.568	563.6
803.983	560
804.377	553.4
804.792	536.8
805.207	538.6
805.601	549.2
806.016	560.4
806.432	542
806.826	577
807.242	563.6
807.658	551
808.052	544
808.468	543
808.884	544.2
809.279	550.4
809.695	558.2
810.111	569.8
810.506	549.6
810.922	561.2
811.339	552
811.734	549.8
812.151	544
812.546	543
812.963	545
813.38	558.6
813.776	556
814.193	562.2
814.589	545.8
815.006	540.4
815.402	544.8
815.82	545
816.237	552.8
816.633	555.8
817.051	546.8
817.448	554.6
817.866	542.6
818.262	571.6
818.68	549.4
819.077	550.8
819.495	545.2
819.892	578
820.311	545
820.708	549.6
821.127	545.4
821.524	552.8
821.943	552
822.34	564.2
822.759	554.6
823.157	548.4
823.576	562.4
823.974	552
824.393	561.6
824.791	548.2
825.189	538.2
825.609	552.8
826.007	556.2
826.427	533.2
826.826	542.6
827.246	549.8
827.644	531.2
828.043	554.8
828.463	547.6
828.862	553
829.261	551
829.682	536
830.081	551.8
830.502	543
830.901	555.8
831.301	561.4
831.722	535.4
832.121	541.8
832.521	544.4
832.943	547.6
833.342	552.2
833.742	540.8
834.164	544.2
834.564	542.4
834.965	546
835.386	546
835.787	549.8
836.188	538.4
836.588	544.6
837.01	553.6
837.411	538.4
837.812	551.2
838.213	551.8
838.636	544.4
839.037	589.4
839.438	549.4
839.84	547.4
840.263	551.6
840.664	550
841.066	545.8
841.468	547.4
841.891	549
842.293	551.4
842.695	547.4
843.098	551.2
843.5	544
843.902	543.6
844.326	551.6
844.729	548.6
845.131	555.2
845.534	551.2
845.937	556.4
846.34	556
846.764	541.2
847.167	545.8
847.571	540.6
847.974	540.4
848.377	543.2
848.781	579
849.184	552.8
849.588	548.6
849.992	547.6
850.396	546.8
850.821	562.8
851.225	543.2
851.63	550.2
852.034	555.4
852.438	555.2
852.843	565.8
853.247	538.8
853.652	541.2
854.057	559
854.462	550.8
854.867	549.8
855.272	573.4
