#lambda/nm	C1
208.295	535
208.67	484.4
209.045	448.8
209.419	444.6
209.794	600
210.169	585.8
210.544	686.2
210.919	599.6
211.295	589.8
211.67	596.4
212.045	591.6
212.421	591.2
212.796	634.2
213.172	595.6
213.547	591.6
213.923	591.6
214.299	589.8
214.675	597.8
215.051	602
215.427	600.8
215.803	615.8
216.179	600
216.555	594.2
216.932	605
217.308	596.2
217.684	599.4
218.061	607.6
218.438	608.8
218.814	596.2
219.191	606.2
219.568	601.4
219.945	601
220.322	603.6
220.699	597.2
221.076	611
221.453	606.4
221.83	592.8
222.208	594.8
222.585	596.4
222.962	603.4
223.34	605.6
223.717	604.2
224.095	598.6
224.473	606.2
224.851	593.2
225.229	596.2
225.607	611.4
225.985	588.6
226.363	601
226.741	593
227.119	593.2
227.497	613.8
227.876	589.2
228.254	599
228.633	607.6
229.011	609
229.39	601
229.769	604.4
230.148	603.2
230.527	622
230.905	603
231.284	601
231.664	592.2
232.043	605.8
232.422	604.8
232.801	594.8
233.181	604.4
233.56	598.4
233.94	594.6
234.319	587
234.699	594
235.079	632
235.458	636
235.838	623.2
236.218	592.4
236.598	593.8
236.978	592.4
237.358	596.2
237.738	590.2
238.119	604.2
238.499	596.4
238.88	601
239.26	612.8
239.641	594.8
240.021	588.6
240.402	599.4
240.783	595.8
241.163	592.8
241.544	606.4
241.925	605
242.306	614.8
242.687	609.8
243.069	602.4
243.45	608.2
243.831	596
244.212	596.8
244.594	632.2
244.975	609.8
245.357	604
245.739	594.8
246.12	607
246.502	607.4
246.884	602
247.266	593
247.648	601.6
248.03	613.6
248.412	606.6
248.794	608.8
249.176	591.8
249.559	597.2
249.941	593.2
250.323	587.2
250.706	591.2
251.089	597.4
251.471	596.4
251.854	601.6
252.237	592.6
252.62	601.8
253.002	593.2
253.385	601.6
253.769	617.8
254.152	601.2
254.535	597.4
254.918	586.8
255.301	591
255.685	595.2
256.068	587.8
256.452	617.8
256.835	603.6
257.219	602.6
257.603	603.4
257.986	589.4
258.37	598.6
258.754	589.8
259.138	602.2
259.522	610
259.906	593.8
260.29	604
260.675	590.8
261.059	598.6
261.443	593.2
261.828	608.2
262.212	599.2
262.597	593.4
262.981	590.4
263.366	602
263.751	598.6
264.136	601.2
264.521	597.6
264.906	595.8
265.291	613.2
265.676	595
266.061	598.4
266.446	610
266.831	597.4
267.217	619.2
267.602	601.8
267.987	608.2
268.373	593
268.759	614.4
269.144	605.2
269.53	599.4
269.916	595.2
270.302	592.6
270.688	603
271.074	595.2
271.46	612
271.846	631
272.232	601.2
272.618	598.8
273.004	605.2
273.391	608.4
273.777	611.2
274.164	593.8
274.55	610.6
274.937	605.6
275.324	596.4
275.71	606.4
276.097	603.8
276.484	593.6
276.871	603.6
277.258	601.6
277.645	585.4
278.032	598.2
278.419	591.8
278.807	605.2
279.194	593
279.581	603.2
279.969	596
280.356	598.2
280.744	599.8
281.131	624.2
281.519	610.8
281.907	597.6
282.295	588.2
282.682	611.8
283.07	601.8
283.458	609.6
283.846	608.8
284.235	605.4
284.623	604.2
285.011	589
285.399	598.4
285.788	595.8
286.176	592.6
286.565	615
286.953	593
287.342	588.6
287.731	587.2
288.119	591.8
288.508	595.6
288.897	597.6
289.286	586.8
289.675	595.4
290.064	605.2
290.453	600.2
290.821	605.8
291.21	613.2
291.599	592
291.989	600.2
292.378	608.2
292.768	618.8
293.157	610.4
293.547	605
293.936	601
294.326	592.4
294.716	611.4
295.106	596
295.496	609.6
295.886	605.8
296.276	593.6
296.666	594.8
297.056	597
297.446	589
297.836	607.4
298.227	592.6
298.617	598.6
299.008	610.6
299.398	590.6
299.789	593.4
300.179	601
300.57	608.8
300.961	588.2
301.352	587.2
301.742	598.8
302.133	600.6
302.524	599.8
302.915	595.8
303.307	595.2
303.698	600.4
304.089	603.4
304.48	598.8
304.872	604.4
305.263	594.6
305.655	582.6
306.046	613.4
306.438	596.2
306.829	590.8
307.221	614.8
307.613	601.2
308.005	602.4
308.397	607.8
308.789	613.8
309.181	618.8
309.573	610.2
309.965	607.2
310.357	600.8
310.749	611
311.142	591.2
311.534	597.8
311.926	602.2
312.319	598
312.711	592.4
313.104	612
313.497	596.4
313.889	627.4
314.282	607.2
314.675	619.4
315.068	601.4
315.461	596.2
315.854	626
316.247	613.2
316.64	595.2
317.033	601.4
317.405	608.2
317.798	597.8
318.192	605.4
318.585	599.6
318.979	606.4
319.372	593.2
319.766	604.6
320.16	606.8
320.553	616.6
320.947	616
321.341	599.4
321.735	597.8
322.129	586
322.523	618.2
322.917	591.4
323.311	607
323.705	606.8
324.099	605.4
324.494	614.6
324.888	603.4
325.282	601.6
325.677	608.2
326.071	611.2
326.466	609.4
326.861	609
327.255	605.6
327.65	611.6
328.045	613.4
328.44	599.8
328.835	602.4
329.23	597.4
329.625	624.2
330.02	598.2
330.415	617.2
330.81	601.6
331.206	604.6
331.601	590.8
331.996	606.4
332.37	618.2
332.766	592.6
333.161	623.8
333.557	602.2
333.953	603.2
334.348	935.8
334.744	605.2
335.14	594
335.536	588.4
335.932	608.2
336.328	600
336.724	617.2
337.12	601.8
337.516	597.4
337.913	602.8
338.309	601.6
338.705	602
339.102	610.4
339.498	601.4
339.895	613.4
340.291	600.4
340.688	605
341.085	598
341.481	596.4
341.878	594
342.275	616.4
342.672	598
343.069	589.2
343.466	594.2
343.842	612.6
344.239	595.4
344.636	600
345.033	599.2
345.431	594.8
345.828	603
346.225	602.2
346.623	629.8
347.02	600.2
347.418	609.4
347.816	614.2
348.213	584.4
348.611	597.6
349.009	591.8
349.407	608.8
349.805	590
350.203	587.8
350.601	606.2
350.999	590.8
351.397	634.4
351.795	603.2
352.193	604.2
352.57	599.8
352.969	605
353.367	585.6
353.766	592
354.164	593.2
354.563	604
354.961	592.2
355.36	593.6
355.759	595
356.158	585.2
356.557	591.6
356.956	587
357.355	584.2
357.754	600.8
358.153	604.4
358.552	619
358.951	594.8
359.35	605.8
359.75	592.2
360.149	589.2
360.527	586.4
360.926	585.8
361.326	599.4
361.726	601.4
362.125	593
362.525	599.6
362.925	597
363.325	596.8
363.724	597.4
364.124	594
364.524	593
364.924	587.4
365.324	607
365.725	577.8
366.125	598.8
366.525	587.6
366.904	590.8
367.304	581.2
367.705	606.6
368.105	603.2
368.506	594.8
368.906	589.2
369.307	604.2
369.708	602.4
370.108	583.8
370.509	606.2
370.91	585.6
371.311	590.4
371.712	596.6
372.113	592.2
372.514	592
372.894	592.6
373.295	598.6
373.696	607
374.097	598.6
374.499	617.8
374.9	603.2
375.301	589.2
375.703	597.2
376.105	588.8
376.506	600.4
376.908	598.4
377.309	590
377.711	586
378.113	590
378.493	597.2
378.895	590.8
379.297	604.8
379.699	585
380.102	599.8
380.504	590.6
380.906	590.4
381.308	617
381.71	594.8
382.113	607
382.515	591.2
382.918	588.2
383.299	584
383.701	600.2
384.104	602.6
384.507	579.8
384.909	592.4
385.312	584.2
385.715	575
386.118	588.4
386.521	583.4
386.924	604.6
387.327	588.6
387.709	584.6
388.112	579.8
388.515	589.4
388.918	589.8
389.322	603
389.725	586.6
390.129	610
390.532	595.6
390.936	586.2
391.339	586
391.743	595.6
392.125	587.2
392.529	604.2
392.933	607.8
393.337	596.8
393.74	589
394.144	590.4
394.548	578.8
394.953	587.8
395.357	596.6
395.761	587.6
396.144	591.2
396.548	586.2
396.952	592
397.357	596.2
397.761	578.8
398.166	588.6
398.57	587.8
398.975	576
399.379	586.4
399.763	635
400.168	581.6
400.572	586.6
400.977	583.8
401.382	607.8
401.787	606.4
402.192	612.8
402.597	608
403.002	577.8
403.386	602.4
403.791	605.8
404.197	585.2
404.602	587.2
405.007	587.6
405.413	591
405.818	585.4
406.224	580.8
406.608	583.8
407.014	587.6
407.42	608.6
407.825	586.4
408.231	594
408.637	592
409.043	597.4
409.449	581.4
409.834	575
410.24	587.2
410.646	595.8
411.052	594.2
411.458	598.8
411.865	593.4
412.271	592.2
412.677	596
413.062	597
413.469	587.6
413.875	612.4
414.282	602
414.689	594.6
415.095	601
415.502	591.2
415.888	596.6
416.294	585.2
416.701	630
417.108	587.4
417.515	596.6
417.923	592.4
418.33	617.8
418.715	597
419.123	589
419.53	585.4
419.937	590.8
420.345	605.4
420.752	595.4
421.16	606.8
421.546	589.2
421.953	596.8
422.361	587.4
422.769	596.6
423.177	586.4
423.585	617.4
423.992	614
424.379	601.8
424.787	601
425.195	605
425.603	593.2
426.011	599.4
426.419	605.8
426.806	597.6
427.214	601.8
427.623	609.4
428.031	610.2
428.44	603.4
428.848	602.4
429.235	606.8
429.644	593.6
430.053	599
430.461	607
430.87	617.4
431.279	607.4
431.666	589.2
432.075	591.6
432.484	601.6
432.893	589.6
433.302	614.4
433.711	629.2
434.099	598.2
434.508	595.6
434.918	579.2
435.327	603.8
435.737	597.2
436.125	592.8
436.534	598
436.944	599.8
437.353	594.6
437.763	618.2
438.173	591.8
438.561	605.2
438.971	579.6
439.381	587.8
439.791	597.8
440.201	576.2
440.589	597.6
440.999	596.6
441.409	589.8
441.819	589.4
442.23	596.4
442.619	603.4
443.029	591
443.439	591.4
443.85	603.6
444.26	604.6
444.649	603.6
445.06	596
445.471	587.6
445.881	597.2
446.292	599
446.682	602
447.092	578
447.503	633.6
447.914	597.2
448.325	592.2
448.715	589.2
449.126	582.4
449.537	581.4
449.948	589.4
450.338	579.4
450.75	591
451.161	592.6
451.572	591.4
451.984	580.8
452.374	576.4
452.786	585.2
453.197	591.8
453.609	590.8
453.999	584
454.411	581.6
454.823	598.2
455.235	592
455.647	584.8
456.037	596.2
456.449	572.8
456.862	590
457.274	593.4
457.665	593.6
458.077	589.6
458.489	613.6
458.902	583.2
459.293	588.2
459.705	589.8
460.118	583.2
460.53	592.8
460.921	590.6
461.334	594.8
461.747	588.8
462.16	600.6
462.551	595.4
462.964	596
463.377	584.4
463.79	584.2
464.182	601
464.595	579
465.008	590.6
465.421	590
465.813	592.2
466.226	595.4
466.64	579.2
467.053	630.6
467.445	592.4
467.859	601.6
468.272	590.2
468.686	602
469.078	592.8
469.492	578.2
469.906	589.8
470.298	591.2
470.712	590
471.126	631.4
471.54	573.2
471.933	584.8
472.347	580.2
472.761	585
473.175	580.2
473.568	585.2
473.982	582.6
474.397	590
474.79	593.6
475.204	587
475.619	586.4
476.033	579.6
476.426	589.4
476.841	579.8
477.256	608
477.649	585.6
478.064	585.8
478.479	579.6
478.872	581.2
479.287	576.2
479.702	580.6
480.118	589.6
480.511	580.6
480.927	577.8
481.342	575.2
481.736	587
482.151	584.8
482.566	594.6
482.96	592.8
483.376	598
483.792	588.8
484.186	587.2
484.602	579.2
485.017	593.6
485.412	587.4
485.827	593.2
486.243	585.4
486.638	604
487.054	590
487.47	590.4
487.865	576.8
488.281	581.6
488.697	578
489.092	578.2
489.508	579.8
489.925	598.2
490.32	578.6
490.736	592.8
491.153	586.4
491.548	592.4
491.964	595.4
492.381	574.6
492.776	586.2
493.193	586.2
493.61	587.6
494.006	584.6
494.422	588
494.84	576.8
495.235	587
495.652	583.2
496.069	583
496.465	567
496.883	577
497.3	601.4
497.696	582.8
498.113	588.4
498.509	567
498.927	581
499.344	571
499.741	579
500.158	591
500.576	588.4
500.973	582.6
501.39	579.2
501.787	580.4
502.205	583.4
502.623	578.4
503.02	574.4
503.438	579.2
503.856	575.6
504.253	586.8
504.671	582.2
505.068	565.8
505.486	577.6
505.905	598.8
506.302	577.2
506.72	591.6
507.118	573.2
507.536	579.6
507.955	573.2
508.352	581.2
508.771	592
509.169	584.6
509.587	575.8
510.006	575.6
510.404	574.6
510.823	573.8
511.221	580.4
511.64	583.6
512.038	598.2
512.457	584.6
512.877	582.4
513.275	571.8
513.694	586.2
514.092	575.6
514.512	592.2
514.91	594.2
515.33	578.4
515.749	584.2
516.148	572
516.568	589
516.966	587.6
517.386	582.4
517.785	585.4
518.205	582.2
518.603	574.4
519.024	571.4
519.444	583.8
519.843	587.4
520.263	583.4
520.662	581
521.082	578.8
521.481	587.4
521.902	587.2
522.301	582.8
522.722	589
523.121	576
523.542	582.6
523.963	575.6
524.362	583.6
524.783	577.2
525.183	582.2
525.604	587.8
526.003	581.6
526.425	574.2
526.824	589.4
527.246	591.4
527.646	591.2
528.067	582.2
528.467	581.8
528.888	579.6
529.289	582.8
529.71	577.2
530.11	578.4
530.532	577.6
530.932	572.4
531.354	572.4
531.755	613
532.176	587
532.577	576.4
532.999	585.6
533.4	580
533.822	588.4
534.223	592.8
534.645	583.8
535.046	583.4
535.468	581.2
535.869	596.2
536.292	582.2
536.693	603.8
537.115	581.4
537.516	580.2
537.939	587.4
538.34	590.2
538.742	588.6
539.165	585.8
539.566	586
539.989	573.2
540.391	575.8
540.814	584.4
541.216	586.6
541.639	583.8
542.041	587.8
542.464	575.4
542.866	578.4
543.268	577.8
543.691	579.6
544.093	582.6
544.517	592.8
544.919	574.6
545.343	589
545.745	573
546.147	577.4
546.571	575
546.974	568.6
547.398	578.8
547.8	586.6
548.224	572
548.627	573.6
549.03	574.6
549.454	570.8
549.857	562
550.281	571.6
550.684	573
551.087	588
551.512	589.6
551.915	580
552.34	587.8
552.743	572.8
553.146	589.6
553.571	578.4
553.975	600.8
554.399	571.6
554.803	627
555.207	579.2
555.632	572.4
556.036	580.4
556.461	565.8
556.865	582.8
557.268	567.8
557.694	577.6
558.098	589.8
558.502	591.6
558.927	572.6
559.332	582
559.736	585.6
560.162	583.4
560.566	581.2
560.992	588.2
561.396	579.4
561.801	585.4
562.227	578.8
562.631	581.8
563.036	578.4
563.462	587.8
563.867	584
564.272	568
564.698	584.4
565.103	577.4
565.508	590.4
565.935	583.6
566.34	577.8
566.745	593.8
567.172	570.6
567.577	598.8
567.982	595.2
568.409	592
568.815	567.6
569.22	584
569.626	590.4
570.053	570.8
570.459	586.8
570.865	583.2
571.292	589.4
571.698	575.4
572.104	569
572.531	576.2
572.937	576.6
573.343	577.2
573.75	577.2
574.177	572
574.583	592.4
574.99	579.6
575.396	588.4
575.824	577
576.231	591.6
576.637	578.6
577.065	606
577.472	574
577.879	573.8
578.286	592.6
578.714	572.4
579.121	575.2
579.528	583.2
579.935	588.4
580.364	577
580.771	568.6
581.178	570.6
581.585	581.2
582.014	584.6
582.421	574.2
582.829	577
583.236	587.8
583.644	574.8
584.073	577.4
584.481	580.8
584.889	570
585.296	582
585.726	580
586.134	568.8
586.542	574.2
586.95	592.6
587.358	570.8
587.787	580.2
588.196	591.8
588.604	585.4
589.012	578.6
589.421	572.8
589.851	569.8
590.259	575
590.668	574.6
591.076	609.2
591.485	567.4
591.894	570
592.324	588.8
592.733	586.6
593.142	565.6
593.551	570.6
593.96	597.2
594.369	561.2
594.8	568.2
595.209	560
595.618	555.2
596.028	568.4
596.437	561.4
596.847	577.6
597.256	573.4
597.687	578.6
598.097	569.8
598.507	557
598.917	574.4
599.327	577
599.736	579
600.146	584.6
600.556	581.8
600.988	583.8
601.398	573
601.808	580.6
602.219	571.8
602.629	575.4
603.039	588.4
603.45	595.4
603.86	575.8
604.271	588
604.703	576.6
605.114	580
605.525	580
605.935	580
606.346	599.4
606.757	579.6
607.168	578.4
607.579	578.6
607.99	585.8
608.402	576.6
608.813	588
609.224	573.8
609.636	568.2
610.047	584
610.48	582.4
610.892	589.2
611.303	584.2
611.715	582.8
612.127	574.2
612.539	582.8
612.95	581.8
613.362	574.2
613.774	567.6
614.186	582
614.599	577.6
615.011	597.4
615.423	582.4
615.835	579.8
616.248	568.6
616.66	583.4
617.073	572.8
617.485	581.8
617.898	592.4
618.311	583
618.723	587.8
619.136	610.6
619.549	593.8
619.962	603.2
620.375	582
620.788	577.6
621.201	582.2
621.614	583.8
622.028	584.8
622.441	590.6
622.854	593
623.268	573.2
623.681	589.6
624.095	588.8
624.509	585.8
624.922	592.2
625.336	577.2
625.728	583.4
626.142	594.6
626.556	595
626.97	583.8
627.384	580.2
627.799	582.8
628.213	585
628.627	580.4
629.041	584.4
629.456	581.4
629.87	587.2
630.285	594.2
630.699	594.2
631.093	581.8
631.507	587.6
631.922	581
632.337	598
632.752	585.2
633.167	589.6
633.582	580.8
633.997	577
634.412	573.4
634.806	578.4
635.221	581.6
635.637	588.4
636.052	571.2
636.468	588.8
636.883	601.4
637.299	578
637.715	575.8
638.109	583.8
638.525	575.4
638.941	590.4
639.357	592.8
639.773	604.6
640.189	571.8
640.584	577.4
641	586
641.416	574.2
641.832	574.6
642.249	571.8
642.665	578
643.06	579.4
643.477	586.6
643.894	564
644.31	577
644.727	575.8
645.123	579.4
645.54	569.6
645.957	570.8
646.374	588.2
646.77	584.2
647.187	603
647.604	575.4
648.021	565
648.439	574.4
648.835	571.4
649.252	573.6
649.67	568.6
650.088	579.6
650.484	579
650.902	586.8
651.32	581.8
651.738	574
652.134	577.8
652.552	591.6
652.971	582.4
653.389	572.8
653.786	591
654.204	595.8
654.622	569.2
655.019	576.2
655.438	579.2
655.857	579.6
656.275	577.8
656.673	575.2
657.091	587
657.51	574.8
657.908	575.2
658.327	590.8
658.746	567.6
659.144	579.2
659.563	588
659.982	581
660.38	571.8
660.8	584.6
661.219	586.8
661.617	580
662.037	575
662.457	587.6
662.855	573.8
663.275	606.8
663.695	574
664.094	574.2
664.514	575.8
664.934	577.2
665.333	583
665.753	570.6
666.152	571
666.572	570.4
666.993	584.6
667.392	570.8
667.812	573.8
668.212	574.2
668.632	584.4
669.053	572.2
669.453	580.2
669.874	584.2
670.273	575.6
670.694	565.2
671.116	585
671.515	580.4
671.937	577
672.337	568.2
672.758	570.6
673.158	579.8
673.58	567
673.98	577.2
674.402	587.2
674.824	572.4
675.224	570.8
675.646	570.8
676.047	584
676.469	574.2
676.869	575.8
677.292	584.4
677.693	575.2
678.115	573.6
678.516	578.4
678.939	574
679.34	577
679.762	585.2
680.164	575.2
680.586	567
680.988	580.4
681.411	596.4
681.812	573
682.236	579.8
682.637	573.6
683.061	565.4
683.462	577.2
683.864	571.8
684.288	581.2
684.69	571.2
685.114	579.8
685.516	588.8
685.94	570.6
686.342	579.4
686.766	562.4
687.168	565.8
687.571	583.2
687.995	576.2
688.398	559.8
688.822	563.4
689.225	583.4
689.628	594
690.052	567.2
690.456	575.8
690.88	567.8
691.284	568
691.687	578.8
692.112	556
692.515	570
692.919	566.2
693.344	573
693.747	563.6
694.173	562.2
694.577	581
694.98	568
695.406	570.4
695.81	574.2
696.214	575.2
696.64	579
697.044	569.8
697.448	578.2
697.874	576
698.279	572.2
698.684	561.4
699.11	566.8
699.514	566
699.919	568.4
700.324	567
700.75	573.6
701.156	569.4
701.561	573.4
701.987	579
702.393	587.4
702.798	578.2
703.203	570
703.63	565.8
704.036	564.4
704.442	569.6
704.847	566
705.274	566.4
705.68	573
706.086	578.8
706.492	571.8
706.92	569.8
707.326	581
707.732	573.4
708.139	559.4
708.545	570.8
708.973	572
709.38	571
709.786	561.4
710.193	592.8
710.6	581.4
711.028	566.2
711.435	571.6
711.842	584.6
712.249	567
712.656	574.4
713.064	575.2
713.492	568
713.9	571.4
714.307	580.4
714.715	570
715.123	573.2
715.53	586.8
715.938	581.8
716.367	575.4
716.775	579
717.184	569.6
717.592	567.8
718	583.6
718.408	603.2
718.816	611.2
719.225	565.4
719.633	577
720.042	564.8
720.472	571
720.881	598.6
721.29	575.8
721.699	562
722.108	566
722.517	575.2
722.926	574
723.335	581.4
723.744	568.8
724.154	571.6
724.563	570.6
724.973	580.2
725.382	568.4
725.792	574.6
726.202	560
726.612	586
727.022	564.8
727.432	573.8
779.813	577.6
780.223	611.6
780.634	575.4
781.044	564
781.454	579.2
781.865	576
782.276	562.8
782.686	580.8
783.097	576.4
783.508	570.8
783.919	573.4
784.33	569.8
784.741	582.4
785.152	564.8
785.563	556.2
785.974	560.6
786.386	581.6
786.776	572.4
787.188	580.2
787.599	559.4
788.011	573.6
788.423	576.6
788.835	568
789.247	567.6
789.659	566.4
790.071	565.8
790.483	607.8
790.874	557.2
791.286	578
791.699	566.4
792.111	559
792.524	572.4
792.937	561.4
793.349	565.2
793.741	562.8
794.154	560
794.567	585.8
794.98	573.6
795.393	555.8
795.785	591
796.198	568.2
796.612	564.4
797.026	571.4
797.439	556.2
797.831	563.2
798.245	563.8
798.659	564.2
799.073	565.8
799.487	562.6
799.88	569.6
800.294	564
800.708	576.8
801.123	574
801.516	588.4
801.93	559
802.345	563.8
802.76	575
803.153	585.2
803.568	579.6
803.983	574
804.377	579.2
804.792	557.4
805.207	564
805.601	575
806.016	599.2
806.432	564.8
806.826	601.2
807.242	582.6
807.658	579
808.052	569
808.468	566
808.884	569
809.279	569.8
809.695	581.6
810.111	598.2
810.506	568.4
810.922	589.2
811.339	567.4
811.734	571.6
812.151	571.4
812.546	566.8
812.963	570.4
813.38	572.6
813.776	568
814.193	590.6
814.589	557.2
815.006	568.2
815.402	565
815.82	561.6
816.237	576
816.633	570.4
817.051	567
817.448	572.6
817.866	569
818.262	584.4
818.68	567.6
819.077	563
819.495	574.4
819.892	607.8
820.311	571.2
820.708	555.8
821.127	567.2
821.524	576.8
821.943	571.8
822.34	584.2
822.759	575.2
823.157	564.6
823.576	578.6
823.974	572.4
824.393	617
824.791	575.4
825.189	563
825.609	566.4
826.007	564.8
826.427	548.2
826.826	562.2
827.246	575
827.644	562.8
828.043	572.8
828.463	566
828.862	578.6
829.261	579
829.682	566.8
830.081	575.6
830.502	555.2
830.901	574.2
831.301	582.8
831.722	565.8
832.121	565.2
832.521	566.4
832.943	573.8
833.342	566.2
833.742	565
834.164	565.2
834.564	560.2
834.965	558.8
835.386	568.2
835.787	572.6
836.188	565.6
836.588	565
837.01	570.6
837.411	561.8
837.812	562.2
838.213	569.2
838.636	560.4
839.037	633.2
839.438	566
839.84	570.2
840.263	565.6
840.664	569
841.066	563
841.468	564.2
841.891	562.4
842.293	575.8
842.695	562
843.098	572
843.5	553.4
843.902	569.6
844.326	570.4
844.729	565.8
845.131	579.4
845.534	574.8
845.937	576
846.34	586.6
846.764	570.8
847.167	570.4
847.571	561
847.974	572.6
848.377	565.8
848.781	597.4
849.184	580
849.588	559.8
849.992	560.8
850.396	562.6
850.821	583.6
851.225	566.4
851.63	556.6
852.034	578.4
852.438	563.6
852.843	635.4
853.247	561.6
853.652	569.4
854.057	584.8
854.462	572.6
854.867	571.2
855.272	593.6
855.677	570.8
856.082	564
856.487	566.4
856.893	563.4
