#lambda/nm	C1
208.295	534.2
208.67	482
209.045	440.6
209.419	443.4
209.794	606.2
210.169	599.4
210.544	706.8
210.919	613.4
211.295	594.6
211.67	609.4
212.045	607.2
212.421	609.4
212.796	645.2
213.172	601
213.547	598.4
213.923	596.4
214.299	603.4
214.675	611.4
215.051	611.4
215.427	614.8
215.803	621.2
216.179	613.8
216.555	602.2
216.932	608.6
217.308	602
217.684	603.2
218.061	611.4
218.438	611.2
218.814	597.6
219.191	614.8
219.568	600.2
219.945	602.6
220.322	610.4
220.699	621
221.076	618.6
221.453	610.2
221.83	603.4
222.208	599.8
222.585	599.8
222.962	612.2
223.34	610.8
223.717	609.6
224.095	593.8
224.473	609.4
224.851	605.8
225.229	595.4
225.607	622
225.985	606.6
226.363	618
226.741	607
227.119	609.6
227.497	626.6
227.876	593
228.254	618
228.633	612
229.011	616.4
229.39	609.8
229.769	611
230.148	614.8
230.527	631.8
230.905	613
231.284	611
231.664	603.2
232.043	620
232.422	626.4
232.801	600.2
233.181	611.2
233.56	612.8
233.94	613.6
234.319	593.8
234.699	610.4
235.079	649
235.458	652.4
235.838	623.6
236.218	599.2
236.598	599.2
236.978	605.2
237.358	600.2
237.738	607.6
238.119	606.6
238.499	599.2
238.88	610
239.26	620.8
239.641	589.8
240.021	605.2
240.402	615.2
240.783	601.2
241.163	603.2
241.544	606.2
241.925	603.2
242.306	625.8
242.687	616.2
243.069	615.8
243.45	613.6
243.831	607.6
244.212	601.6
244.594	636.4
244.975	623
245.357	611
245.739	595.8
246.12	609.2
246.502	618.8
246.884	603
247.266	609.4
247.648	612.6
248.03	626.4
248.412	616.4
248.794	608.4
249.176	605.8
249.559	618.4
249.941	604.2
250.323	600.8
250.706	598.4
251.089	603.6
251.471	612
251.854	606.8
252.237	602.2
252.62	616.8
253.002	606
253.385	604.4
253.769	613.6
254.152	614
254.535	615.6
254.918	596.6
255.301	606.2
255.685	605.8
256.068	591.6
256.452	629.6
256.835	619.8
257.219	613
257.603	620.2
257.986	597
258.37	611.8
258.754	600.2
259.138	612.6
259.522	619.6
259.906	610
260.29	606.8
260.675	605.2
261.059	604.8
261.443	600.8
261.828	612.2
262.212	606
262.597	595
262.981	598.4
263.366	612.2
263.751	606.6
264.136	605.6
264.521	611.4
264.906	598.8
265.291	613.8
265.676	602.8
266.061	608.6
266.446	619.6
266.831	606.2
267.217	625.4
267.602	614.8
267.987	617.4
268.373	606.6
268.759	621.4
269.144	614.8
269.53	604
269.916	604.6
270.302	601.2
270.688	612.6
271.074	604.4
271.46	615.8
271.846	640.8
272.232	603.4
272.618	610.6
273.004	616.6
273.391	619.8
273.777	626.4
274.164	607.8
274.55	619
274.937	608.2
275.324	611
275.71	607.8
276.097	617
276.484	604.2
276.871	609
277.258	615
277.645	591.6
278.032	605.8
278.419	606.4
278.807	611.8
279.194	601.4
279.581	606.6
279.969	615.2
280.356	613.8
280.744	604.8
281.131	629.2
281.519	616.2
281.907	612.2
282.295	609.2
282.682	615.2
283.07	616.2
283.458	623.2
283.846	621
284.235	616.8
284.623	622.8
285.011	595.2
285.399	618.4
285.788	605.2
286.176	596.4
286.565	619.2
286.953	594
287.342	605.6
287.731	597.4
288.119	599.2
288.508	598.8
288.897	610.6
289.286	600.2
289.675	615.2
290.064	610.4
290.453	601.4
290.821	599.4
291.21	624.4
291.599	604
291.989	601.4
292.378	621.2
292.768	624.4
293.157	612.6
293.547	615.6
293.936	609.2
294.326	609.8
294.716	613.8
295.106	605.2
295.496	618.4
295.886	621
296.276	604.4
296.666	600.8
297.056	600.8
297.446	600.6
297.836	629.6
298.227	607.8
298.617	607.8
299.008	631
299.398	609.6
299.789	603.2
300.179	602.6
300.57	618.4
300.961	606.4
301.352	606.8
301.742	616.2
302.133	617.8
302.524	606.6
302.915	615.2
303.307	596
303.698	621.2
304.089	616
304.48	604.8
304.872	615.6
305.263	614
305.655	601.4
306.046	628.4
306.438	613
306.829	604.6
307.221	621.6
307.613	605.4
308.005	621.2
308.397	621.2
308.789	632.6
309.181	628.8
309.573	626.8
309.965	619.6
310.357	602
310.749	623.8
311.142	597.6
311.534	603.6
311.926	615
312.319	601.6
312.711	593
313.104	621.4
313.497	605.2
313.889	642.2
314.282	618.2
314.675	634.6
315.068	614.4
315.461	616
315.854	630.4
316.247	610
316.64	606.8
317.033	607.8
317.405	608.8
317.798	609
318.192	611.2
318.585	597
318.979	608
319.372	606.6
319.766	604.4
320.16	617.6
320.553	624.8
320.947	628.6
321.341	608
321.735	608
322.129	598
322.523	636.8
322.917	606.4
323.311	619
323.705	617.6
324.099	618
324.494	630.2
324.888	618.2
325.282	602.4
325.677	611.4
326.071	617.4
326.466	622
326.861	608.2
327.255	617.2
327.65	619.6
328.045	631.2
328.44	610.4
328.835	606.2
329.23	603.6
329.625	626.6
330.02	603.4
330.415	631.4
330.81	607.4
331.206	611.8
331.601	609.2
331.996	616
332.37	632
332.766	598.4
333.161	635.4
333.557	603
333.953	617.8
334.348	1000.4
334.744	613.2
335.14	604.2
335.536	607.4
335.932	626.4
336.328	607.2
336.724	614.4
337.12	614.2
337.516	615.6
337.913	615.6
338.309	612.4
338.705	614.8
339.102	624.2
339.498	601.6
339.895	621.4
340.291	605.4
340.688	616.6
341.085	600.2
341.481	613.2
341.878	611.2
342.275	630.8
342.672	609.2
343.069	605.4
343.466	602.4
343.842	613.2
344.239	599
344.636	609.2
345.033	608.6
345.431	602
345.828	614.8
346.225	605.6
346.623	636.4
347.02	611.4
347.418	614.8
347.816	618.2
348.213	595.2
348.611	610.4
349.009	604.4
349.407	618.2
349.805	597
350.203	595.6
350.601	615.4
350.999	604
351.397	657.6
351.795	604
352.193	612.2
352.57	610.6
352.969	615.4
353.367	608.4
353.766	595.4
354.164	604.8
354.563	620.2
354.961	613
355.36	610.6
355.759	601.4
356.158	605
356.557	599.8
356.956	600
357.355	588.8
357.754	616.2
358.153	614.4
358.552	628
358.951	602.4
359.35	613.8
359.75	605.4
360.149	600.8
360.527	590.6
360.926	590
361.326	605.4
361.726	601.8
362.125	595.2
362.525	613.6
362.925	605.2
363.325	604.6
363.724	601.6
364.124	597.6
364.524	601
364.924	599.8
365.324	618.6
365.725	593.4
366.125	611.8
366.525	595.6
366.904	597
367.304	586
367.705	620.6
368.105	613
368.506	601.8
368.906	604
369.307	601.2
369.708	607.8
370.108	594.4
370.509	609.6
370.91	585
371.311	603.2
371.712	599.2
372.113	602.8
372.514	584.8
372.894	607.8
373.295	594.4
373.696	613.6
374.097	602.4
374.499	636.2
374.9	607.2
375.301	596.8
375.703	604.4
376.105	595.8
376.506	607.4
376.908	608.4
377.309	612.2
377.711	602.8
378.113	601
378.493	610.2
378.895	599.6
379.297	618.8
379.699	595.2
380.102	603.4
380.504	602.6
380.906	593.2
381.308	622.2
381.71	598.6
382.113	605.8
382.515	591.8
382.918	610.4
383.299	594.2
383.701	603.2
384.104	610.8
384.507	584
384.909	595
385.312	588.6
385.715	595.2
386.118	604
386.521	589.2
386.924	609.8
387.327	596.4
387.709	587.8
388.112	587.8
388.515	603.8
388.918	598.4
389.322	605.4
389.725	597.8
390.129	613.6
390.532	599.8
390.936	597.2
391.339	603
391.743	606.8
392.125	599
392.529	611.4
392.933	611.8
393.337	593.8
393.74	603.8
394.144	595.8
394.548	593
394.953	594.6
395.357	612.4
395.761	599.2
396.144	602.6
396.548	598.2
396.952	602.4
397.357	601.8
397.761	599.8
398.166	599.2
398.57	599.6
398.975	592
399.379	599
399.763	639.6
400.168	603
400.572	603.4
400.977	600
401.382	619.6
401.787	604.2
402.192	629.4
402.597	618.2
403.002	590.8
403.386	613.8
403.791	616.6
404.197	595.4
404.602	600.4
405.007	596.6
405.413	591.8
405.818	605
406.224	595.6
406.608	593
407.014	593.6
407.42	618.6
407.825	600
408.231	602.4
408.637	601.8
409.043	610.6
409.449	602
409.834	591
410.24	594.2
410.646	606.8
411.052	610.4
411.458	603.2
411.865	606
412.271	603.4
412.677	601.4
413.062	609.2
413.469	587.4
413.875	622.6
414.282	612.6
414.689	605.4
415.095	606.6
415.502	593
415.888	602.4
416.294	588.4
416.701	637.6
417.108	589.6
417.515	604.6
417.923	602.8
418.33	617.2
418.715	614.6
419.123	601.2
419.53	595.4
419.937	600.6
420.345	610.6
420.752	606.2
421.16	621.2
421.546	602.8
421.953	608.4
422.361	596.6
422.769	607.2
423.177	591.2
423.585	624.6
423.992	625
424.379	611
424.787	608
425.195	615
425.603	609.6
426.011	613.8
426.419	622.4
426.806	597
427.214	607
427.623	609.8
428.031	621.4
428.44	606.6
428.848	612.4
429.235	613.6
429.644	608.4
430.053	609.2
430.461	613.6
430.87	620.2
431.279	610.6
431.666	599.4
432.075	606.2
432.484	615.2
432.893	599.4
433.302	610.4
433.711	642.4
434.099	606.6
434.508	597.2
434.918	599.6
435.327	611.4
435.737	610.2
436.125	603.6
436.534	601.8
436.944	603.8
437.353	607.8
437.763	623.6
438.173	598.8
438.561	616.2
438.971	585.8
439.381	600.6
439.791	603.6
440.201	582.8
440.589	599.2
440.999	609.6
441.409	609.4
441.819	593.8
442.23	612.8
442.619	608.2
443.029	607.6
443.439	610.2
443.85	610.8
444.26	617.8
444.649	601.6
445.06	603
445.471	587.2
445.881	605.6
446.292	614.8
446.682	620.2
447.092	581.2
447.503	644.8
447.914	601.4
448.325	601.4
448.715	600.2
449.126	600
449.537	596
449.948	595.6
450.338	606
450.75	613.4
451.161	601.6
451.572	598.6
451.984	598.6
452.374	581.4
452.786	606.6
453.197	605
453.609	608.4
453.999	593.4
454.411	586.6
454.823	608.6
455.235	604.8
455.647	604
456.037	612.2
456.449	588
456.862	603.4
457.274	603.4
457.665	588.8
458.077	600.8
458.489	617.6
458.902	593.6
459.293	604.8
459.705	603
460.118	592.8
460.53	593.8
460.921	602.6
461.334	609.8
461.747	604.8
462.16	607.4
462.551	606.8
462.964	599.6
463.377	587.4
463.79	595.2
464.182	606.2
464.595	587.6
465.008	599.2
465.421	605.6
465.813	594.2
466.226	609
466.64	592
467.053	637
467.445	614.8
467.859	613.2
468.272	598.2
468.686	603.6
469.078	595.8
469.492	588.2
469.906	593.2
470.298	606
470.712	592.2
471.126	634
471.54	581.8
471.933	580.2
472.347	599.8
472.761	586.6
473.175	594.8
473.568	602.8
473.982	588.6
474.397	604.2
474.79	599.6
475.204	608.6
475.619	594
476.033	591
476.426	593.4
476.841	592.4
477.256	613.4
477.649	593.8
478.064	585.6
478.479	591
478.872	586.6
479.287	589.6
479.702	584.2
480.118	588.6
480.511	592.2
480.927	589.6
481.342	580.8
481.736	592
482.151	592
482.566	599.8
482.96	599.8
483.376	597.8
483.792	593.4
484.186	589
484.602	589.8
485.017	598
485.412	597
485.827	594
486.243	594.8
486.638	614
487.054	600.8
487.47	609.8
487.865	592.2
488.281	593.8
488.697	592.6
489.092	593
489.508	587.6
489.925	599
490.32	584.2
490.736	597.8
491.153	600.4
491.548	591.2
491.964	604.4
492.381	576.4
492.776	601.2
493.193	600.8
493.61	596
494.006	595.8
494.422	597.8
494.84	590
495.235	604.2
495.652	597.4
496.069	589
496.465	586.2
496.883	592
497.3	615.6
497.696	590.2
498.113	599.6
498.509	585.4
498.927	584.4
499.344	587.4
499.741	582.4
500.158	595.8
500.576	605.4
500.973	596.6
501.39	586.4
501.787	582.8
502.205	592.4
502.623	591
503.02	582.2
503.438	581.2
503.856	591.8
504.253	592.8
504.671	590
505.068	580.6
505.486	583.4
505.905	608
506.302	586.2
506.72	599.4
507.118	587
507.536	595.4
507.955	587.6
508.352	597.8
508.771	596.6
509.169	586
509.587	592.4
510.006	590.2
510.404	583.4
510.823	591
511.221	588.4
511.64	581.8
512.038	600.2
512.457	587.4
512.877	586.6
513.275	582
513.694	585.4
514.092	585.6
514.512	594.8
514.91	593
515.33	593.8
515.749	590
516.148	583.8
516.568	589.4
516.966	588.6
517.386	582.8
517.785	587.8
518.205	584.4
518.603	578.8
519.024	579.4
519.444	599.4
519.843	597
520.263	598.4
520.662	597.6
521.082	588.8
521.481	598
521.902	587.2
522.301	589.2
522.722	588
523.121	586.6
523.542	583
523.963	591.2
524.362	591.2
524.783	588.4
525.183	593
525.604	593.8
526.003	587.8
526.425	588.6
526.824	597.2
527.246	597.6
527.646	596.2
528.067	589.4
528.467	583
528.888	596.8
529.289	578.8
529.71	588.8
530.11	587.2
530.532	591.2
530.932	582.8
531.354	582.8
531.755	619.4
532.176	599
532.577	598.8
532.999	595
533.4	588.2
533.822	606
534.223	600.8
534.645	583.2
535.046	592.8
535.468	592.2
535.869	598.6
536.292	587.4
536.693	626.4
537.115	590.6
537.516	588.4
537.939	583.8
538.34	605
538.742	602
539.165	592.4
539.566	588.6
539.989	579.4
540.391	595
540.814	587.4
541.216	585.6
541.639	591.6
542.041	595.2
542.464	582.6
542.866	586
543.268	583.2
543.691	586
544.093	590.4
544.517	600
544.919	578.8
545.343	615
545.745	582.2
546.147	588
546.571	588.2
546.974	586.2
547.398	592.8
547.8	593.8
548.224	588.4
548.627	588.2
549.03	591.8
549.454	582.4
549.857	583.2
550.281	586.2
550.684	583
551.087	602.6
551.512	594.2
551.915	596
552.34	587.6
552.743	583.8
553.146	595.2
553.571	591.2
553.975	603.6
554.399	583.4
554.803	632.8
555.207	587.2
555.632	580.8
556.036	585.4
556.461	585.6
556.865	589.8
557.268	580.2
557.694	581.4
558.098	597.4
558.502	593.6
558.927	586.2
559.332	579
559.736	581.8
560.162	596.2
560.566	587
560.992	589.6
561.396	588.8
561.801	584.6
562.227	589.2
562.631	582.2
563.036	593.8
563.462	596.4
563.867	589.2
564.272	574
564.698	592.8
565.103	584.2
565.508	604
565.935	589.2
566.34	590
566.745	601.6
567.172	588.2
567.577	604.4
567.982	602.8
568.409	592
568.815	582.4
569.22	588.2
569.626	594.4
570.053	572.8
570.459	588.8
570.865	592.8
571.292	590.4
571.698	598.6
572.104	585.8
572.531	571.8
572.937	601.2
573.343	593
573.75	584
574.177	591
574.583	582.6
574.99	591.4
575.396	591.2
575.824	581.4
576.231	597
576.637	584.8
577.065	613.2
577.472	579.6
577.879	582.6
578.286	594
578.714	570
579.121	584
579.528	592.8
579.935	589
580.364	583.8
580.771	569.2
581.178	580
581.585	592.2
582.014	596
582.421	580.8
582.829	584.6
583.236	593.8
583.644	582.6
584.073	582.6
584.481	589
584.889	582.8
585.296	595.2
585.726	586.2
586.134	573
586.542	585.8
586.95	599.2
587.358	577.4
587.787	580.8
588.196	592.8
588.604	580.2
589.012	588.8
589.421	580
589.851	586.4
590.259	586.8
590.668	583.8
591.076	621
591.485	577.6
591.894	589.4
592.324	602.2
592.733	610.2
593.142	574
593.551	580.8
593.96	585.2
594.369	575.8
594.8	576
595.209	586
595.618	565
596.028	589.6
596.437	568.4
596.847	584.2
597.256	585.6
597.687	589.8
598.097	583
598.507	574.2
598.917	595.8
599.327	590.4
599.736	586.2
600.146	592.4
600.556	586.4
600.988	597.2
601.398	580.2
601.808	583.8
602.219	570.2
602.629	584
603.039	587.6
603.45	605
603.86	585.8
604.271	600.8
604.703	584
605.114	583.8
605.525	584.4
605.935	595.4
606.346	609.6
606.757	595.6
607.168	589.8
607.579	581
607.99	591.2
608.402	588.4
608.813	590.4
609.224	580.4
609.636	577
610.047	583.6
610.48	588.8
610.892	594
611.303	597.8
611.715	582.8
612.127	578
612.539	591.8
612.95	590.2
613.362	577
613.774	580.4
614.186	583
614.599	579.4
615.011	593.8
615.423	582.4
615.835	575.6
616.248	573
616.66	590.6
617.073	566.2
617.485	580.4
617.898	594.2
618.311	583.8
618.723	580.2
619.136	612.2
619.549	590.6
619.962	600
620.375	580
620.788	584
621.201	576.2
621.614	600.4
622.028	577.4
622.441	590
622.854	601.2
623.268	581
623.681	588.2
624.095	581.2
624.509	592.6
624.922	590.6
625.336	573.6
625.728	590.2
626.142	597.8
626.556	597.2
626.97	596
627.384	585.4
627.799	587.2
628.213	593.8
628.627	586.4
629.041	587.2
629.456	588.4
629.87	582.2
630.285	590.8
630.699	598.6
631.093	586
631.507	592
631.922	586.2
632.337	601.2
632.752	570.4
633.167	585.2
633.582	584.4
633.997	578.8
634.412	582.6
634.806	590.4
635.221	570.6
635.637	589.8
636.052	573.2
636.468	582.2
636.883	599.2
637.299	589.4
637.715	578.2
638.109	585.4
638.525	572.4
638.941	600.6
639.357	591
639.773	596
640.189	575.2
640.584	585.6
641	589.2
641.416	572.2
641.832	584.8
642.249	578.6
642.665	590.2
643.06	586.2
643.477	588.4
643.894	573.6
644.31	581.4
644.727	579.8
645.123	584.6
645.54	580.6
645.957	583
646.374	596
646.77	583
647.187	618.8
647.604	583.2
648.021	581.4
648.439	572.6
648.835	581.6
649.252	585.2
649.67	579.6
650.088	587.6
650.484	589
650.902	598.2
651.32	593.8
651.738	579.8
652.134	594.4
652.552	593.4
652.971	599.2
653.389	578.4
653.786	594.4
654.204	607
654.622	571.6
655.019	591.4
655.438	584.4
655.857	585.2
656.275	579.4
656.673	584.4
657.091	582.4
657.51	577.6
657.908	583.2
658.327	593
658.746	584.2
659.144	579.2
659.563	592.8
659.982	584.8
660.38	576.8
660.8	587.6
661.219	589.4
661.617	582.2
662.037	586
662.457	595.4
662.855	582.4
663.275	618.8
663.695	581.6
664.094	580.4
664.514	596.2
664.934	575.4
665.333	592
665.753	579.8
666.152	582
666.572	585.8
666.993	592
667.392	577.2
667.812	581.4
668.212	577
668.632	589.6
669.053	578
669.453	590.6
669.874	581.2
670.273	588.4
670.694	574.6
671.116	595.8
671.515	591
671.937	578.8
672.337	580.8
672.758	584.6
673.158	589
673.58	570
673.98	579
674.402	590.2
674.824	577.6
675.224	569.8
675.646	578.8
676.047	579.6
676.469	574.4
676.869	586.2
677.292	580.4
677.693	585.8
678.115	576
678.516	581.8
678.939	587.6
679.34	584
679.762	589.8
680.164	579.6
680.586	577.6
680.988	582.8
681.411	604.6
681.812	570.2
682.236	576
682.637	578.8
683.061	570.4
683.462	590.4
683.864	587.4
684.288	588.8
684.69	578.2
685.114	595.2
685.516	604.8
685.94	571.4
686.342	583.8
686.766	575.2
687.168	579.6
687.571	597.2
687.995	584
688.398	571.2
688.822	573.2
689.225	603.4
689.628	597.4
690.052	586.4
690.456	591
690.88	574.8
691.284	577
691.687	582.4
692.112	567.6
692.515	581.6
692.919	584.8
693.344	591.6
693.747	573.4
694.173	569.2
694.577	592.6
694.98	578.8
695.406	571.4
695.81	580.8
696.214	582.6
696.64	577.6
697.044	578.6
697.448	593.8
697.874	587.2
698.279	578.8
698.684	570.2
699.11	577.6
699.514	580.4
699.919	582.6
700.324	573.2
700.75	574.2
701.156	572
701.561	595.8
701.987	580.4
702.393	587.2
702.798	592.4
703.203	573.6
703.63	573.6
704.036	584.8
704.442	581.6
704.847	578.4
705.274	580.2
705.68	583.4
706.086	586.6
706.492	580.4
706.92	583
707.326	590.2
707.732	574
708.139	565.4
708.545	570.8
708.973	573.6
709.38	584.6
709.786	569.4
710.193	595.4
710.6	584.2
711.028	579.8
711.435	577.6
711.842	587.4
712.249	581.4
712.656	577.8
713.064	582.2
713.492	574.8
713.9	579.4
714.307	585.8
714.715	577.2
715.123	581.6
715.53	574
715.938	582
716.367	584.4
716.775	584.8
717.184	564.8
717.592	585.4
718	582.2
718.408	615.8
718.816	623
719.225	581
719.633	582.2
720.042	574
720.472	583.2
720.881	598.6
721.29	577.8
721.699	574.6
722.108	581.8
722.517	587.4
722.926	576
723.335	596.8
723.744	582.4
724.154	575.2
724.563	580.2
724.973	583.6
725.382	580.8
725.792	575
726.202	573.2
726.612	596.8
727.022	577.4
727.432	575.6
779.813	574.2
780.223	616.2
780.634	582.6
781.044	566
781.454	584.2
781.865	587.6
782.276	572.6
782.686	588.6
783.097	575.2
783.508	582.6
783.919	579.2
784.33	588.8
784.741	582.6
785.152	567.8
785.563	566
785.974	575
786.386	583.8
786.776	576.6
787.188	575.4
787.599	565.8
788.011	584.6
788.423	583.2
788.835	571.4
789.247	570.6
789.659	574.2
790.071	570.8
790.483	608
790.874	572.2
791.286	588.6
791.699	575.8
792.111	574.2
792.524	577.4
792.937	576.4
793.349	577.2
793.741	565.8
794.154	574.6
794.567	597.4
794.98	578.4
795.393	574
795.785	590.8
796.198	574.8
796.612	589
797.026	574.2
797.439	568.2
797.831	573.4
798.245	574.4
798.659	569.4
799.073	577.6
799.487	565.8
799.88	578
800.294	574.8
800.708	577.2
801.123	578.4
801.516	597.6
801.93	571.2
802.345	567.6
802.76	582.4
803.153	585.4
803.568	601.4
803.983	579.6
804.377	582
804.792	563.4
805.207	561.6
805.601	581.4
806.016	613.4
806.432	572.8
806.826	606
807.242	589.4
807.658	581
808.052	570.8
808.468	573.2
808.884	572.6
809.279	577.4
809.695	597.2
810.111	601.2
810.506	583.6
810.922	599
811.339	565.6
811.734	583.6
812.151	577.8
812.546	573.8
812.963	569.2
813.38	581.8
813.776	576.4
814.193	601.8
814.589	580.2
815.006	570.8
815.402	576.6
815.82	577
816.237	575.8
816.633	585.8
817.051	576.2
817.448	572.2
817.866	574.6
818.262	597.2
818.68	573.4
819.077	577.6
819.495	580.4
819.892	613.8
820.311	572
820.708	575.4
821.127	567
821.524	585
821.943	577.6
822.34	593
822.759	576.2
823.157	584
823.576	586.4
823.974	584.6
824.393	622
824.791	571
825.189	567.2
825.609	577
826.007	586.6
826.427	571
826.826	577.2
827.246	581.2
827.644	561.6
828.043	581.6
828.463	578.4
828.862	584.8
829.261	579.2
829.682	567.8
830.081	574.2
830.502	575
830.901	581.8
831.301	583.4
831.722	567.4
832.121	581.4
832.521	570.4
832.943	583.6
833.342	577.4
833.742	577.4
834.164	585.4
834.564	567.6
834.965	571.2
835.386	570.8
835.787	570
836.188	571.2
836.588	571.2
837.01	578.8
837.411	570
837.812	584.2
838.213	578.4
838.636	566.6
839.037	639.2
839.438	575.6
839.84	582.6
840.263	577.6
840.664	575.4
841.066	576.4
841.468	573
841.891	565.8
842.293	578.2
842.695	578
843.098	584.2
843.5	576
843.902	581.6
844.326	581.2
844.729	574
845.131	583.4
845.534	577.4
845.937	585.2
846.34	592.4
846.764	568.2
847.167	581.2
847.571	569.8
847.974	572.6
848.377	581.8
848.781	613.4
849.184	581.4
849.588	572.2
849.992	570
850.396	571.4
850.821	593
851.225	591.2
851.63	568.6
852.034	586.6
852.438	575.6
852.843	597
853.247	558
853.652	566.8
854.057	591.8
854.462	568.6
854.867	578
