#lambda/nm	C1
208.295	531.6
208.67	482.8
209.045	446.4
209.419	447.4
209.794	605.6
210.169	591.6
210.544	693.6
210.919	619.8
211.295	596.2
211.67	611.4
212.045	600.4
212.421	603.6
212.796	634.8
213.172	605
213.547	610.8
213.923	601.4
214.299	599.4
214.675	613.8
215.051	606.4
215.427	615.4
215.803	620.2
216.179	610.4
216.555	603.8
216.932	608.6
217.308	612.2
217.684	609.4
218.061	618
218.438	608.8
218.814	605
219.191	614
219.568	606.8
219.945	600.4
220.322	615
220.699	614.2
221.076	615.8
221.453	610.2
221.83	603.6
222.208	601.4
222.585	610.2
222.962	617.2
223.34	607.6
223.717	602
224.095	597.8
224.473	611.6
224.851	607.6
225.229	600.2
225.607	616.2
225.985	596.4
226.363	600.2
226.741	602
227.119	605.4
227.497	609.6
227.876	593.4
228.254	616
228.633	605.6
229.011	614
229.39	608.8
229.769	609.4
230.148	608.8
230.527	627.6
230.905	601.2
231.284	609.6
231.664	601.4
232.043	618.2
232.422	602.8
232.801	604
233.181	613
233.56	606.2
233.94	608.8
234.319	597.2
234.699	597.4
235.079	635.8
235.458	637
235.838	623
236.218	604.2
236.598	596.6
236.978	597.8
237.358	600.6
237.738	599.4
238.119	613.4
238.499	595.4
238.88	599.8
239.26	618
239.641	598.8
240.021	604.8
240.402	599.4
240.783	605.8
241.163	599
241.544	605.2
241.925	597.8
242.306	619.8
242.687	610.4
243.069	608.6
243.45	614.4
243.831	605.4
244.212	608
244.594	643
244.975	610.2
245.357	613.4
245.739	599.8
246.12	609.6
246.502	621.2
246.884	607.8
247.266	605.6
247.648	612.8
248.03	627
248.412	613.2
248.794	606.6
249.176	603.8
249.559	619
249.941	597.8
250.323	596.8
250.706	599.2
251.089	604.8
251.471	610.8
251.854	606
252.237	610.2
252.62	616
253.002	594.2
253.385	608.4
253.769	616.2
254.152	607
254.535	617.6
254.918	608
255.301	603.6
255.685	606.8
256.068	601
256.452	622
256.835	618
257.219	611.6
257.603	612.6
257.986	593.4
258.37	611.6
258.754	605.6
259.138	606.6
259.522	615
259.906	606.4
260.29	601.6
260.675	603.8
261.059	604.6
261.443	589.8
261.828	613
262.212	608
262.597	590.4
262.981	605.2
263.366	614
263.751	605.6
264.136	601.8
264.521	601.2
264.906	601.2
265.291	608.8
265.676	602.6
266.061	606.4
266.446	617.6
266.831	595
267.217	620.4
267.602	609.4
267.987	610.6
268.373	602.4
268.759	621.6
269.144	609.6
269.53	605.8
269.916	599.8
270.302	605.4
270.688	608.2
271.074	613.2
271.46	612.6
271.846	628.6
272.232	603.4
272.618	600.6
273.004	592.2
273.391	609
273.777	621.6
274.164	614.6
274.55	611
274.937	611.2
275.324	605
275.71	606
276.097	611
276.484	600
276.871	616.8
277.258	603.2
277.645	596.6
278.032	611.4
278.419	607.8
278.807	609.4
279.194	597
279.581	600.2
279.969	612.2
280.356	606.4
280.744	606.8
281.131	631
281.519	618.4
281.907	603.6
282.295	601.6
282.682	617.8
283.07	610.4
283.458	612
283.846	622.8
284.235	615.8
284.623	608.8
285.011	600.8
285.399	613.4
285.788	602.8
286.176	591.4
286.565	617.2
286.953	596
287.342	602
287.731	596.8
288.119	596.8
288.508	594.6
288.897	595.8
289.286	595
289.675	605.6
290.064	613
290.453	602.6
290.821	601.8
291.21	620
291.599	601.8
291.989	605.4
292.378	605.4
292.768	622.2
293.157	607
293.547	616.4
293.936	603.2
294.326	604.2
294.716	607
295.106	598.8
295.496	615.4
295.886	607.4
296.276	601.8
296.666	604
297.056	603.4
297.446	597.6
297.836	624.8
298.227	604
298.617	611.8
299.008	622.2
299.398	600.2
299.789	600.8
300.179	612
300.57	609.2
300.961	603.8
301.352	599.4
301.742	614.4
302.133	607
302.524	602
302.915	609.6
303.307	598
303.698	626.2
304.089	613
304.48	606.6
304.872	605.8
305.263	598.4
305.655	598.8
306.046	614
306.438	609.4
306.829	596.8
307.221	614.2
307.613	597.6
308.005	624
308.397	615.8
308.789	628.8
309.181	629
309.573	618.8
309.965	617.6
310.357	610.8
310.749	611.8
311.142	604
311.534	607.2
311.926	615.2
312.319	606
312.711	600.2
313.104	614.4
313.497	600.8
313.889	643.4
314.282	624.8
314.675	632.8
315.068	601
315.461	611.2
315.854	630.8
316.247	612.6
316.64	607.6
317.033	606.4
317.405	615.4
317.798	604.2
318.192	614.6
318.585	602.8
318.979	606.6
319.372	598.6
319.766	610.4
320.16	613.6
320.553	613.2
320.947	627.4
321.341	604.6
321.735	604.8
322.129	598.2
322.523	629.4
322.917	595.4
323.311	620.6
323.705	613.2
324.099	618.4
324.494	623.8
324.888	610.8
325.282	601
325.677	618.6
326.071	602.6
326.466	615
326.861	610.6
327.255	616.6
327.65	615.2
328.045	616.6
328.44	607.4
328.835	610.4
329.23	601
329.625	634.6
330.02	604
330.415	625.6
330.81	610.8
331.206	612.8
331.601	605.8
331.996	609.4
332.37	620.4
332.766	596.8
333.161	627.2
333.557	610.8
333.953	607.6
334.348	928.4
334.744	608.8
335.14	605.4
335.536	603
335.932	621.4
336.328	606.4
336.724	620.6
337.12	604.8
337.516	604.8
337.913	606.6
338.309	618.6
338.705	613
339.102	618.6
339.498	604.6
339.895	620.6
340.291	599.8
340.688	617.8
341.085	601
341.481	609.4
341.878	611.8
342.275	622.6
342.672	604.8
343.069	599.6
343.466	599.8
343.842	612.4
344.239	602.6
344.636	611.2
345.033	598
345.431	598.6
345.828	605
346.225	600
346.623	643.4
347.02	608.6
347.418	604.8
347.816	618.4
348.213	600.2
348.611	609.8
349.009	599.4
349.407	617.2
349.805	591.6
350.203	597
350.601	615.6
350.999	596.4
351.397	655.8
351.795	615.6
352.193	615.4
352.57	609
352.969	607.6
353.367	597.2
353.766	596.8
354.164	609.4
354.563	611.4
354.961	606.8
355.36	605.8
355.759	595.8
356.158	591.6
356.557	593.6
356.956	588.8
357.355	591.8
357.754	602.4
358.153	600.6
358.552	621.8
358.951	605.4
359.35	611.6
359.75	605.2
360.149	592.4
360.527	588.4
360.926	597.8
361.326	600.8
361.726	597.2
362.125	594.2
362.525	601
362.925	598.4
363.325	592.2
363.724	598.6
364.124	594.2
364.524	593.2
364.924	601.4
365.324	608
365.725	586.6
366.125	599
366.525	602
366.904	590.2
367.304	577
367.705	610.4
368.105	615.4
368.506	595
368.906	595.4
369.307	606.4
369.708	603.4
370.108	585.2
370.509	613.8
370.91	589
371.311	607.2
371.712	603.4
372.113	602.6
372.514	588.6
372.894	592.8
373.295	601.8
373.696	600.6
374.097	596.6
374.499	630.2
374.9	606.8
375.301	596.4
375.703	600.4
376.105	593.2
376.506	608.2
376.908	599.2
377.309	601.4
377.711	598.2
378.113	586.6
378.493	595.6
378.895	600.2
379.297	609
379.699	590.4
380.102	610.2
380.504	607.4
380.906	593.6
381.308	615.4
381.71	593.8
382.113	598
382.515	597
382.918	609.4
383.299	600.4
383.701	605
384.104	602
384.507	583.4
384.909	599.8
385.312	585.2
385.715	584
386.118	588.4
386.521	590.4
386.924	600.6
387.327	589.4
387.709	577.2
388.112	578.4
388.515	587.4
388.918	598.6
389.322	598.8
389.725	596.2
390.129	611.2
390.532	603.2
390.936	595.8
391.339	595
391.743	598
392.125	587.8
392.529	601.8
392.933	615.8
393.337	595.2
393.74	599
394.144	599.4
394.548	579.6
394.953	592
395.357	595
395.761	591.2
396.144	595.8
396.548	594.4
396.952	595.4
397.357	601
397.761	596.8
398.166	595.4
398.57	591.8
398.975	588
399.379	592.8
399.763	644
400.168	589.2
400.572	597.8
400.977	590.4
401.382	613.2
401.787	599.2
402.192	620.6
402.597	607.6
403.002	586.6
403.386	616.2
403.791	610.6
404.197	597.2
404.602	596.6
405.007	596.8
405.413	594.8
405.818	600.4
406.224	591.4
406.608	600.6
407.014	591.2
407.42	605.6
407.825	588.8
408.231	608.4
408.637	603.4
409.043	613.4
409.449	595.2
409.834	585.6
410.24	597.2
410.646	604.4
411.052	612.4
411.458	604.8
411.865	596.6
412.271	612.8
412.677	603.4
413.062	607.4
413.469	591.2
413.875	619.6
414.282	610.2
414.689	597.4
415.095	604
415.502	598
415.888	598.2
416.294	585.4
416.701	644.6
417.108	597.4
417.515	612.8
417.923	603.4
418.33	621.4
418.715	616.4
419.123	598.4
419.53	594.8
419.937	594.2
420.345	621.4
420.752	603.2
421.16	613.2
421.546	598.4
421.953	612.4
422.361	592.4
422.769	597.6
423.177	594
423.585	619.8
423.992	618.6
424.379	599.8
424.787	615.8
425.195	623
425.603	596
426.011	609.8
426.419	604.6
426.806	600
427.214	604.4
427.623	605.4
428.031	620.2
428.44	601.4
428.848	615.6
429.235	618.4
429.644	598.4
430.053	607
430.461	612
430.87	620.2
431.279	602.8
431.666	598.8
432.075	598.4
432.484	607.2
432.893	601.2
433.302	621
433.711	636.8
434.099	607.2
434.508	606.8
434.918	585.2
435.327	611.8
435.737	606.4
436.125	603.2
436.534	605.8
436.944	603
437.353	606.4
437.763	616
438.173	583.6
438.561	610.2
438.971	575
439.381	596.2
439.791	597.2
440.201	592
440.589	598.4
440.999	609.2
441.409	603.4
441.819	588.4
442.23	605.4
442.619	611
443.029	601
443.439	593.4
443.85	612.6
444.26	620.8
444.649	604.8
445.06	593
445.471	594.6
445.881	600.8
446.292	615
446.682	623
447.092	589.8
447.503	650.6
447.914	601.6
448.325	593.8
448.715	599
449.126	587.6
449.537	593.8
449.948	594.2
450.338	593.8
450.75	602.6
451.161	600
451.572	603.8
451.984	593
452.374	579.8
452.786	598.4
453.197	599
453.609	606.2
453.999	589.6
454.411	588.4
454.823	597.4
455.235	591.2
455.647	581.2
456.037	595.8
456.449	581.2
456.862	595.2
457.274	599.4
457.665	585.6
458.077	604.2
458.489	629.2
458.902	593.6
459.293	592.4
459.705	593
460.118	585.6
460.53	588.8
460.921	594.8
461.334	596.8
461.747	597.6
462.16	603.2
462.551	605
462.964	600.6
463.377	576.2
463.79	592.8
464.182	608.6
464.595	581.8
465.008	589
465.421	597.2
465.813	591.6
466.226	603.8
466.64	589.4
467.053	633.4
467.445	602.4
467.859	619
468.272	597.2
468.686	609.6
469.078	594.2
469.492	578.8
469.906	590.6
470.298	603.6
470.712	593.8
471.126	635.8
471.54	579.2
471.933	588.8
472.347	595.2
472.761	584.8
473.175	578.8
473.568	586
473.982	589.6
474.397	589.2
474.79	593.6
475.204	599.2
475.619	593.4
476.033	592.8
476.426	592.8
476.841	591.6
477.256	610
477.649	585.6
478.064	586.8
478.479	588.4
478.872	582.2
479.287	576
479.702	586
480.118	590.8
480.511	590.2
480.927	584
481.342	588.6
481.736	592.2
482.151	574.8
482.566	600.4
482.96	590.8
483.376	603.6
483.792	584
484.186	582.8
484.602	585
485.017	590.2
485.412	581.8
485.827	595
486.243	587
486.638	613.2
487.054	598.4
487.47	605.4
487.865	593
488.281	589.8
488.697	585.4
489.092	583.6
489.508	583.8
489.925	600.4
490.32	582.2
490.736	593.6
491.153	592.2
491.548	589
491.964	602.4
492.381	584
492.776	597.8
493.193	596.4
493.61	603.6
494.006	595.8
494.422	595.4
494.84	576.4
495.235	606.8
495.652	589.6
496.069	587.8
496.465	575.6
496.883	586.4
497.3	615.4
497.696	590.8
498.113	590.6
498.509	583
498.927	578
499.344	577.6
499.741	576.2
500.158	589.2
500.576	600.2
500.973	591.2
501.39	593.2
501.787	581
502.205	592.4
502.623	583.2
503.02	581.4
503.438	581.8
503.856	583.4
504.253	592.8
504.671	592.8
505.068	590
505.486	584.8
505.905	601.4
506.302	592.2
506.72	603.8
507.118	583.2
507.536	587.6
507.955	589.4
508.352	595.2
508.771	591.4
509.169	597.4
509.587	580.6
510.006	592.6
510.404	587.6
510.823	585.2
511.221	588.2
511.64	581
512.038	604.2
512.457	597.2
512.877	588.6
513.275	581.2
513.694	596.6
514.092	590
514.512	592.8
514.91	600.8
515.33	595
515.749	583
516.148	597.8
516.568	594.4
516.966	595.6
517.386	588.4
517.785	589.4
518.205	578
518.603	583
519.024	585.8
519.444	591.6
519.843	595
520.263	593.2
520.662	594.8
521.082	586.8
521.481	590.4
521.902	588.6
522.301	596
522.722	587.6
523.121	586.4
523.542	581.2
523.963	581.4
524.362	598.6
524.783	589.4
525.183	590.2
525.604	582.8
526.003	579
526.425	585
526.824	586.8
527.246	600.8
527.646	596.8
528.067	601.2
528.467	588.6
528.888	588
529.289	592.6
529.71	584.6
530.11	587.6
530.532	579
530.932	582.4
531.354	579.6
531.755	620.2
532.176	602.2
532.577	586.6
532.999	589.2
533.4	581.8
533.822	589.8
534.223	594.6
534.645	585.4
535.046	587.8
535.468	590.8
535.869	602.8
536.292	591.6
536.693	623.8
537.115	590.2
537.516	584.6
537.939	589.8
538.34	603.4
538.742	603.4
539.165	593.6
539.566	590.4
539.989	579.6
540.391	583.2
540.814	583.2
541.216	593.8
541.639	588.8
542.041	591.8
542.464	585.4
542.866	580.4
543.268	579.4
543.691	600.4
544.093	595.6
544.517	597.8
544.919	573.6
545.343	609.4
545.745	583
546.147	593
546.571	594.2
546.974	571
547.398	585.6
547.8	597.4
548.224	588.8
548.627	585.2
549.03	596.2
549.454	577.8
549.857	573.8
550.281	580.2
550.684	578
551.087	598.2
551.512	597.2
551.915	586.6
552.34	589.6
552.743	582.8
553.146	586.2
553.571	583.4
553.975	608.2
554.399	572
554.803	633
555.207	572
555.632	576.8
556.036	581.4
556.461	577.8
556.865	587.6
557.268	590.4
557.694	587.6
558.098	584.8
558.502	590.6
558.927	579.6
559.332	577.8
559.736	582.8
560.162	588.4
560.566	582.6
560.992	592.6
561.396	588
561.801	584.4
562.227	582
562.631	587.6
563.036	583.4
563.462	592.6
563.867	590.2
564.272	579.8
564.698	593.6
565.103	572.6
565.508	612.4
565.935	585
566.34	582.8
566.745	599.2
567.172	592.2
567.577	611.6
567.982	594.6
568.409	590.8
568.815	577.2
569.22	580.4
569.626	593
570.053	571.4
570.459	584.8
570.865	590
571.292	595.2
571.698	589.8
572.104	570.2
572.531	586.2
572.937	585.6
573.343	587.6
573.75	577.6
574.177	583.6
574.583	598.4
574.99	581.2
575.396	588.6
575.824	583.2
576.231	595.2
576.637	579.4
577.065	605.6
577.472	585.2
577.879	588
578.286	591
578.714	569.8
579.121	579
579.528	578.8
579.935	585.8
580.364	583
580.771	570.2
581.178	576.6
581.585	581
582.014	588.8
582.421	576.6
582.829	583.4
583.236	589.4
583.644	575.4
584.073	576.2
584.481	580.2
584.889	579
585.296	597.8
585.726	587.6
586.134	572.6
586.542	582.2
586.95	606.8
587.358	578.6
587.787	576.4
588.196	590
588.604	581.8
589.012	578.8
589.421	576.4
589.851	573.6
590.259	580.2
590.668	577.8
591.076	620.2
591.485	576.8
591.894	584.4
592.324	589.4
592.733	596.8
593.142	562.8
593.551	582.4
593.96	613.6
594.369	577
594.8	569.4
595.209	579.6
595.618	567.6
596.028	571.8
596.437	579.2
596.847	581.6
597.256	579.8
597.687	582.2
598.097	586.4
598.507	570.8
598.917	583
599.327	584.2
599.736	593
600.146	596.2
600.556	590.8
600.988	596.8
601.398	581.4
601.808	600.2
602.219	574
602.629	581.8
603.039	580.2
603.45	606.6
603.86	577.6
604.271	599.4
604.703	583
605.114	582.6
605.525	580
605.935	587
606.346	605.8
606.757	593.2
607.168	589.8
607.579	584.2
607.99	596.2
608.402	585.2
608.813	586.2
609.224	574.4
609.636	578.2
610.047	584.6
610.48	583.8
610.892	580.8
611.303	591.6
611.715	584
612.127	574.4
612.539	591.8
612.95	582.2
613.362	573
613.774	577.6
614.186	574.8
614.599	580.8
615.011	594.8
615.423	584.6
615.835	582
616.248	572.2
616.66	589.6
617.073	574.8
617.485	574.8
617.898	586.4
618.311	580.4
618.723	576.2
619.136	605.2
619.549	596
619.962	604.4
620.375	572.4
620.788	582.6
621.201	587.2
621.614	593.4
622.028	582.4
622.441	589.2
622.854	591.4
623.268	571
623.681	586.8
624.095	582.4
624.509	598
624.922	582
625.336	569.6
625.728	582.8
626.142	595.2
626.556	605.8
626.97	582
627.384	572.8
627.799	574
628.213	602.2
628.627	583.8
629.041	586.8
629.456	574.6
629.87	590.6
630.285	588
630.699	592
631.093	584.4
631.507	591.6
631.922	584
632.337	592.6
632.752	571
633.167	579
633.582	580.6
633.997	573.6
634.412	578.2
634.806	586
635.221	577.8
635.637	593.6
636.052	579
636.468	590
636.883	607.6
637.299	587.4
637.715	577.2
638.109	582
638.525	585.6
638.941	594.8
639.357	592.2
639.773	594.6
640.189	574.8
640.584	585.4
641	581.8
641.416	577.8
641.832	586.2
642.249	583.2
642.665	585.6
643.06	592.8
643.477	595.8
643.894	573
644.31	582.8
644.727	590.6
645.123	589.4
645.54	575
645.957	587.4
646.374	584
646.77	588.2
647.187	612
647.604	582.8
648.021	566.4
648.439	574.2
648.835	582.8
649.252	579.6
649.67	575.8
650.088	578
650.484	571.6
650.902	584
651.32	581
651.738	576.2
652.134	585
652.552	601
652.971	593.2
653.389	575.6
653.786	590
654.204	597.6
654.622	569.8
655.019	579.8
655.438	579
655.857	576
656.275	585.6
656.673	571
657.091	588.8
657.51	576.2
657.908	594.8
658.327	584.8
658.746	574.2
659.144	579.8
659.563	591.6
659.982	583.6
660.38	580.2
660.8	584.6
661.219	588
661.617	578.2
662.037	578.8
662.457	588.8
662.855	568.4
663.275	611.4
663.695	577.8
664.094	577.4
664.514	588
664.934	578
665.333	586.4
665.753	579
666.152	578.6
666.572	580.2
666.993	593
667.392	578.6
667.812	585.8
668.212	573.2
668.632	589.2
669.053	576.8
669.453	585.4
669.874	584.2
670.273	585
670.694	574.2
671.116	597.4
671.515	587
671.937	579.8
672.337	570.4
672.758	574.8
673.158	577.4
673.58	575
673.98	586
674.402	586
674.824	572.4
675.224	577.8
675.646	567.8
676.047	569
676.469	580.4
676.869	579
677.292	584.2
677.693	573.8
678.115	575.4
678.516	579.4
678.939	569.6
679.34	574.4
679.762	587.4
680.164	582.6
680.586	569.4
680.988	577.8
681.411	596.8
681.812	571.2
682.236	578.4
682.637	578.2
683.061	574.6
683.462	583.6
683.864	578.6
684.288	593.6
684.69	570.6
685.114	588.2
685.516	580.6
685.94	569.8
686.342	583.8
686.766	576.2
687.168	578.6
687.571	597.6
687.995	579.2
688.398	574.4
688.822	571.8
689.225	592.8
689.628	600.6
690.052	580.4
690.456	582.2
690.88	572.2
691.284	568
691.687	592.2
692.112	571.8
692.515	574.4
692.919	579.8
693.344	588
693.747	586.2
694.173	579.8
694.577	590.6
694.98	577.2
695.406	579.8
695.81	574
696.214	580.2
696.64	586.6
697.044	583.6
697.448	586.6
697.874	586
698.279	579.2
698.684	567.2
699.11	573.4
699.514	581.6
699.919	579.2
700.324	572.4
700.75	574.8
701.156	583
701.561	589.4
701.987	579.4
702.393	590
702.798	588.6
703.203	580.2
703.63	576.6
704.036	584.4
704.442	585.4
704.847	568.6
705.274	577.2
705.68	583.8
706.086	590
706.492	576.2
706.92	588.2
707.326	584.6
707.732	580.4
708.139	571.8
708.545	567.4
708.973	578.6
709.38	581.8
709.786	574.6
710.193	585.6
710.6	578.2
711.028	566.2
711.435	585.4
711.842	585.8
712.249	573.4
712.656	570.4
713.064	585
713.492	571.6
713.9	575.8
714.307	583
714.715	574
715.123	582
715.53	580.4
715.938	589.6
716.367	577.6
716.775	570.4
717.184	567.8
717.592	571
718	586.6
718.408	601.8
718.816	612.4
719.225	576.6
719.633	582.2
720.042	565.8
720.472	575
720.881	600.8
721.29	586.8
721.699	575.6
722.108	583.2
722.517	580.6
722.926	569.8
723.335	585.6
723.744	573.2
724.154	577.6
724.563	583.8
724.973	577.2
725.382	576.8
725.792	578.8
726.202	566.6
726.612	590.2
727.022	572.8
727.432	579
779.813	573
780.223	614.4
780.634	577.2
781.044	565.2
781.454	582.8
781.865	586.4
782.276	566.6
782.686	588.2
783.097	574
783.508	582
783.919	577.6
784.33	586.2
784.741	587
785.152	570.2
785.563	565.2
785.974	572.8
786.386	587
786.776	573.8
787.188	580
787.599	566.4
788.011	581.6
788.423	579.6
788.835	573.6
789.247	573.2
789.659	568.6
790.071	574.8
790.483	618
790.874	575.4
791.286	585
791.699	569.8
792.111	578.6
792.524	572.8
792.937	580
793.349	567
793.741	568.8
794.154	573.8
794.567	582.2
794.98	580
795.393	563.6
795.785	586.8
796.198	575
796.612	577.4
797.026	572.6
797.439	560
797.831	571
798.245	564.6
798.659	569.4
799.073	571
799.487	563.4
799.88	573.6
800.294	575.2
800.708	578.2
801.123	581.2
801.516	588
801.93	562
802.345	566.8
802.76	578
803.153	580.2
803.568	579.8
803.983	583.2
804.377	584.4
804.792	565.6
805.207	571
805.601	579.4
806.016	607
806.432	570
806.826	598.2
807.242	590.6
807.658	569
808.052	570.4
808.468	571.4
808.884	574
809.279	572.6
809.695	593.4
810.111	592.4
810.506	586.8
810.922	594.4
811.339	574.4
811.734	584
812.151	574
812.546	576.6
812.963	574.6
813.38	587
813.776	578.2
814.193	593.2
814.589	570
815.006	574.8
815.402	570.4
815.82	571.6
816.237	566.6
816.633	576.2
817.051	572.6
817.448	579
817.866	570.2
818.262	598.8
818.68	567.4
819.077	575
819.495	581.6
819.892	614.4
820.311	572.4
820.708	567.4
821.127	576.2
821.524	583
821.943	579.6
822.34	584.8
822.759	577.8
823.157	575.2
823.576	589.8
823.974	574.8
824.393	608.2
824.791	569.2
825.189	567.8
825.609	564.6
826.007	576.8
826.427	557.6
826.826	573
827.246	578.6
827.644	559.4
828.043	580.8
828.463	571.4
828.862	583.6
829.261	581.4
829.682	566
830.081	577.2
830.502	566.8
830.901	572.2
831.301	587.2
831.722	559.2
832.121	576.6
832.521	570
832.943	578.6
833.342	576.2
833.742	570.4
834.164	573.2
834.564	574.8
834.965	575.2
835.386	574.4
835.787	564.8
836.188	577.8
836.588	578.4
837.01	579
837.411	570
837.812	581.2
838.213	574
838.636	572.4
839.037	637.4
839.438	577.2
839.84	574.8
840.263	576.4
840.664	573
841.066	571
841.468	575.4
841.891	574
842.293	589
842.695	576.6
843.098	578.2
843.5	569.6
843.902	577.2
844.326	576.4
844.729	579.4
845.131	587.4
845.534	575.8
845.937	588.8
846.34	590.4
846.764	569
847.167	578.2
847.571	567.2
847.974	574.8
848.377	570
848.781	622
849.184	588
849.588	576.6
849.992	577.6
850.396	579
850.821	587.2
851.225	575.4
851.63	572.8
852.034	591.6
852.438	575
852.843	603.2
853.247	563.8
853.652	579
854.057	591.4
854.462	569
854.867	573.8
855.272	597.8
855.677	578
