#lambda/nm	C1
208.295	534.8
208.67	480.6
209.045	447.4
209.419	445.2
209.794	616
210.169	595.2
210.544	704.8
210.919	622.4
211.295	602.4
211.67	605.4
212.045	607.2
212.421	605
212.796	638.6
213.172	603.4
213.547	604.6
213.923	596.8
214.299	604.2
214.675	608.4
215.051	611.2
215.427	611.6
215.803	626
216.179	610.6
216.555	600.4
216.932	614
217.308	611.6
217.684	601.8
218.061	619.6
218.438	607.2
218.814	604.4
219.191	610.6
219.568	600.2
219.945	601.2
220.322	613.4
220.699	615
221.076	612.6
221.453	609.2
221.83	597.4
222.208	601.2
222.585	596
222.962	607.2
223.34	602.8
223.717	612.4
224.095	602
224.473	611.2
224.851	598.2
225.229	595.2
225.607	612.4
225.985	592.4
226.363	610.4
226.741	604
227.119	601.4
227.497	615.4
227.876	592.4
228.254	608
228.633	603
229.011	601
229.39	598
229.769	600.2
230.148	605
230.527	621.8
230.905	607.8
231.284	610.2
231.664	599.8
232.043	617.8
232.422	611.2
232.801	608
233.181	608
233.56	607.6
233.94	609.8
234.319	600
234.699	597
235.079	644.4
235.458	637
235.838	620.4
236.218	595.6
236.598	600.4
236.978	597.8
237.358	602.6
237.738	594.2
238.119	612.4
238.499	594.4
238.88	607.2
239.26	621.8
239.641	602.4
240.021	607
240.402	610.8
240.783	604
241.163	605.4
241.544	600
241.925	602.2
242.306	623.2
242.687	609.4
243.069	612.4
243.45	612.8
243.831	597.2
244.212	606
244.594	643.6
244.975	616.2
245.357	613.8
245.739	601.4
246.12	607
246.502	628.2
246.884	608.6
247.266	597.6
247.648	607.4
248.03	618
248.412	604.8
248.794	608.6
249.176	610.4
249.559	611.2
249.941	600.6
250.323	600
250.706	599
251.089	608.2
251.471	613.4
251.854	603.4
252.237	601.8
252.62	614.4
253.002	611.6
253.385	605.2
253.769	615.6
254.152	603.2
254.535	612
254.918	594.8
255.301	594
255.685	592.8
256.068	596.4
256.452	626.8
256.835	619.4
257.219	612.4
257.603	615.6
257.986	595.6
258.37	608.4
258.754	592
259.138	604.6
259.522	611.6
259.906	602
260.29	606.6
260.675	597
261.059	612.4
261.443	599.8
261.828	607.6
262.212	616.4
262.597	592.8
262.981	599.8
263.366	613
263.751	609.2
264.136	602.2
264.521	603.6
264.906	597.8
265.291	617.2
265.676	606.2
266.061	607.4
266.446	620.8
266.831	607.2
267.217	630.6
267.602	612.6
267.987	608.4
268.373	606.6
268.759	606.4
269.144	613.2
269.53	604.2
269.916	604
270.302	607.2
270.688	611
271.074	605
271.46	615.8
271.846	630.8
272.232	610.4
272.618	604.2
273.004	603.4
273.391	619.4
273.777	614.4
274.164	613.8
274.55	618.4
274.937	605.2
275.324	609.8
275.71	613.2
276.097	616.2
276.484	603
276.871	610.2
277.258	615
277.645	590.6
278.032	608
278.419	599.8
278.807	610
279.194	602.8
279.581	601.2
279.969	613.2
280.356	612
280.744	611.4
281.131	622
281.519	612.4
281.907	607.8
282.295	604
282.682	615.8
283.07	606.6
283.458	615.6
283.846	611
284.235	621.8
284.623	620
285.011	598
285.399	612.2
285.788	607.6
286.176	592.8
286.565	619.6
286.953	599.8
287.342	610.2
287.731	601
288.119	605.4
288.508	601.2
288.897	611
289.286	601
289.675	604
290.064	612.6
290.453	605.4
290.821	607.8
291.21	619
291.599	594.8
291.989	610
292.378	606.8
292.768	623.6
293.157	611.6
293.547	604.6
293.936	608.4
294.326	598.8
294.716	613.8
295.106	598.4
295.496	613.6
295.886	612.8
296.276	600.6
296.666	598
297.056	604.4
297.446	602.8
297.836	612.6
298.227	603
298.617	610.2
299.008	623.6
299.398	605.8
299.789	599
300.179	611
300.57	621
300.961	599.8
301.352	610
301.742	608.4
302.133	609.4
302.524	611.6
302.915	613.4
303.307	596.8
303.698	621.8
304.089	619
304.48	613.8
304.872	606.6
305.263	606.4
305.655	606.2
306.046	621.4
306.438	604.6
306.829	600.4
307.221	619.8
307.613	612.6
308.005	611.2
308.397	626.2
308.789	624.6
309.181	622
309.573	623.8
309.965	613.8
310.357	605.6
310.749	613.6
311.142	603
311.534	604.4
311.926	620.4
312.319	609.4
312.711	605.2
313.104	627.2
313.497	609.2
313.889	638.8
314.282	624.4
314.675	637
315.068	606.2
315.461	619.8
315.854	633
316.247	609.2
316.64	613.6
317.033	612.8
317.405	610.2
317.798	608
318.192	621
318.585	602.2
318.979	618.4
319.372	611.4
319.766	600.4
320.16	618.4
320.553	622.6
320.947	619.4
321.341	598.8
321.735	612.8
322.129	595.6
322.523	625.6
322.917	598.8
323.311	611
323.705	605
324.099	621.4
324.494	625
324.888	614
325.282	605.6
325.677	612.8
326.071	608.8
326.466	616.8
326.861	605.4
327.255	617.2
327.65	617.8
328.045	618.6
328.44	609.6
328.835	601.8
329.23	597.6
329.625	625.2
330.02	600.4
330.415	626.2
330.81	610.2
331.206	604.6
331.601	600.4
331.996	612.8
332.37	627.2
332.766	600.6
333.161	640.8
333.557	611
333.953	610.2
334.348	950
334.744	611.8
335.14	603.4
335.536	602.6
335.932	613.6
336.328	599
336.724	616.8
337.12	614.2
337.516	605.8
337.913	609.8
338.309	615
338.705	609.2
339.102	622.6
339.498	599.4
339.895	623.8
340.291	598.6
340.688	615
341.085	603.2
341.481	609.2
341.878	609.6
342.275	628
342.672	603.4
343.069	600.4
343.466	592
343.842	615.8
344.239	601.4
344.636	602.4
345.033	592.4
345.431	601.6
345.828	608.6
346.225	600
346.623	633.2
347.02	602.8
347.418	617
347.816	620.8
348.213	596
348.611	610.6
349.009	603
349.407	613
349.805	596.6
350.203	590.2
350.601	614.6
350.999	600.4
351.397	655.6
351.795	605.4
352.193	613.2
352.57	605.6
352.969	614.6
353.367	598
353.766	592.6
354.164	596.2
354.563	611.4
354.961	604
355.36	604
355.759	598.8
356.158	597
356.557	599.8
356.956	595.8
357.355	597
357.754	607.8
358.153	600.8
358.552	619.8
358.951	601.8
359.35	615.6
359.75	595.2
360.149	595.6
360.527	596.2
360.926	598.4
361.326	606
361.726	607.4
362.125	590.2
362.525	607.4
362.925	601
363.325	601.4
363.724	599.8
364.124	597.2
364.524	594.6
364.924	597.4
365.324	614.6
365.725	595
366.125	604
366.525	599.8
366.904	602.8
367.304	588.8
367.705	627
368.105	614.8
368.506	597
368.906	600.8
369.307	601.6
369.708	611.4
370.108	593
370.509	615.4
370.91	593.4
371.311	598.8
371.712	604.4
372.113	604.6
372.514	587.8
372.894	596.6
373.295	593.6
373.696	605.6
374.097	611.6
374.499	628.4
374.9	601.8
375.301	596.8
375.703	606.8
376.105	599.8
376.506	607.8
376.908	609.2
377.309	605.6
377.711	605.2
378.113	594.2
378.493	603.8
378.895	590.2
379.297	609.4
379.699	592
380.102	607
380.504	601.6
380.906	598.4
381.308	621.4
381.71	608.2
382.113	606.4
382.515	606
382.918	597
383.299	599.2
383.701	603.6
384.104	604.2
384.507	578.8
384.909	602.2
385.312	578
385.715	587
386.118	597.8
386.521	592.6
386.924	605.6
387.327	598.4
387.709	590.6
388.112	582.8
388.515	589.2
388.918	596.2
389.322	601
389.725	597.6
390.129	620.4
390.532	592.6
390.936	594
391.339	592.4
391.743	597.4
392.125	589
392.529	601.4
392.933	606
393.337	598.4
393.74	590.8
394.144	586.6
394.548	591.6
394.953	594
395.357	611.8
395.761	599.4
396.144	601.8
396.548	595
396.952	596.8
397.357	598
397.761	590.2
398.166	595.2
398.57	597.4
398.975	589.4
399.379	595.8
399.763	643.6
400.168	599.2
400.572	596.6
400.977	590.6
401.382	612.6
401.787	612.4
402.192	613.6
402.597	616
403.002	590
403.386	614.6
403.791	614
404.197	593.4
404.602	598.2
405.007	596.8
405.413	599.2
405.818	603.8
406.224	597
406.608	597.2
407.014	594.4
407.42	613.4
407.825	594.8
408.231	607.8
408.637	608.4
409.043	609
409.449	602.6
409.834	586.6
410.24	599
410.646	610.2
411.052	612.8
411.458	607.6
411.865	611.4
412.271	619
412.677	609.4
413.062	604
413.469	589.8
413.875	625.8
414.282	609.2
414.689	605.8
415.095	604.6
415.502	602.4
415.888	597
416.294	583.2
416.701	630.8
417.108	584
417.515	603.4
417.923	594.8
418.33	611.6
418.715	605.6
419.123	601.8
419.53	591.6
419.937	602.8
420.345	612.6
420.752	594.4
421.16	610.8
421.546	603.8
421.953	608.4
422.361	598
422.769	601.2
423.177	594.4
423.585	620.4
423.992	616
424.379	608.4
424.787	598.6
425.195	616.6
425.603	596.8
426.011	617.6
426.419	615.8
426.806	596
427.214	606
427.623	608
428.031	616.6
428.44	611.4
428.848	619.4
429.235	614.8
429.644	605.2
430.053	599.8
430.461	612
430.87	617.6
431.279	609.8
431.666	593
432.075	599.8
432.484	607.2
432.893	597.4
433.302	625
433.711	642.6
434.099	607.2
434.508	599.2
434.918	590.8
435.327	612
435.737	607
436.125	608.2
436.534	597.8
436.944	610.4
437.353	608.4
437.763	618.6
438.173	587.6
438.561	610.2
438.971	590
439.381	596.8
439.791	600.4
440.201	585.6
440.589	599
440.999	603.8
441.409	608
441.819	586.6
442.23	603.8
442.619	597.6
443.029	598
443.439	593.6
443.85	607.4
444.26	616.2
444.649	608.2
445.06	603.8
445.471	592.4
445.881	601.6
446.292	606.2
446.682	613.4
447.092	586.6
447.503	647.4
447.914	603
448.325	607.6
448.715	604.6
449.126	597.8
449.537	598.4
449.948	599.2
450.338	596.6
450.75	607.8
451.161	591
451.572	599
451.984	590.2
452.374	577
452.786	590.4
453.197	594.8
453.609	598
453.999	585.2
454.411	594
454.823	608.2
455.235	597.6
455.647	592.2
456.037	602
456.449	582.6
456.862	589.2
457.274	591
457.665	585.8
458.077	604.2
458.489	626.2
458.902	591.2
459.293	604.4
459.705	606.2
460.118	591.4
460.53	609.6
460.921	607
461.334	596.6
461.747	604.2
462.16	606.4
462.551	605
462.964	598.8
463.377	594
463.79	595.2
464.182	609.8
464.595	597.6
465.008	598
465.421	600.8
465.813	596.8
466.226	605.2
466.64	592.4
467.053	648.2
467.445	596.4
467.859	614
468.272	602.8
468.686	609.4
469.078	595.2
469.492	586.8
469.906	603.2
470.298	606.2
470.712	597
471.126	638
471.54	579.4
471.933	586.2
472.347	589
472.761	592.8
473.175	589.8
473.568	593.4
473.982	587.8
474.397	596.6
474.79	601.8
475.204	601.2
475.619	590.8
476.033	590.2
476.426	601.6
476.841	593
477.256	618.4
477.649	589.6
478.064	591.2
478.479	586.8
478.872	586.2
479.287	585
479.702	590.4
480.118	599.6
480.511	589.8
480.927	605.6
481.342	583.2
481.736	599.4
482.151	580.8
482.566	598
482.96	590.6
483.376	602.4
483.792	582.6
484.186	592.8
484.602	591.4
485.017	594.2
485.412	584.2
485.827	598
486.243	586.6
486.638	607.2
487.054	598.4
487.47	605
487.865	590.8
488.281	582
488.697	586
489.092	587.2
489.508	583
489.925	600.4
490.32	579.4
490.736	598.2
491.153	596.6
491.548	599.8
491.964	598.6
492.381	584.2
492.776	597
493.193	590.2
493.61	599.2
494.006	583.8
494.422	598.4
494.84	578.6
495.235	600
495.652	599.8
496.069	594.8
496.465	588.8
496.883	588.8
497.3	619.6
497.696	588.2
498.113	599.6
498.509	577.6
498.927	585
499.344	590.4
499.741	592.2
500.158	598.2
500.576	600
500.973	595.2
501.39	588.4
501.787	588.4
502.205	596.2
502.623	588.2
503.02	581
503.438	593
503.856	588.2
504.253	597.8
504.671	591.4
505.068	590.8
505.486	592.2
505.905	610.4
506.302	597
506.72	602
507.118	590.6
507.536	585
507.955	592.6
508.352	596.8
508.771	599.8
509.169	598
509.587	587
510.006	592.8
510.404	578.8
510.823	580
511.221	590.2
511.64	586.4
512.038	604.8
512.457	583.2
512.877	585.2
513.275	584.6
513.694	585.4
514.092	585.2
514.512	597
514.91	591.6
515.33	590.6
515.749	584.2
516.148	582.4
516.568	594
516.966	585.2
517.386	586
517.785	586.6
518.205	584.8
518.603	584.6
519.024	585
519.444	593.4
519.843	593.8
520.263	601
520.662	586.6
521.082	579.6
521.481	593.4
521.902	581.2
522.301	590
522.722	590.6
523.121	590.2
523.542	580
523.963	588
524.362	589.2
524.783	584.8
525.183	587.8
525.604	592
526.003	580.2
526.425	579.6
526.824	588.8
527.246	593
527.646	599.4
528.067	599.4
528.467	591
528.888	593.6
529.289	584.4
529.71	595.2
530.11	586.8
530.532	587.4
530.932	581.4
531.354	585.4
531.755	620.8
532.176	591.8
532.577	593.2
532.999	588
533.4	580.8
533.822	603
534.223	598.2
534.645	581.8
535.046	582.6
535.468	589.2
535.869	604.8
536.292	580.8
536.693	612.6
537.115	587.8
537.516	584.2
537.939	584.8
538.34	611.2
538.742	608
539.165	592.4
539.566	587.2
539.989	579.6
540.391	580.8
540.814	587.4
541.216	586.6
541.639	585.6
542.041	592.6
542.464	588.8
542.866	586.4
543.268	581.6
543.691	593.4
544.093	595.8
544.517	603.6
544.919	584.6
545.343	611.2
545.745	581.8
546.147	598.2
546.571	584
546.974	579.2
547.398	590.2
547.8	595.4
548.224	581
548.627	584.4
549.03	595.2
549.454	582.4
549.857	577
550.281	578.4
550.684	585.8
551.087	593.6
551.512	586.8
551.915	592.4
552.34	585.2
552.743	582.8
553.146	589.8
553.571	586.6
553.975	599.8
554.399	582.6
554.803	631
555.207	585.2
555.632	581.2
556.036	587.4
556.461	582.8
556.865	590
557.268	578.4
557.694	587.2
558.098	585.8
558.502	586
558.927	584.4
559.332	594.8
559.736	593.2
560.162	586.6
560.566	587.6
560.992	592.6
561.396	596.6
561.801	586.2
562.227	594.2
562.631	591.6
563.036	587.2
563.462	599.2
563.867	588.2
564.272	583.4
564.698	593.2
565.103	587
565.508	608.6
565.935	587.8
566.34	588.2
566.745	597.6
567.172	588.8
567.577	608.8
567.982	599.2
568.409	595.6
568.815	585
569.22	580.6
569.626	588.8
570.053	569.8
570.459	587
570.865	590
571.292	588.8
571.698	588.2
572.104	575.2
572.531	588.4
572.937	593.8
573.343	585.2
573.75	585.8
574.177	588
574.583	600.8
574.99	587.8
575.396	591
575.824	583.2
576.231	600.8
576.637	580.2
577.065	608.4
577.472	592
577.879	586.4
578.286	601.8
578.714	581.2
579.121	589.6
579.528	579.6
579.935	593.6
580.364	586
580.771	575
581.178	578.8
581.585	582.8
582.014	590.4
582.421	581.4
582.829	580
583.236	590.6
583.644	576.6
584.073	579
584.481	581
584.889	577.6
585.296	582.2
585.726	581.2
586.134	574.4
586.542	578
586.95	591
587.358	573
587.787	587
588.196	597.8
588.604	578.8
589.012	579.4
589.421	582.8
589.851	580
590.259	584.4
590.668	579
591.076	616.2
591.485	574
591.894	585.4
592.324	596.6
592.733	591.6
593.142	574
593.551	577.8
593.96	585
594.369	570.6
594.8	577.4
595.209	583.2
595.618	562.4
596.028	578
596.437	574.6
596.847	593.4
597.256	582.4
597.687	587.8
598.097	582.4
598.507	578.4
598.917	583.2
599.327	593.8
599.736	587.8
600.146	592.2
600.556	593.8
600.988	593.2
601.398	580.6
601.808	604.6
602.219	573.6
602.629	585.8
603.039	593.2
603.45	609.8
603.86	584.4
604.271	594.4
604.703	583.4
605.114	582.2
605.525	593
605.935	593
606.346	602.2
606.757	592.6
607.168	583.8
607.579	586
607.99	598.2
608.402	586.8
608.813	576
609.224	576.4
609.636	573.2
610.047	577.8
610.48	588.2
610.892	595.8
611.303	596
611.715	578.8
612.127	575.6
612.539	578.2
612.95	591.4
613.362	570.4
613.774	569.8
614.186	577
614.599	583.4
615.011	595.2
615.423	584.2
615.835	577
616.248	583.8
616.66	584
617.073	577.6
617.485	573.8
617.898	589.4
618.311	578.4
618.723	578.4
619.136	601
619.549	592.8
619.962	599.2
620.375	581.8
620.788	582.4
621.201	578.6
621.614	585.2
622.028	572
622.441	589.6
622.854	597.2
623.268	579.6
623.681	584.6
624.095	585.2
624.509	590.2
624.922	592.6
625.336	575.4
625.728	575.6
626.142	589.8
626.556	598.4
626.97	592.4
627.384	580.4
627.799	585
628.213	594.2
628.627	583.6
629.041	577.8
629.456	577.2
629.87	576.6
630.285	588.4
630.699	603.6
631.093	591.8
631.507	590.4
631.922	590.6
632.337	599.4
632.752	579.6
633.167	584
633.582	578.8
633.997	573.2
634.412	576.4
634.806	584
635.221	579
635.637	594.4
636.052	568
636.468	591.4
636.883	586.6
637.299	582.4
637.715	576
638.109	580.4
638.525	572.2
638.941	595
639.357	579
639.773	591.8
640.189	575.4
640.584	592.6
641	584
641.416	575.2
641.832	584.4
642.249	580.6
642.665	578
643.06	594.2
643.477	593.4
643.894	568.2
644.31	579.2
644.727	581.8
645.123	582.2
645.54	572
645.957	580.2
646.374	592.4
646.77	585.4
647.187	607.4
647.604	582
648.021	569.6
648.439	576.4
648.835	578.4
649.252	578.4
649.67	582.4
650.088	580.2
650.484	587.2
650.902	585.8
651.32	591.2
651.738	578.2
652.134	589.6
652.552	600.8
652.971	583.2
653.389	574.8
653.786	594.6
654.204	602.4
654.622	581.2
655.019	588.8
655.438	589
655.857	582.2
656.275	591.8
656.673	585
657.091	594
657.51	583.4
657.908	594.4
658.327	592.6
658.746	571
659.144	581.2
659.563	602.6
659.982	587.6
660.38	569
660.8	585.8
661.219	593.8
661.617	583.8
662.037	583.6
662.457	598
662.855	563.4
663.275	613.8
663.695	580
664.094	578.6
664.514	591
664.934	569.8
665.333	580.8
665.753	584.6
666.152	569.4
666.572	573.4
666.993	593.4
667.392	585.4
667.812	579.4
668.212	589.4
668.632	598.6
669.053	581
669.453	591.4
669.874	584
670.273	584
670.694	579.8
671.116	593
671.515	591.8
671.937	579.2
672.337	579.6
672.758	574.8
673.158	591.6
673.58	576
673.98	588.4
674.402	597.8
674.824	578.6
675.224	576
675.646	568.2
676.047	573.4
676.469	587.6
676.869	577.6
677.292	578
677.693	575.2
678.115	572.4
678.516	587.2
678.939	577
679.34	571.2
679.762	587.2
680.164	586.6
680.586	568.4
680.988	580.2
681.411	600
681.812	576.2
682.236	576.4
682.637	573
683.061	567.4
683.462	583.4
683.864	576.8
684.288	581
684.69	567.8
685.114	598.8
685.516	589.2
685.94	574
686.342	579.2
686.766	576.2
687.168	583
687.571	594.8
687.995	578.2
688.398	573.2
688.822	579.2
689.225	590.4
689.628	596.2
690.052	579.2
690.456	584.4
690.88	581.2
691.284	571.4
691.687	589.6
692.112	566
692.515	577.8
692.919	586
693.344	589.2
693.747	574.6
694.173	577.4
694.577	593.4
694.98	583.6
695.406	575
695.81	597
696.214	580.4
696.64	581.2
697.044	582.6
697.448	591
697.874	583.4
698.279	579.4
698.684	560
699.11	576
699.514	575.4
699.919	572.8
700.324	580.8
700.75	584.6
701.156	582.4
701.561	587.8
701.987	589.6
702.393	586.2
702.798	597
703.203	582
703.63	577.2
704.036	579
704.442	577.4
704.847	576.2
705.274	585
705.68	582
706.086	583.8
706.492	577.4
706.92	580.8
707.326	587.2
707.732	579.6
708.139	568.2
708.545	571
708.973	578
709.38	575.8
709.786	570.8
710.193	594.8
710.6	583.4
711.028	579.8
711.435	580.8
711.842	583.2
712.249	571.8
712.656	578.2
713.064	585.6
713.492	564.4
713.9	567.6
714.307	592.6
714.715	567.6
715.123	583.6
715.53	579.4
715.938	587.4
716.367	582.8
716.775	579.2
717.184	565.8
717.592	576.4
718	584.4
718.408	603
718.816	618
719.225	588.4
719.633	580.6
720.042	569.8
720.472	574.6
720.881	586.8
721.29	584.8
721.699	573.8
722.108	580.2
722.517	580.2
722.926	574.2
723.335	587
723.744	583.4
724.154	583.2
724.563	576
724.973	567.4
725.382	583.8
725.792	574.4
726.202	575.6
726.612	598.2
727.022	583.8
727.432	579.6
779.813	575.6
780.223	619.4
780.634	582.6
781.044	570.8
781.454	579
781.865	597.4
782.276	570.2
782.686	591.2
783.097	572.6
783.508	578
783.919	589.8
784.33	585.6
784.741	586.6
785.152	574.8
785.563	561.2
785.974	577.4
786.386	583.2
786.776	567.6
787.188	574
787.599	566.6
788.011	582
788.423	583.8
788.835	577.4
789.247	570.4
789.659	572.8
790.071	580.8
790.483	617.8
790.874	584.2
791.286	592.4
791.699	581.8
792.111	575.8
792.524	582.2
792.937	573
793.349	575
793.741	570.2
794.154	574.2
794.567	589
794.98	567
795.393	558.6
795.785	585.4
796.198	568.8
796.612	578.4
797.026	572
797.439	556.6
797.831	569.4
798.245	573.4
798.659	572.6
799.073	577.6
799.487	568.6
799.88	585.8
800.294	574
800.708	578.2
801.123	579.4
801.516	598.4
801.93	569.4
802.345	563.4
802.76	578
803.153	581.4
803.568	582.6
803.983	590.8
804.377	579.6
804.792	567.2
805.207	568.6
805.601	580.4
806.016	611
806.432	572.8
806.826	605.8
807.242	590.6
807.658	580.2
808.052	577
808.468	566.2
808.884	567.8
809.279	581.6
809.695	586
810.111	593.2
810.506	572.8
810.922	592
811.339	569.6
811.734	578.2
812.151	567.4
812.546	569.4
812.963	580.2
813.38	586.4
813.776	573.2
814.193	594.8
814.589	574.2
815.006	578.4
815.402	574.4
815.82	567
816.237	568.8
816.633	578.8
817.051	569.2
817.448	577.8
817.866	567.6
818.262	593
818.68	572.2
819.077	573.8
819.495	577.2
819.892	612.6
820.311	575.2
820.708	582.8
821.127	578
821.524	578.2
821.943	573
822.34	592.6
822.759	585.6
823.157	581.2
823.576	593.8
823.974	581.4
824.393	617.2
824.791	577.4
825.189	564.2
825.609	577.6
826.007	569.4
826.427	561.6
826.826	560.4
827.246	574.2
827.644	557.4
828.043	583.4
828.463	569.8
828.862	582.2
829.261	575
829.682	571.4
830.081	576.6
830.502	565.8
830.901	578
831.301	598.8
831.722	565.6
832.121	573.6
832.521	565.8
832.943	577.6
833.342	579.8
833.742	565
834.164	580.2
834.564	566.2
834.965	573.8
835.386	573.2
835.787	572.4
836.188	573.4
836.588	573.4
837.01	579.4
837.411	573.2
837.812	576.6
838.213	576.6
838.636	568.6
839.037	642.2
839.438	583.2
839.84	574.2
840.263	576.4
840.664	574.6
841.066	573.6
841.468	584
841.891	562.8
842.293	584.2
842.695	579
843.098	582.4
843.5	578.2
843.902	579.2
844.326	581.8
844.729	574.6
845.131	589.4
845.534	580.4
845.937	589.8
846.34	593
846.764	567.6
847.167	577.6
847.571	567.8
847.974	577
848.377	569.4
848.781	614.6
849.184	579.8
849.588	570.4
849.992	569.4
850.396	581.2
850.821	593.4
851.225	576.2
851.63	575.4
852.034	587.4
852.438	576
852.843	601.4
853.247	561.6
853.652	572.6
854.057	595.6
854.462	573
854.867	580
855.272	596.4
855.677	578.2
856.082	570.8
856.487	565.6
856.893	573.4
