#lambda/nm	C1
208.295	555.4
208.67	496.4
209.045	458.2
209.419	454
209.794	592.4
210.169	582.2
210.544	683.4
210.919	594.2
211.295	585.8
211.67	591.6
212.045	590.8
212.421	583
212.796	624.8
213.172	586
213.547	586.2
213.923	585.6
214.299	586.2
214.675	603.8
215.051	596.6
215.427	598.2
215.803	613.6
216.179	597.8
216.555	587.2
216.932	598.6
217.308	598
217.684	596.4
218.061	602.8
218.438	594
218.814	589.8
219.191	601.4
219.568	586.8
219.945	585
220.322	598.2
220.699	600.4
221.076	596
221.453	590.4
221.83	580.6
222.208	588
222.585	591.2
222.962	591.4
223.34	592
223.717	591
224.095	596.8
224.473	589
224.851	586
225.229	577.6
225.607	600.4
225.985	581.6
226.363	596.6
226.741	589.4
227.119	585.4
227.497	600.6
227.876	580
228.254	604.4
228.633	595.2
229.011	600.2
229.39	597.2
229.769	598
230.148	592.4
230.527	603.6
230.905	589.4
231.284	607.6
231.664	583
232.043	591
232.422	592.6
232.801	590.2
233.181	596.2
233.56	587.2
233.94	597.2
234.319	577.8
234.699	590.6
235.079	621
235.458	622.6
235.838	601.6
236.218	589
236.598	588.2
236.978	582.4
237.358	593.8
237.738	590.6
238.119	595
238.499	580
238.88	586.6
239.26	599.4
239.641	583.2
240.021	592.2
240.402	591.4
240.783	592
241.163	590.6
241.544	595.8
241.925	593.4
242.306	600
242.687	594.8
243.069	587.6
243.45	600.6
243.831	593
244.212	594.4
244.594	616.6
244.975	600.4
245.357	586.6
245.739	589
246.12	592
246.502	595.2
246.884	590.6
247.266	590.2
247.648	596.8
248.03	614.4
248.412	592.8
248.794	596
249.176	593
249.559	597
249.941	585.8
250.323	587
250.706	582.2
251.089	594.4
251.471	588.8
251.854	594.4
252.237	594.6
252.62	598.8
253.002	589.6
253.385	591.8
253.769	605.8
254.152	601.2
254.535	600.8
254.918	577.8
255.301	601.2
255.685	591.8
256.068	581.8
256.452	611.4
256.835	601.2
257.219	602
257.603	603.4
257.986	585.6
258.37	599
258.754	585
259.138	597.2
259.522	597.6
259.906	587.6
260.29	604.6
260.675	594.2
261.059	593.4
261.443	583.8
261.828	595.6
262.212	587.6
262.597	583.2
262.981	586.2
263.366	596.4
263.751	588.4
264.136	594.2
264.521	580.6
264.906	590
265.291	600
265.676	586.8
266.061	589.4
266.446	607
266.831	585.8
267.217	610.2
267.602	589.4
267.987	592.6
268.373	581.4
268.759	602.4
269.144	590.4
269.53	590.8
269.916	587.8
270.302	582.4
270.688	589.4
271.074	593
271.46	599.6
271.846	616
272.232	590.8
272.618	584.6
273.004	588.2
273.391	587.6
273.777	602.8
274.164	585.6
274.55	600
274.937	588.2
275.324	586.2
275.71	597
276.097	589.6
276.484	589
276.871	595.2
277.258	591.4
277.645	583.4
278.032	585.4
278.419	588.8
278.807	591.4
279.194	577
279.581	584
279.969	594.4
280.356	588.4
280.744	588.6
281.131	600.6
281.519	594.8
281.907	587.6
282.295	579
282.682	599.8
283.07	584.6
283.458	604.4
283.846	604
284.235	600
284.623	600.4
285.011	585
285.399	591.2
285.788	590.8
286.176	581.4
286.565	603.2
286.953	591.2
287.342	591.2
287.731	587.8
288.119	578.6
288.508	592
288.897	597.2
289.286	574
289.675	602.6
290.064	588.4
290.453	593.4
290.821	591.2
291.21	600.2
291.599	587.4
291.989	587.2
292.378	597.4
292.768	609.6
293.157	594
293.547	599.2
293.936	582.2
294.326	589.2
294.716	597.8
295.106	588.2
295.496	599.6
295.886	601
296.276	582.8
296.666	583.4
297.056	574.6
297.446	572
297.836	602.2
298.227	586.8
298.617	581.6
299.008	605.6
299.398	592.8
299.789	587.8
300.179	593.8
300.57	598.2
300.961	579.6
301.352	592.8
301.742	596
302.133	588
302.524	589.6
302.915	590
303.307	588.2
303.698	597.6
304.089	587
304.48	586.8
304.872	594.2
305.263	589.8
305.655	583.2
306.046	586.4
306.438	599.2
306.829	579.8
307.221	603
307.613	591.8
308.005	597
308.397	602.4
308.789	608
309.181	600.8
309.573	604.6
309.965	598.8
310.357	585.4
310.749	597.4
311.142	581.8
311.534	585.4
311.926	599.2
312.319	589.8
312.711	587
313.104	607.4
313.497	594.6
313.889	619.8
314.282	604.2
314.675	604.8
315.068	589.8
315.461	591
315.854	618.6
316.247	598.2
316.64	595.6
317.033	598.4
317.405	598
317.798	592.4
318.192	602
318.585	586.6
318.979	600.2
319.372	590.8
319.766	591.2
320.16	596.4
320.553	597.8
320.947	610.6
321.341	592.8
321.735	595.8
322.129	582
322.523	610.2
322.917	581.6
323.311	596.6
323.705	594.6
324.099	595
324.494	607
324.888	598.8
325.282	593.4
325.677	603.4
326.071	592.4
326.466	599
326.861	601.8
327.255	609.4
327.65	600.2
328.045	598
328.44	596.8
328.835	589.6
329.23	592
329.625	612.8
330.02	588
330.415	611.6
330.81	596
331.206	588
331.601	587
331.996	599
332.37	611.6
332.766	574.4
333.161	609.8
333.557	592.8
333.953	592.4
334.348	896
334.744	585
335.14	592
335.536	590
335.932	604.2
336.328	588.6
336.724	603.4
337.12	592.2
337.516	599
337.913	592.4
338.309	611.6
338.705	592.8
339.102	609.6
339.498	583
339.895	608
340.291	593.6
340.688	600
341.085	580
341.481	590
341.878	588.8
342.275	617.6
342.672	586.8
343.069	586.6
343.466	579.6
343.842	592.6
344.239	585.8
344.636	588.6
345.033	580.8
345.431	589
345.828	595.4
346.225	583.8
346.623	610.8
347.02	589
347.418	597.4
347.816	598.8
348.213	581.8
348.611	593.6
349.009	581.6
349.407	601.2
349.805	582.8
350.203	575.6
350.601	595.8
350.999	587
351.397	623
351.795	592.4
352.193	596.6
352.57	597.2
352.969	595.6
353.367	584
353.766	585.4
354.164	585.2
354.563	601.4
354.961	589.6
355.36	583.6
355.759	583.6
356.158	581.4
356.557	579.6
356.956	582.4
357.355	576.4
357.754	593
358.153	585.4
358.552	614.8
358.951	590.6
359.35	592.2
359.75	579.6
360.149	576.2
360.527	580.2
360.926	574.6
361.326	597.6
361.726	581.4
362.125	576.2
362.525	592.8
362.925	586.2
363.325	583.4
363.724	595.4
364.124	588.2
364.524	576
364.924	583.6
365.324	591
365.725	573.8
366.125	589.2
366.525	584.6
366.904	572.8
367.304	574.2
367.705	594
368.105	592
368.506	580.4
368.906	583.6
369.307	574.4
369.708	586.8
370.108	576.8
370.509	582.8
370.91	574.6
371.311	577
371.712	580.4
372.113	581.6
372.514	572.2
372.894	583
373.295	579
373.696	593.6
374.097	585.6
374.499	609
374.9	581.2
375.301	574.4
375.703	582.6
376.105	573.8
376.506	591
376.908	589.8
377.309	586.2
377.711	584.6
378.113	586
378.493	581.6
378.895	573.2
379.297	591.8
379.699	569.8
380.102	590.4
380.504	585
380.906	580.4
381.308	606.8
381.71	585.4
382.113	591.2
382.515	580.8
382.918	585.6
383.299	575.6
383.701	595.8
384.104	580.6
384.507	572.8
384.909	586.6
385.312	574.6
385.715	574
386.118	588.2
386.521	569.4
386.924	590.2
387.327	581.2
387.709	570.6
388.112	573.6
388.515	581.4
388.918	580.6
389.322	587
389.725	582.6
390.129	600.4
390.532	583
390.936	575.2
391.339	571.4
391.743	587.6
392.125	574.6
392.529	589.4
392.933	593
393.337	583.8
393.74	579.6
394.144	582.4
394.548	568.2
394.953	578.6
395.357	583
395.761	573
396.144	582.2
396.548	580.6
396.952	577
397.357	574.6
397.761	567.4
398.166	574
398.57	580
398.975	572.2
399.379	581.2
399.763	620.4
400.168	583.4
400.572	581.8
400.977	578.8
401.382	593
401.787	586.2
402.192	595
402.597	590.8
403.002	569.8
403.386	592.6
403.791	592.8
404.197	578.8
404.602	584.2
405.007	581.2
405.413	574.4
405.818	577.2
406.224	573.8
406.608	581
407.014	576.2
407.42	588.8
407.825	582.8
408.231	589.2
408.637	587.2
409.043	594.8
409.449	582.4
409.834	574.2
410.24	587.2
410.646	589.6
411.052	592.6
411.458	587.6
411.865	587
412.271	584.6
412.677	581.2
413.062	586.4
413.469	582
413.875	603.6
414.282	588.4
414.689	586.8
415.095	589.2
415.502	579.6
415.888	585.2
416.294	570.4
416.701	620.8
417.108	580
417.515	583.8
417.923	578.4
418.33	595.4
418.715	591.8
419.123	584.6
419.53	580
419.937	584
420.345	599.4
420.752	578.8
421.16	598.2
421.546	582.4
421.953	591
422.361	580.8
422.769	582.2
423.177	575.8
423.585	607.4
423.992	598.2
424.379	585.4
424.787	588
425.195	597.8
425.603	593
426.011	594
426.419	601.4
426.806	583.4
427.214	585
427.623	592.6
428.031	597.2
428.44	589.6
428.848	591.8
429.235	604.2
429.644	591.8
430.053	585
430.461	597.8
430.87	612.6
431.279	586
431.666	583.8
432.075	585.4
432.484	596.8
432.893	589.4
433.302	604.4
433.711	622.8
434.099	598.4
434.508	580.6
434.918	574
435.327	594.8
435.737	580.8
436.125	585.6
436.534	590
436.944	584.2
437.353	589.8
437.763	602.8
438.173	585.4
438.561	594.8
438.971	576
439.381	591
439.791	581.2
440.201	568.6
440.589	588
440.999	594.8
441.409	589.2
441.819	572.8
442.23	595.2
442.619	589.2
443.029	585
443.439	582.8
443.85	591
444.26	596.8
444.649	594.6
445.06	587
445.471	579.4
445.881	585.6
446.292	601
446.682	598.4
447.092	571.4
447.503	630.4
447.914	587.8
448.325	568.6
448.715	581.8
449.126	582.6
449.537	583.2
449.948	580.2
450.338	584.8
450.75	595.8
451.161	586.2
451.572	593.6
451.984	586
452.374	570.6
452.786	582.8
453.197	578
453.609	583.4
453.999	573
454.411	575.2
454.823	589.2
455.235	588
455.647	578
456.037	580.8
456.449	569.4
456.862	585.4
457.274	581.6
457.665	579
458.077	582.4
458.489	600.8
458.902	578.2
459.293	579.2
459.705	583.6
460.118	573
460.53	583.6
460.921	578.6
461.334	581.4
461.747	580.2
462.16	593
462.551	599
462.964	588.6
463.377	573.4
463.79	586.2
464.182	592.8
464.595	571.2
465.008	580.2
465.421	581.6
465.813	584.6
466.226	588.8
466.64	566.4
467.053	616
467.445	581
467.859	596.4
468.272	585.4
468.686	584.2
469.078	581.2
469.492	564.4
469.906	583
470.298	588.4
470.712	568.8
471.126	622.6
471.54	565.6
471.933	572.6
472.347	578.4
472.761	574
473.175	565.8
473.568	576.2
473.982	558.6
474.397	579.2
474.79	572.8
475.204	584.8
475.619	575
476.033	574
476.426	578.8
476.841	566.8
477.256	598.8
477.649	567.6
478.064	570.8
478.479	574.4
478.872	571.4
479.287	557.6
479.702	577.2
480.118	576
480.511	574.4
480.927	584.2
481.342	570.4
481.736	581.2
482.151	571.6
482.566	587.8
482.96	581.6
483.376	588.2
483.792	572.6
484.186	581.2
484.602	577.2
485.017	571.6
485.412	570.4
485.827	582.2
486.243	587
486.638	605.4
487.054	582.8
487.47	596.2
487.865	579.4
488.281	577.6
488.697	573.4
489.092	579.2
489.508	573.6
489.925	586.2
490.32	567.2
490.736	579
491.153	576.8
491.548	578.8
491.964	571.4
492.381	562.6
492.776	578
493.193	569.2
493.61	581.4
494.006	569
494.422	574
494.84	566.6
495.235	576.4
495.652	574.6
496.069	574.4
496.465	564.6
496.883	569.2
497.3	599.2
497.696	565.4
498.113	576
498.509	573.2
498.927	564.4
499.344	565.8
499.741	563
500.158	581.8
500.576	588.2
500.973	577.6
501.39	574.4
501.787	568.2
502.205	571
502.623	571.6
503.02	563.8
503.438	562
503.856	573.2
504.253	566.2
504.671	577.6
505.068	567.2
505.486	576
505.905	589.8
506.302	582
506.72	592.6
507.118	573.6
507.536	571.4
507.955	574.4
508.352	573.4
508.771	573.2
509.169	577.2
509.587	567.8
510.006	572.2
510.404	566.6
510.823	570.2
511.221	572.6
511.64	578.4
512.038	576.6
512.457	571.8
512.877	581
513.275	570.8
513.694	574
514.092	572.6
514.512	564.2
514.91	581.4
515.33	568.2
515.749	579.6
516.148	576.6
516.568	581.4
516.966	574.8
517.386	566.8
517.785	573
518.205	571.6
518.603	567.6
519.024	568.2
519.444	578.2
519.843	581.6
520.263	584.8
520.662	576.2
521.082	564.8
521.481	573.6
521.902	573.4
522.301	580.6
522.722	575.4
523.121	570.2
523.542	577
523.963	572
524.362	580.2
524.783	579
525.183	572.4
525.604	578
526.003	576.4
526.425	568.2
526.824	577.4
527.246	577.8
527.646	586
528.067	573.6
528.467	574.2
528.888	581.4
529.289	573.4
529.71	577.2
530.11	573.2
530.532	578
530.932	577.8
531.354	564
531.755	604
532.176	581
532.577	567.8
532.999	576.2
533.4	567.6
533.822	583.6
534.223	586.8
534.645	574
535.046	570.2
535.468	571.2
535.869	595.2
536.292	576.4
536.693	604.4
537.115	573
537.516	567.6
537.939	567.2
538.34	595.4
538.742	583.2
539.165	582.2
539.566	573.4
539.989	567.8
540.391	565.6
540.814	576.2
541.216	575.6
541.639	568.8
542.041	582.2
542.464	573.8
542.866	569.2
543.268	565
543.691	578.8
544.093	578
544.517	587.4
544.919	554.6
545.343	588.8
545.745	568.2
546.147	570.4
546.571	574
546.974	571.4
547.398	573.4
547.8	587.4
548.224	574
548.627	575.2
549.03	575.8
549.454	570.2
549.857	566.6
550.281	568.6
550.684	564
551.087	582
551.512	571.6
551.915	574.4
552.34	568.4
552.743	565.6
553.146	574
553.571	575.4
553.975	588.2
554.399	562.4
554.803	614.6
555.207	564
555.632	566.8
556.036	579.2
556.461	565.6
556.865	570
557.268	566.2
557.694	568.2
558.098	582
558.502	574.4
558.927	572
559.332	565.8
559.736	569
560.162	572
560.566	574.4
560.992	571.4
561.396	567.8
561.801	565
562.227	575.8
562.631	563.2
563.036	564
563.462	575.4
563.867	573.4
564.272	555.4
564.698	572.8
565.103	566.6
565.508	579.6
565.935	569.4
566.34	568.2
566.745	581.2
567.172	570.8
567.577	585.2
567.982	577.8
568.409	581.8
568.815	562.6
569.22	570.2
569.626	572.8
570.053	552.6
570.459	572.8
570.865	572.4
571.292	574.6
571.698	574.6
572.104	562.4
572.531	565.8
572.937	572.6
573.343	572.6
573.75	567.4
574.177	577.8
574.583	572
574.99	572.6
575.396	577.8
575.824	563.2
576.231	579.2
576.637	567.6
577.065	588.6
577.472	563.2
577.879	567.2
578.286	587.4
578.714	569.6
579.121	575.8
579.528	569.8
579.935	584.6
580.364	572.6
580.771	558
581.178	569.6
581.585	572.8
582.014	575
582.421	561.8
582.829	568.4
583.236	583.8
583.644	561.6
584.073	574
584.481	561
584.889	568.6
585.296	568.4
585.726	571.8
586.134	568.4
586.542	565.4
586.95	576.4
587.358	556
587.787	568.2
588.196	575.2
588.604	568.4
589.012	567.8
589.421	560.8
589.851	565.8
590.259	562.8
590.668	563.2
591.076	590.6
591.485	558.8
591.894	564.2
592.324	578.6
592.733	577.6
593.142	555.8
593.551	566.2
593.96	574.8
594.369	568.6
594.8	565.6
595.209	567.4
595.618	556.6
596.028	566.4
596.437	564
596.847	568.4
597.256	577.6
597.687	569
598.097	570.6
598.507	565.2
598.917	568.4
599.327	576.2
599.736	571
600.146	578.2
600.556	576.8
600.988	578.4
601.398	561.2
601.808	577.2
602.219	556
602.629	570.6
603.039	571.4
603.45	586.4
603.86	568.2
604.271	585.6
604.703	573.6
605.114	569.2
605.525	569.4
605.935	572.8
606.346	586.8
606.757	582.4
607.168	571.6
607.579	565.2
607.99	584.8
608.402	574
608.813	575.4
609.224	565.8
609.636	555
610.047	567.2
610.48	580.4
610.892	572.8
611.303	574.4
611.715	572.6
612.127	569.4
612.539	566.6
612.95	575.2
613.362	562
613.774	560.8
614.186	559
614.599	563.2
615.011	583.4
615.423	571.2
615.835	571.2
616.248	562.6
616.66	576.2
617.073	562
617.485	566.2
617.898	579.6
618.311	570
618.723	573.6
619.136	592.4
619.549	582.8
619.962	594.8
620.375	567.4
620.788	576.6
621.201	570.4
621.614	574.8
622.028	573
622.441	576.2
622.854	584
623.268	567.4
623.681	568.8
624.095	569
624.509	571
624.922	568
625.336	564
625.728	576.8
626.142	575.8
626.556	594.4
626.97	576
627.384	564.2
627.799	576.4
628.213	579.6
628.627	569.4
629.041	566.6
629.456	564
629.87	573.8
630.285	575.8
630.699	574.4
631.093	572.2
631.507	580.4
631.922	577
632.337	580.4
632.752	567.8
633.167	574.4
633.582	566.6
633.997	574.4
634.412	568.6
634.806	574.4
635.221	570
635.637	576.6
636.052	559.4
636.468	576.4
636.883	584.6
637.299	561.6
637.715	558.6
638.109	568.2
638.525	563.2
638.941	585.4
639.357	583.4
639.773	582
640.189	575.6
640.584	571.8
641	570.6
641.416	566
641.832	571.4
642.249	567
642.665	574
643.06	577.2
643.477	578
643.894	554.2
644.31	574.2
644.727	567.4
645.123	569.8
645.54	562.4
645.957	578.4
646.374	578.2
646.77	565.2
647.187	596.2
647.604	573
648.021	556.2
648.439	564.8
648.835	575.4
649.252	566.4
649.67	567.8
650.088	569.8
650.484	564.4
650.902	572.6
651.32	568.8
651.738	565.8
652.134	568.8
652.552	577
652.971	570.8
653.389	567.6
653.786	579.8
654.204	583.4
654.622	566.2
655.019	563.8
655.438	566.6
655.857	572
656.275	572.2
656.673	561.2
657.091	573.2
657.51	570.6
657.908	577.6
658.327	581.6
658.746	557.2
659.144	562.4
659.563	568.4
659.982	569.4
660.38	555.8
660.8	570.8
661.219	562.6
661.617	573.2
662.037	565
662.457	574.4
662.855	558.8
663.275	587.8
663.695	568
664.094	570
664.514	566
664.934	562.2
665.333	574.6
665.753	564.8
666.152	560.8
666.572	563.8
666.993	579
667.392	564.8
667.812	564.4
668.212	556.6
668.632	573.6
669.053	564
669.453	570.2
669.874	562.2
670.273	563.2
670.694	553.2
671.116	570.4
671.515	577.6
671.937	566.8
672.337	559.2
672.758	561.8
673.158	563.8
673.58	556.8
673.98	570.6
674.402	578
674.824	566.8
675.224	563.6
675.646	556.6
676.047	558.2
676.469	564
676.869	574.6
677.292	569.8
677.693	555.8
678.115	568
678.516	577.6
678.939	574.6
679.34	568.2
679.762	582.2
680.164	569.4
680.586	558
680.988	559.2
681.411	591.4
681.812	559.2
682.236	559.6
682.637	561
683.061	560.2
683.462	575.6
683.864	555.4
684.288	563.6
684.69	554.8
685.114	570.6
685.516	576.8
685.94	561
686.342	570.8
686.766	556
687.168	557.4
687.571	575.8
687.995	564.6
688.398	555.2
688.822	561.8
689.225	568.4
689.628	586.8
690.052	566.8
690.456	570.8
690.88	566.6
691.284	550.6
691.687	575
692.112	563.2
692.515	554.4
692.919	567.6
693.344	567.4
693.747	566.2
694.173	560.4
694.577	568.2
694.98	566.2
695.406	568.6
695.81	570.8
696.214	565.4
696.64	573.2
697.044	569
697.448	577
697.874	566.4
698.279	558.2
698.684	558.8
699.11	559.6
699.514	572.2
699.919	562.4
700.324	560.6
700.75	556.4
701.156	556.2
701.561	573.6
701.987	575
702.393	581.2
702.798	573.6
703.203	565.6
703.63	567.8
704.036	567.4
704.442	561.8
704.847	560.8
705.274	571.2
705.68	568.8
706.086	573.6
706.492	556.2
706.92	569.6
707.326	573.2
707.732	566.8
708.139	559.2
708.545	560
708.973	557.4
709.38	563.6
709.786	549.2
710.193	579.6
710.6	562.8
711.028	557.2
711.435	559.8
711.842	568.8
712.249	560.2
712.656	563.4
713.064	571
713.492	554.2
713.9	562.6
714.307	560.2
714.715	572.6
715.123	563.8
715.53	563.8
715.938	566.8
716.367	567.6
716.775	563.6
717.184	555
717.592	559.6
718	582.8
718.408	591.6
718.816	597.2
719.225	567
719.633	565.2
720.042	555.8
720.472	565.6
720.881	580.4
721.29	562.8
721.699	561
722.108	566.8
722.517	564
722.926	568.8
723.335	571.4
723.744	561.4
724.154	567.4
724.563	564.6
724.973	572
725.382	569
725.792	565.8
726.202	563.8
726.612	585
727.022	568.6
727.432	564.8
779.813	560.4
780.223	607
780.634	568.8
781.044	559.2
781.454	560.2
781.865	575
782.276	559.2
782.686	574.8
783.097	561
783.508	566.8
783.919	566.4
784.33	572.8
784.741	571.2
785.152	559.4
785.563	555.8
785.974	563
786.386	564.2
786.776	559.4
787.188	566.4
787.599	560
788.011	565.6
788.423	571
788.835	562.2
789.247	553.6
789.659	562
790.071	564.4
790.483	598.8
790.874	557.6
791.286	566.4
791.699	563.8
792.111	563.6
792.524	563.6
792.937	567
793.349	551.8
793.741	562
794.154	560.2
794.567	574.8
794.98	566.8
795.393	557.6
795.785	571.2
796.198	562.2
796.612	561.6
797.026	560.6
797.439	548.4
797.831	569.8
798.245	550.4
798.659	552
799.073	554.4
799.487	555.6
799.88	567
800.294	558.2
800.708	568.6
801.123	564.6
801.516	569
801.93	543.6
802.345	546.8
802.76	563
803.153	575
803.568	566
803.983	566.6
804.377	557
804.792	559.2
805.207	552.2
805.601	563.6
806.016	589.2
806.432	554.8
806.826	584.8
807.242	569.4
807.658	557.4
808.052	559.6
808.468	553
808.884	549.6
809.279	566.4
809.695	568
810.111	579.8
810.506	567.4
810.922	576.6
811.339	555.6
811.734	561
812.151	560.4
812.546	554.6
812.963	565.2
813.38	559.4
813.776	561
814.193	577
814.589	555.4
815.006	559.6
815.402	564
815.82	556.4
816.237	558.2
816.633	562.2
817.051	554.4
817.448	565.6
817.866	556.2
818.262	575
818.68	557.4
819.077	556.2
819.495	560.8
819.892	590.4
820.311	554.8
820.708	565.4
821.127	553
821.524	570
821.943	565.8
822.34	580.4
822.759	566.4
823.157	561.6
823.576	569.2
823.974	576.6
824.393	576.8
824.791	563.6
825.189	553
825.609	557
826.007	560.4
826.427	545.4
826.826	557.6
827.246	560.2
827.644	547.2
828.043	564.6
828.463	556.2
828.862	574.4
829.261	564.2
829.682	551.4
830.081	563
830.502	555.4
830.901	568.2
831.301	571.2
831.722	553.4
832.121	561.2
832.521	558.6
832.943	556.8
833.342	558.6
833.742	553.2
834.164	560.2
834.564	545
834.965	555
835.386	556.8
835.787	557.4
836.188	555.4
836.588	562
837.01	553.8
837.411	557.6
837.812	562.4
838.213	562.2
838.636	557.4
839.037	616.4
839.438	565.2
839.84	560.8
840.263	568.4
840.664	567.2
841.066	552.6
841.468	569
841.891	547.8
842.293	570.2
842.695	563.8
843.098	564.8
843.5	561.8
843.902	562.2
844.326	565.4
844.729	560
845.131	570.2
845.534	567.4
845.937	572.6
846.34	572.2
846.764	548.6
847.167	556.6
847.571	555.4
847.974	551.4
848.377	563.2
848.781	603.4
849.184	571
849.588	568.2
849.992	555.6
850.396	559
850.821	579.6
851.225	567.2
851.63	559
852.034	565.4
852.438	559.2
852.843	627.6
853.247	550.4
853.652	564.4
854.057	577
854.462	569
854.867	567
855.272	584.4
855.677	563.2
856.082	559.4
