#lambda/nm	C1
208.295	537.6
208.67	489.2
209.045	444
209.419	449.4
209.794	603.6
210.169	585.2
210.544	696.4
210.919	605
211.295	595.4
211.67	604.4
212.045	606.4
212.421	599.8
212.796	641.6
213.172	591.8
213.547	596.6
213.923	597.6
214.299	597.4
214.675	606.8
215.051	604.2
215.427	611.4
215.803	623
216.179	613.6
216.555	594.6
216.932	607.6
217.308	612.6
217.684	596.2
218.061	606.4
218.438	604
218.814	598.4
219.191	606.4
219.568	595.4
219.945	601.2
220.322	602.6
220.699	611.6
221.076	610.2
221.453	605.2
221.83	597.2
222.208	602.6
222.585	601.2
222.962	608
223.34	610
223.717	596
224.095	595.6
224.473	602.6
224.851	594.2
225.229	593.8
225.607	618
225.985	593.4
226.363	602.4
226.741	603.4
227.119	594.8
227.497	604.6
227.876	595.2
228.254	608.4
228.633	610
229.011	599.6
229.39	607.2
229.769	607.6
230.148	608
230.527	615.6
230.905	605.4
231.284	610.4
231.664	598
232.043	615.6
232.422	610.4
232.801	596.6
233.181	602.4
233.56	600
233.94	602
234.319	591.6
234.699	605.4
235.079	638
235.458	640.6
235.838	616.8
236.218	592.6
236.598	584
236.978	589.4
237.358	586.8
237.738	591.2
238.119	598.8
238.499	593.8
238.88	602.8
239.26	612.2
239.641	593.6
240.021	597.4
240.402	604.4
240.783	589.6
241.163	596.6
241.544	604.4
241.925	598.6
242.306	611
242.687	608.2
243.069	600
243.45	606.6
243.831	594
244.212	599.6
244.594	633.4
244.975	606.2
245.357	598.2
245.739	604.8
246.12	606.6
246.502	620.4
246.884	601.6
247.266	596.4
247.648	601.8
248.03	616.4
248.412	607
248.794	602.6
249.176	591.2
249.559	616.4
249.941	599.6
250.323	585.6
250.706	595
251.089	600.2
251.471	600.2
251.854	595.6
252.237	597.2
252.62	609.4
253.002	599
253.385	599.4
253.769	616
254.152	604
254.535	616.4
254.918	592
255.301	598.2
255.685	597.4
256.068	590
256.452	626.2
256.835	611.4
257.219	607.6
257.603	608
257.986	594.4
258.37	611.2
258.754	592.6
259.138	606.4
259.522	617
259.906	600.8
260.29	608
260.675	601.2
261.059	607.8
261.443	594.4
261.828	604.2
262.212	600.8
262.597	588.4
262.981	595.6
263.366	606.8
263.751	601.2
264.136	601.2
264.521	601.2
264.906	596.6
265.291	613.8
265.676	598.8
266.061	610.6
266.446	614.6
266.831	604
267.217	614.6
267.602	606.4
267.987	603
268.373	593
268.759	611.2
269.144	617.6
269.53	603.8
269.916	597.8
270.302	597
270.688	599.6
271.074	609.6
271.46	614.4
271.846	636.6
272.232	602.6
272.618	603.4
273.004	596.4
273.391	617.8
273.777	613
274.164	607
274.55	618.4
274.937	608.8
275.324	597.6
275.71	612.2
276.097	610.2
276.484	599.6
276.871	606.2
277.258	605.4
277.645	590.4
278.032	597.4
278.419	600
278.807	603
279.194	598
279.581	592.8
279.969	609
280.356	600
280.744	601
281.131	632.6
281.519	618.4
281.907	598.2
282.295	600.6
282.682	616.2
283.07	605
283.458	611.8
283.846	611.4
284.235	612.8
284.623	607.2
285.011	606.2
285.399	608
285.788	599
286.176	586
286.565	622.2
286.953	603
287.342	600.6
287.731	594.4
288.119	599
288.508	603.4
288.897	601.6
289.286	591.2
289.675	604.6
290.064	610.2
290.453	605.2
290.821	603.2
291.21	615.6
291.599	599.6
291.989	611.6
292.378	609.6
292.768	619.6
293.157	607.4
293.547	614.2
293.936	598.6
294.326	594.8
294.716	608
295.106	598
295.496	604.4
295.886	610.6
296.276	603.2
296.666	594.6
297.056	600
297.446	592.4
297.836	615.8
298.227	600.8
298.617	608.6
299.008	623
299.398	596.6
299.789	595.6
300.179	603
300.57	618.6
300.961	596.4
301.352	595.4
301.742	602.6
302.133	591
302.524	603.4
302.915	599
303.307	590.8
303.698	601.2
304.089	607.8
304.48	593.2
304.872	611.4
305.263	597.6
305.655	594
306.046	601.2
306.438	602.4
306.829	590.4
307.221	617.8
307.613	605.4
308.005	609.8
308.397	610.8
308.789	617.8
309.181	627
309.573	620.6
309.965	613.4
310.357	595.4
310.749	616.2
311.142	596.4
311.534	603.6
311.926	606.8
312.319	603.6
312.711	607.6
313.104	613.4
313.497	598.8
313.889	635.8
314.282	619.8
314.675	628.6
315.068	604.2
315.461	618.6
315.854	629.6
316.247	611.4
316.64	602.6
317.033	597.2
317.405	615
317.798	602.6
318.192	612.6
318.585	596.2
318.979	598
319.372	594.2
319.766	601.4
320.16	611.4
320.553	613.4
320.947	625
321.341	601
321.735	604.4
322.129	585.8
322.523	629.2
322.917	598.4
323.311	613
323.705	599.4
324.099	611.6
324.494	614.4
324.888	614.2
325.282	604.6
325.677	611.8
326.071	616.8
326.466	614.2
326.861	602.8
327.255	620.6
327.65	620.2
328.045	620.8
328.44	608.6
328.835	607.2
329.23	599.4
329.625	619.4
330.02	600
330.415	626.2
330.81	609
331.206	610.8
331.601	603.2
331.996	613.4
332.37	624.2
332.766	600.8
333.161	617.2
333.557	602.4
333.953	610.2
334.348	935.8
334.744	594
335.14	588.4
335.536	595.2
335.932	616.8
336.328	610.6
336.724	607.8
337.12	594.6
337.516	609.6
337.913	597.6
338.309	620.8
338.705	600.8
339.102	603
339.498	604.4
339.895	610.8
340.291	596.2
340.688	609
341.085	599.2
341.481	596.2
341.878	595.8
342.275	621.2
342.672	597.4
343.069	598.2
343.466	590.6
343.842	611.8
344.239	600
344.636	598.4
345.033	590.4
345.431	593.4
345.828	600.6
346.225	600.6
346.623	629.2
347.02	591.8
347.418	606.6
347.816	609
348.213	592.6
348.611	605.8
349.009	598
349.407	607
349.805	588.6
350.203	591.2
350.601	607.6
350.999	591.8
351.397	646.2
351.795	597.2
352.193	605.4
352.57	603.4
352.969	602.8
353.367	592
353.766	589.6
354.164	590.8
354.563	603.8
354.961	597.4
355.36	601.2
355.759	593.2
356.158	591
356.557	592
356.956	598.4
357.355	590.2
357.754	600
358.153	606
358.552	621.8
358.951	599.2
359.35	616
359.75	590.8
360.149	598.2
360.527	588
360.926	590.6
361.326	598.6
361.726	599.4
362.125	585.4
362.525	600.8
362.925	606
363.325	589.4
363.724	595
364.124	587.6
364.524	588.8
364.924	594.2
365.324	606.4
365.725	587.4
366.125	606.4
366.525	599.6
366.904	593.2
367.304	586
367.705	609.6
368.105	613.6
368.506	597.6
368.906	601.8
369.307	586.8
369.708	598.8
370.108	592
370.509	607.4
370.91	587
371.311	595.6
371.712	595.2
372.113	594.4
372.514	593.6
372.894	591.8
373.295	585
373.696	602
374.097	607.4
374.499	624.2
374.9	597.8
375.301	591.6
375.703	598
376.105	588.8
376.506	608.4
376.908	606.2
377.309	608.2
377.711	595.6
378.113	595.8
378.493	601.8
378.895	590.4
379.297	604.8
379.699	584.4
380.102	602
380.504	599.8
380.906	596.2
381.308	621
381.71	590.8
382.113	604.8
382.515	593.2
382.918	598.2
383.299	592.6
383.701	594.6
384.104	602
384.507	575.6
384.909	595
385.312	581.6
385.715	588.4
386.118	595.6
386.521	580.6
386.924	609.2
387.327	584.2
387.709	583
388.112	584.6
388.515	590.8
388.918	594.2
389.322	596
389.725	589.2
390.129	615.6
390.532	600
390.936	596.2
391.339	594.8
391.743	597.8
392.125	593.8
392.529	604.2
392.933	595.2
393.337	598.2
393.74	595.4
394.144	596.4
394.548	590.8
394.953	586.4
395.357	597
395.761	591
396.144	593
396.548	600.4
396.952	599.6
397.357	587.6
397.761	586
398.166	589.6
398.57	590.6
398.975	582.6
399.379	586.6
399.763	638.4
400.168	583.8
400.572	590.6
400.977	589.6
401.382	605.6
401.787	605.8
402.192	607.8
402.597	596.4
403.002	582.8
403.386	602.8
403.791	607.6
404.197	594.8
404.602	583.4
405.007	590.2
405.413	585.8
405.818	594.4
406.224	585.2
406.608	597.2
407.014	585.4
407.42	615.4
407.825	586.8
408.231	600
408.637	598.6
409.043	612.8
409.449	593.6
409.834	588.4
410.24	594.8
410.646	606.2
411.052	608.8
411.458	597.2
411.865	606
412.271	599.2
412.677	594.2
413.062	601.6
413.469	585.8
413.875	611.4
414.282	599.6
414.689	602.6
415.095	604
415.502	588.8
415.888	600.2
416.294	589
416.701	630.6
417.108	592.8
417.515	607
417.923	595
418.33	611
418.715	607.4
419.123	589
419.53	589.6
419.937	593.8
420.345	610.4
420.752	600.4
421.16	617.8
421.546	596.2
421.953	601
422.361	591.4
422.769	601.2
423.177	586.4
423.585	618
423.992	619.6
424.379	609
424.787	603.6
425.195	615.2
425.603	594.6
426.011	610.6
426.419	608.2
426.806	609.4
427.214	604.8
427.623	604.4
428.031	612.4
428.44	598.2
428.848	606.4
429.235	606.2
429.644	592.4
430.053	599.2
430.461	608.2
430.87	613.6
431.279	598
431.666	581.2
432.075	588.6
432.484	599.8
432.893	589
433.302	612
433.711	634.6
434.099	599.6
434.508	593.8
434.918	582.2
435.327	596.8
435.737	595.4
436.125	597.8
436.534	593.8
436.944	588.6
437.353	598.4
437.763	614.6
438.173	591.8
438.561	606.8
438.971	580.6
439.381	598.6
439.791	597.2
440.201	576.8
440.589	594.8
440.999	600
441.409	592.4
441.819	589.6
442.23	607
442.619	597.8
443.029	597.8
443.439	598
443.85	598.2
444.26	604.8
444.649	598.6
445.06	590.2
445.471	584.4
445.881	591.4
446.292	604.2
446.682	604.8
447.092	582.4
447.503	633.4
447.914	590.4
448.325	596
448.715	592.4
449.126	587.2
449.537	593.2
449.948	585.6
450.338	589.6
450.75	597.8
451.161	592.8
451.572	594
451.984	585.2
452.374	577.8
452.786	589.8
453.197	596
453.609	600.6
453.999	582
454.411	583.8
454.823	606.4
455.235	600
455.647	591.8
456.037	601.2
456.449	581.2
456.862	601.2
457.274	597
457.665	581.8
458.077	594.4
458.489	623.8
458.902	593.4
459.293	597.2
459.705	599.8
460.118	592
460.53	600.2
460.921	590
461.334	590.8
461.747	592.2
462.16	609.4
462.551	601
462.964	599.4
463.377	581.8
463.79	583.4
464.182	596.6
464.595	584.4
465.008	595.2
465.421	593.2
465.813	585.8
466.226	602.2
466.64	587.4
467.053	633
467.445	602.4
467.859	607
468.272	597.8
468.686	601.8
469.078	585.6
469.492	582.2
469.906	590.4
470.298	598
470.712	589
471.126	631.4
471.54	579.4
471.933	582.2
472.347	587.8
472.761	580
473.175	582.4
473.568	581
473.982	584.6
474.397	589.6
474.79	578.8
475.204	596.8
475.619	595.4
476.033	589.4
476.426	588.6
476.841	578.6
477.256	612
477.649	577.6
478.064	582.8
478.479	576.2
478.872	577.8
479.287	575.2
479.702	588.2
480.118	587.6
480.511	585.6
480.927	588.8
481.342	579
481.736	591.6
482.151	588
482.566	598
482.96	588.6
483.376	601.8
483.792	576.2
484.186	590.8
484.602	579.8
485.017	589.8
485.412	584.8
485.827	589.8
486.243	590
486.638	608.8
487.054	592.6
487.47	594
487.865	581
488.281	591.6
488.697	584.2
489.092	587.4
489.508	581
489.925	607.2
490.32	579
490.736	592.6
491.153	597.4
491.548	596.2
491.964	595.8
492.381	573
492.776	592.8
493.193	586.6
493.61	581.8
494.006	590.8
494.422	594.2
494.84	578.4
495.235	592
495.652	583
496.069	583.4
496.465	581.6
496.883	582.2
497.3	608
497.696	573.6
498.113	591.6
498.509	566.8
498.927	577.4
499.344	576.8
499.741	569.8
500.158	589.4
500.576	588.2
500.973	594.8
501.39	577.6
501.787	586.2
502.205	587
502.623	588.4
503.02	571
503.438	582.8
503.856	586.2
504.253	593.6
504.671	582.2
505.068	593.6
505.486	582.2
505.905	604.8
506.302	585.6
506.72	590.6
507.118	573.2
507.536	583.4
507.955	581.6
508.352	589.6
508.771	592.4
509.169	592.2
509.587	576.4
510.006	584.2
510.404	583.2
510.823	585.4
511.221	579.2
511.64	585
512.038	596.4
512.457	591.8
512.877	589.8
513.275	578.8
513.694	587.6
514.092	577.4
514.512	586.8
514.91	593
515.33	586.4
515.749	584.6
516.148	582.8
516.568	590.6
516.966	593
517.386	579.4
517.785	584.4
518.205	577.4
518.603	587.2
519.024	572.8
519.444	593.2
519.843	596.8
520.263	585.6
520.662	588.6
521.082	586.8
521.481	591.2
521.902	588.4
522.301	587.4
522.722	581.6
523.121	580
523.542	580
523.963	580.2
524.362	587.6
524.783	588.4
525.183	582.6
525.604	585.4
526.003	574.8
526.425	574.6
526.824	582.4
527.246	582
527.646	592
528.067	575.2
528.467	578.2
528.888	584.2
529.289	570.4
529.71	584
530.11	584.2
530.532	579.4
530.932	583.8
531.354	576.4
531.755	611.6
532.176	582.2
532.577	580.4
532.999	581.4
533.4	575.6
533.822	598.6
534.223	599
534.645	577.6
535.046	580.6
535.468	586.8
535.869	589.6
536.292	585.2
536.693	615.2
537.115	591.8
537.516	582.6
537.939	587
538.34	598.8
538.742	587.2
539.165	588.8
539.566	578.2
539.989	572.8
540.391	579.8
540.814	593
541.216	585
541.639	582.8
542.041	589.2
542.464	579.2
542.866	568
543.268	570
543.691	575
544.093	582.4
544.517	611.6
544.919	580.8
545.343	600.8
545.745	574
546.147	589.4
546.571	571.4
546.974	567
547.398	581.6
547.8	587.6
548.224	578.6
548.627	576.6
549.03	586.4
549.454	579
549.857	574.8
550.281	570.8
550.684	575.8
551.087	593.4
551.512	589.4
551.915	584
552.34	581.4
552.743	577.4
553.146	578.8
553.571	584.4
553.975	595.8
554.399	583.2
554.803	631
555.207	578.6
555.632	567.6
556.036	591.6
556.461	574.8
556.865	576.6
557.268	577.8
557.694	580.8
558.098	583.8
558.502	588.2
558.927	583.6
559.332	578.8
559.736	584.2
560.162	591.4
560.566	576.8
560.992	585
561.396	581.8
561.801	586.8
562.227	581
562.631	578.6
563.036	579
563.462	591.8
563.867	588.6
564.272	574.8
564.698	594.8
565.103	578.2
565.508	603
565.935	585.2
566.34	579.2
566.745	592.4
567.172	582
567.577	596
567.982	591
568.409	579.6
568.815	574.6
569.22	582.8
569.626	592.8
570.053	573.6
570.459	586.6
570.865	596.2
571.292	579.6
571.698	577.6
572.104	574.6
572.531	579.4
572.937	597.8
573.343	580.8
573.75	582.4
574.177	592.6
574.583	587
574.99	580.8
575.396	592
575.824	571.4
576.231	587
576.637	583.4
577.065	603
577.472	577.8
577.879	583.8
578.286	597.4
578.714	577
579.121	579.4
579.528	592.4
579.935	591.4
580.364	583.2
580.771	567
581.178	578.8
581.585	586.4
582.014	583.6
582.421	579.8
582.829	580.2
583.236	588.8
583.644	577
584.073	581.6
584.481	582.4
584.889	581
585.296	586.4
585.726	581
586.134	578.4
586.542	575.2
586.95	602.6
587.358	580.2
587.787	583
588.196	588.4
588.604	590.2
589.012	578.6
589.421	574.6
589.851	578.6
590.259	589
590.668	576.8
591.076	609.8
591.485	574.8
591.894	575
592.324	592.4
592.733	589.4
593.142	565.8
593.551	574.8
593.96	601.4
594.369	565.4
594.8	582.6
595.209	578
595.618	566.2
596.028	572.6
596.437	569
596.847	577.8
597.256	581.2
597.687	578.8
598.097	576.2
598.507	564
598.917	585.2
599.327	584.2
599.736	578.4
600.146	583
600.556	584.6
600.988	594
601.398	578.4
601.808	589
602.219	570.2
602.629	582.8
603.039	581.2
603.45	599.2
603.86	580
604.271	593.2
604.703	581.2
605.114	584.2
605.525	582
605.935	584
606.346	603
606.757	581.4
607.168	589.4
607.579	574.6
607.99	590.8
608.402	573.8
608.813	585.2
609.224	573.8
609.636	576.8
610.047	579.6
610.48	580.6
610.892	588.8
611.303	594.8
611.715	579.6
612.127	582.2
612.539	577.8
612.95	584.2
613.362	566.2
613.774	577.6
614.186	573.6
614.599	582
615.011	596
615.423	581
615.835	573.6
616.248	572.2
616.66	581.6
617.073	577.6
617.485	581
617.898	586.8
618.311	581.6
618.723	582
619.136	618.8
619.549	593.6
619.962	613.4
620.375	581
620.788	581.2
621.201	573.4
621.614	582.6
622.028	582.2
622.441	576.6
622.854	590.6
623.268	571.4
623.681	583.2
624.095	576
624.509	585.8
624.922	585.6
625.336	574.8
625.728	579
626.142	581.8
626.556	592.8
626.97	580.4
627.384	572.2
627.799	577
628.213	583.4
628.627	577.4
629.041	581.8
629.456	583.8
629.87	580.8
630.285	583.6
630.699	585.6
631.093	584.4
631.507	586.8
631.922	580.2
632.337	594
632.752	578.6
633.167	584.6
633.582	576.6
633.997	583.8
634.412	581.8
634.806	580
635.221	569
635.637	586.8
636.052	578.8
636.468	585.2
636.883	592.8
637.299	582.4
637.715	570.2
638.109	570.4
638.525	561.4
638.941	589.2
639.357	573.8
639.773	579.8
640.189	569.4
640.584	572.2
641	580.2
641.416	564.4
641.832	571.6
642.249	574.6
642.665	577.2
643.06	587.2
643.477	592.8
643.894	569.8
644.31	578
644.727	582.2
645.123	583.8
645.54	576
645.957	577.2
646.374	583.6
646.77	580.4
647.187	599.2
647.604	577
648.021	567.8
648.439	570.4
648.835	584
649.252	580.6
649.67	573.8
650.088	574.8
650.484	586
650.902	592
651.32	583.8
651.738	574
652.134	583.4
652.552	599.8
652.971	594.4
653.389	579
653.786	590.4
654.204	598.2
654.622	572.2
655.019	581.4
655.438	582.4
655.857	581.2
656.275	584.4
656.673	577
657.091	580.4
657.51	568.2
657.908	596
658.327	594.2
658.746	570.8
659.144	585.2
659.563	586.8
659.982	575.4
660.38	563.2
660.8	576.2
661.219	592.6
661.617	586.8
662.037	573.8
662.457	585.4
662.855	566.2
663.275	607.8
663.695	571.4
664.094	579.8
664.514	579.8
664.934	568.6
665.333	586
665.753	577.6
666.152	568
666.572	576.2
666.993	590.2
667.392	578
667.812	577.4
668.212	576.6
668.632	597.6
669.053	576
669.453	584.4
669.874	583
670.273	584.4
670.694	570.2
671.116	582
671.515	586.2
671.937	579.8
672.337	576.4
672.758	572.8
673.158	585
673.58	570.2
673.98	586.6
674.402	588.4
674.824	574.6
675.224	576.2
675.646	569.8
676.047	567.6
676.469	580
676.869	583.2
677.292	579.4
677.693	575.4
678.115	575.8
678.516	588.2
678.939	578.2
679.34	576.2
679.762	585.8
680.164	581.2
680.586	575.4
680.988	572.6
681.411	601.8
681.812	570.8
682.236	569.4
682.637	567.8
683.061	571.2
683.462	582.8
683.864	574
684.288	577.6
684.69	567
685.114	589
685.516	585
685.94	568.4
686.342	586.6
686.766	574.8
687.168	573.4
687.571	586.8
687.995	573.6
688.398	562.4
688.822	577.8
689.225	592.8
689.628	590.2
690.052	573.6
690.456	571
690.88	572
691.284	565
691.687	575.4
692.112	570.2
692.515	565.6
692.919	576.2
693.344	573.4
693.747	567.6
694.173	572.4
694.577	583
694.98	566.4
695.406	572.6
695.81	577.8
696.214	582.2
696.64	571.2
697.044	584
697.448	586.8
697.874	581.4
698.279	579.4
698.684	569.2
699.11	570.8
699.514	573.2
699.919	566.8
700.324	561.6
700.75	571.8
701.156	579.6
701.561	590
701.987	580
702.393	587.2
702.798	586.2
703.203	573.6
703.63	575.8
704.036	571.6
704.442	580.4
704.847	568.6
705.274	579.6
705.68	573.8
706.086	580.8
706.492	570.4
706.92	574.8
707.326	579.4
707.732	576.6
708.139	564.6
708.545	570
708.973	559.4
709.38	572.6
709.786	569
710.193	582.4
710.6	581.8
711.028	571.6
711.435	577.2
711.842	570.4
712.249	572.4
712.656	571.4
713.064	583.4
713.492	570.4
713.9	568.8
714.307	580.8
714.715	570
715.123	582.4
715.53	576.4
715.938	582
716.367	582.6
716.775	575
717.184	567.8
717.592	566
718	581.4
718.408	603.6
718.816	618.4
719.225	578.8
719.633	571.6
720.042	567.2
720.472	573.8
720.881	587.4
721.29	575.2
721.699	563
722.108	577.6
722.517	567.4
722.926	565.2
723.335	584.6
723.744	572.4
724.154	571.8
724.563	573.2
724.973	576
725.382	562.6
725.792	574.2
726.202	565
726.612	590.6
727.022	577.2
727.432	573.4
779.813	562.8
780.223	611.6
780.634	566.2
781.044	565
781.454	574.2
781.865	585.4
782.276	559.8
782.686	584
783.097	572.4
783.508	571
783.919	582.6
784.33	586.6
784.741	584.4
785.152	570.2
785.563	559.4
785.974	566.4
786.386	578.2
786.776	571.6
787.188	572
787.599	564.2
788.011	571.8
788.423	572
788.835	571.4
789.247	558.2
789.659	562.6
790.071	564.6
790.483	601.2
790.874	563.2
791.286	580
791.699	565
792.111	567.8
792.524	580.6
792.937	577.2
793.349	568.8
793.741	563
794.154	565.8
794.567	586.8
794.98	570.4
795.393	564.6
795.785	584.8
796.198	567
796.612	578.6
797.026	569.2
797.439	553.2
797.831	565.4
798.245	562.4
798.659	568.2
799.073	569.6
799.487	565.4
799.88	574.8
800.294	572.6
800.708	580
801.123	576.2
801.516	584.6
801.93	561
802.345	565.4
802.76	567.4
803.153	593.4
803.568	580.6
803.983	595.2
804.377	583
804.792	562.2
805.207	569.8
805.601	579.6
806.016	602.4
806.432	562.6
806.826	600.8
807.242	587.2
807.658	576.4
808.052	576.4
808.468	577.6
808.884	568.4
809.279	571.4
809.695	584.4
810.111	597.2
810.506	576.8
810.922	589.6
811.339	569.8
811.734	583.6
812.151	570.8
812.546	575.4
812.963	573
813.38	581.4
813.776	574.2
814.193	597
814.589	565.2
815.006	569.2
815.402	566.2
815.82	572.6
816.237	566.2
816.633	569.4
817.051	574.2
817.448	576.8
817.866	560.2
818.262	592.2
818.68	570.8
819.077	568.2
819.495	571
819.892	606.8
820.311	561
820.708	570.8
821.127	566
821.524	580
821.943	575.6
822.34	590.6
822.759	573.2
823.157	581.6
823.576	582.6
823.974	573.8
824.393	608
824.791	576
825.189	572.4
825.609	567.8
826.007	567
826.427	567.2
826.826	569
827.246	574.4
827.644	560.6
828.043	580
828.463	573.2
828.862	582
829.261	568.2
829.682	561.4
830.081	578.4
830.502	565.8
830.901	573.6
831.301	584.2
831.722	568.6
832.121	569.2
832.521	568.8
832.943	574.6
833.342	571.6
833.742	562
834.164	575.6
834.564	562.6
834.965	569.6
835.386	569.2
835.787	566.8
836.188	563.8
836.588	577
837.01	567.6
837.411	564.6
837.812	573.6
838.213	574.8
838.636	564.4
839.037	630.2
839.438	578.2
839.84	573.2
840.263	571.8
840.664	572.2
841.066	564.8
841.468	579.4
841.891	562.2
842.293	576.6
842.695	567.4
843.098	576.6
843.5	574
843.902	576.8
844.326	576.2
844.729	570
845.131	578.8
845.534	573.2
845.937	580.6
846.34	589.8
846.764	567.8
847.167	575.2
847.571	561.6
847.974	570.4
848.377	576.2
848.781	614.6
849.184	579.2
849.588	567.6
849.992	566.4
850.396	579.8
850.821	587.4
851.225	573
851.63	565.6
852.034	575.2
852.438	575.8
852.843	605.8
853.247	571.6
853.652	556
854.057	583.4
854.462	567.4
854.867	573.8
855.272	594
