#lambda/nm	C1
208.295	567.8
208.67	498.2
209.045	470
209.419	461
209.794	590.2
210.169	574.8
210.544	667.8
210.919	591.8
211.295	584.6
211.67	592.8
212.045	587.2
212.421	582.4
212.796	615.6
213.172	587.8
213.547	583.8
213.923	581
214.299	584.6
214.675	588
215.051	583.4
215.427	600.6
215.803	596.6
216.179	597.4
216.555	581.2
216.932	595.8
217.308	586
217.684	590.4
218.061	588.6
218.438	590
218.814	585.8
219.191	588
219.568	578.2
219.945	581.4
220.322	591
220.699	592
221.076	586.4
221.453	584.4
221.83	572.8
222.208	574.4
222.585	576.2
222.962	588.4
223.34	579.6
223.717	585.8
224.095	587.4
224.473	591.4
224.851	580.8
225.229	569.8
225.607	596
225.985	578.2
226.363	581.4
226.741	584.4
227.119	577.8
227.497	585.2
227.876	575.6
228.254	592
228.633	585.8
229.011	584.4
229.39	590
229.769	581.4
230.148	596
230.527	599
230.905	580.6
231.284	589.6
231.664	589
232.043	591.8
232.422	592.8
232.801	582.2
233.181	588.6
233.56	580.4
233.94	581.4
234.319	572.8
234.699	578.4
235.079	613.8
235.458	610
235.838	593
236.218	577.8
236.598	575.6
236.978	575.4
237.358	586.6
237.738	576.4
238.119	589.6
238.499	575.6
238.88	575.8
239.26	595
239.641	578
240.021	570.8
240.402	576.2
240.783	577.8
241.163	579.2
241.544	575.6
241.925	583
242.306	591.4
242.687	591.6
243.069	583.6
243.45	594
243.831	581.6
244.212	581
244.594	619.8
244.975	584
245.357	584.2
245.739	583.2
246.12	587
246.502	592.4
246.884	578
247.266	585.4
247.648	588.6
248.03	592.6
248.412	593.2
248.794	584.6
249.176	584.2
249.559	587.6
249.941	577.6
250.323	574
250.706	579.2
251.089	584.4
251.471	586.2
251.854	584.2
252.237	585.4
252.62	590.6
253.002	586.6
253.385	583.4
253.769	589.6
254.152	584.2
254.535	590
254.918	580.2
255.301	586.2
255.685	580.4
256.068	570.6
256.452	597.2
256.835	589.4
257.219	591.6
257.603	588.6
257.986	569.2
258.37	591.4
258.754	569.2
259.138	590.4
259.522	587.2
259.906	574.2
260.29	590
260.675	581.2
261.059	581.4
261.443	570.8
261.828	585
262.212	584.4
262.597	573.4
262.981	576.6
263.366	586.6
263.751	588.2
264.136	580.4
264.521	587.2
264.906	578.2
265.291	593.2
265.676	584.2
266.061	591.2
266.446	593
266.831	575.8
267.217	601
267.602	586.6
267.987	584
268.373	576.2
268.759	584.2
269.144	589.6
269.53	581
269.916	576.2
270.302	577.2
270.688	589.6
271.074	582.4
271.46	597.6
271.846	607.2
272.232	583.6
272.618	580.4
273.004	577.4
273.391	588.4
273.777	597.4
274.164	591.8
274.55	598
274.937	583.2
275.324	582.2
275.71	587.6
276.097	598.8
276.484	584.8
276.871	582.4
277.258	583
277.645	572.6
278.032	579.2
278.419	582.2
278.807	588.8
279.194	580.8
279.581	580.8
279.969	589
280.356	591.8
280.744	580.6
281.131	601.4
281.519	598.2
281.907	575.6
282.295	583.4
282.682	597.6
283.07	582.2
283.458	587.2
283.846	586.8
284.235	602.2
284.623	585.6
285.011	581.8
285.399	586
285.788	587.6
286.176	579.8
286.565	590.4
286.953	580.2
287.342	583.2
287.731	581.8
288.119	581
288.508	584.8
288.897	582.6
289.286	574.6
289.675	589.4
290.064	584.6
290.453	583.4
290.821	583.6
291.21	590.2
291.599	581.2
291.989	590.4
292.378	590.4
292.768	601
293.157	585
293.547	589.6
293.936	587
294.326	575.2
294.716	585.4
295.106	578.6
295.496	587.6
295.886	594.6
296.276	582.8
296.666	576.4
297.056	572.8
297.446	566.8
297.836	587.6
298.227	581.8
298.617	578.6
299.008	597.2
299.398	577.8
299.789	576
300.179	581.6
300.57	598.4
300.961	586
301.352	576.4
301.742	590
302.133	586.8
302.524	578.8
302.915	583.8
303.307	574.2
303.698	590.6
304.089	585.8
304.48	584.2
304.872	582.4
305.263	585.6
305.655	570.4
306.046	581.8
306.438	589.4
306.829	581.6
307.221	598
307.613	589
308.005	593
308.397	593.8
308.789	602.4
309.181	593
309.573	596.4
309.965	593.6
310.357	583
310.749	595.8
311.142	577
311.534	572.2
311.926	590.6
312.319	578.8
312.711	570.8
313.104	589.2
313.497	581.2
313.889	620.2
314.282	592.2
314.675	607.4
315.068	586.2
315.461	584.4
315.854	606.4
316.247	585.8
316.64	585.6
317.033	579.4
317.405	586.2
317.798	577.8
318.192	586.8
318.585	582.8
318.979	587.8
319.372	577.6
319.766	577.2
320.16	584.2
320.553	590.8
320.947	593.8
321.341	578.6
321.735	578.6
322.129	566.6
322.523	598.6
322.917	574
323.311	600.2
323.705	585.4
324.099	589.6
324.494	593.2
324.888	593.8
325.282	583.2
325.677	589.6
326.071	584.2
326.466	591.8
326.861	584.6
327.255	594.6
327.65	594
328.045	596
328.44	593.4
328.835	586.6
329.23	575.2
329.625	600
330.02	584.6
330.415	600.6
330.81	586.2
331.206	578.2
331.601	583.2
331.996	596
332.37	598.6
332.766	579
333.161	601
333.557	578.2
333.953	584
334.348	821.4
334.744	591
335.14	575.4
335.536	578.8
335.932	596.6
336.328	578.6
336.724	592.4
337.12	593
337.516	580.2
337.913	583.4
338.309	589.6
338.705	573.8
339.102	587.6
339.498	577.2
339.895	579.8
340.291	575.6
340.688	586.4
341.085	573.8
341.481	574.8
341.878	582
342.275	592.6
342.672	573
343.069	578.8
343.466	566.2
343.842	588.4
344.239	570
344.636	577
345.033	571.8
345.431	572.8
345.828	581.8
346.225	574
346.623	607.4
347.02	579
347.418	595.2
347.816	588.8
348.213	571.6
348.611	585.8
349.009	578.4
349.407	591.6
349.805	580.4
350.203	569.8
350.601	598
350.999	573.6
351.397	624.4
351.795	589.2
352.193	587.8
352.57	590
352.969	587
353.367	573
353.766	576.2
354.164	582
354.563	587
354.961	587.6
355.36	573.2
355.759	582.4
356.158	580.4
356.557	573.6
356.956	573.4
357.355	566
357.754	580.8
358.153	589.6
358.552	594.2
358.951	576.2
359.35	583.6
359.75	579.8
360.149	569
360.527	565.4
360.926	573.4
361.326	582.6
361.726	572.4
362.125	568.8
362.525	583.8
362.925	579.8
363.325	580.4
363.724	574.2
364.124	567.6
364.524	571.6
364.924	574.2
365.324	584.8
365.725	565.6
366.125	581.2
366.525	584.2
366.904	575
367.304	568
367.705	587.2
368.105	589.2
368.506	574.6
368.906	579.8
369.307	575.2
369.708	582.2
370.108	567.2
370.509	583.6
370.91	577.2
371.311	578.6
371.712	581
372.113	576.4
372.514	572.4
372.894	580.6
373.295	570
373.696	588.6
374.097	582.8
374.499	600.4
374.9	581.8
375.301	575
375.703	580.4
376.105	574.2
376.506	584.4
376.908	581.4
377.309	575.4
377.711	576.4
378.113	567.8
378.493	576.8
378.895	573
379.297	583.6
379.699	564.2
380.102	581
380.504	573.8
380.906	582.2
381.308	605.6
381.71	572.2
382.113	581.4
382.515	577.4
382.918	578.8
383.299	576.2
383.701	580.4
384.104	580.4
384.507	561.4
384.909	578
385.312	574.2
385.715	564
386.118	575.2
386.521	567
386.924	586.6
387.327	572
387.709	561.2
388.112	570.2
388.515	571.8
388.918	577.8
389.322	572.4
389.725	574.4
390.129	590.8
390.532	570.8
390.936	574.4
391.339	565.4
391.743	581.2
392.125	568.4
392.529	583.6
392.933	588.4
393.337	576.4
393.74	569
394.144	567.8
394.548	571
394.953	561.4
395.357	574.2
395.761	569
396.144	575
396.548	572.4
396.952	575.6
397.357	574.4
397.761	571.4
398.166	576.8
398.57	573.6
398.975	574.4
399.379	579.8
399.763	621
400.168	571.8
400.572	579.6
400.977	576.4
401.382	589.8
401.787	581.6
402.192	594
402.597	588.6
403.002	565.4
403.386	584.4
403.791	588.2
404.197	574.4
404.602	575
405.007	580.2
405.413	576.6
405.818	576.4
406.224	576
406.608	577
407.014	572.6
407.42	583.8
407.825	565
408.231	589.8
408.637	579
409.043	589.4
409.449	571.4
409.834	573.2
410.24	581.4
410.646	595.2
411.052	585.4
411.458	574
411.865	582
412.271	581.4
412.677	581.4
413.062	578.6
413.469	569.8
413.875	589.8
414.282	592.8
414.689	580.2
415.095	579
415.502	574
415.888	574
416.294	564.6
416.701	614.4
417.108	572.4
417.515	583.6
417.923	576
418.33	593
418.715	578.8
419.123	578.8
419.53	574.2
419.937	579.6
420.345	579.2
420.752	569.4
421.16	598.4
421.546	578.4
421.953	588.6
422.361	569.6
422.769	576
423.177	571
423.585	601.6
423.992	589.6
424.379	587
424.787	587.2
425.195	585.8
425.603	579.6
426.011	582.4
426.419	588.4
426.806	577.6
427.214	581.4
427.623	579
428.031	585.8
428.44	581
428.848	580.2
429.235	586.2
429.644	581.6
430.053	579
430.461	593.6
430.87	597.8
431.279	592.8
431.666	575.4
432.075	577.6
432.484	583.4
432.893	582
433.302	594.2
433.711	609.4
434.099	579.6
434.508	578.8
434.918	577.4
435.327	581.8
435.737	573.8
436.125	568.2
436.534	574.2
436.944	580.6
437.353	580.6
437.763	586.8
438.173	565.2
438.561	586.4
438.971	561.2
439.381	575.8
439.791	582.2
440.201	557
440.589	577.6
440.999	586.2
441.409	581.2
441.819	570
442.23	578.2
442.619	582.8
443.029	574.2
443.439	585
443.85	580.2
444.26	583.4
444.649	579.2
445.06	574.6
445.471	567
445.881	572.6
446.292	586.2
446.682	592.4
447.092	563.8
447.503	616
447.914	572.4
448.325	579.8
448.715	582
449.126	573.8
449.537	576.2
449.948	580
450.338	573.2
450.75	580.4
451.161	579
451.572	587.2
451.984	570.2
452.374	566.6
452.786	573.2
453.197	580.6
453.609	582
453.999	563.6
454.411	563
454.823	585
455.235	568
455.647	570.2
456.037	575.6
456.449	563
456.862	569.4
457.274	568.6
457.665	565
458.077	576.8
458.489	596.6
458.902	568.2
459.293	576.8
459.705	573.4
460.118	575
460.53	578.8
460.921	568.8
461.334	583.8
461.747	572.2
462.16	584
462.551	581.2
462.964	580.8
463.377	567.8
463.79	565
464.182	577
464.595	566.2
465.008	569.6
465.421	577.4
465.813	571
466.226	573
466.64	565.2
467.053	605.8
467.445	577.4
467.859	582.2
468.272	570.8
468.686	578.4
469.078	568.4
469.492	567
469.906	578.8
470.298	579.2
470.712	573.2
471.126	607.8
471.54	561
471.933	565
472.347	567.8
472.761	564
473.175	561.4
473.568	568
473.982	565.2
474.397	572
474.79	571.8
475.204	581.6
475.619	563.2
476.033	573.8
476.426	565
476.841	568.6
477.256	592.8
477.649	570.2
478.064	567.8
478.479	568.4
478.872	563
479.287	556
479.702	563.6
480.118	575.2
480.511	570.6
480.927	566.6
481.342	568.2
481.736	579
482.151	558.8
482.566	576.4
482.96	565.2
483.376	576.6
483.792	569.8
484.186	577
484.602	565.8
485.017	567.4
485.412	569
485.827	572.2
486.243	571.8
486.638	581.2
487.054	573.2
487.47	581.6
487.865	563.4
488.281	568.6
488.697	567.8
489.092	565
489.508	564.6
489.925	566
490.32	549.2
490.736	568.8
491.153	569
491.548	564
491.964	574.6
492.381	559.8
492.776	563.4
493.193	572
493.61	577.8
494.006	565.6
494.422	569.4
494.84	564.4
495.235	575.6
495.652	563.8
496.069	570.4
496.465	566.2
496.883	568.8
497.3	591.4
497.696	567.2
498.113	578.2
498.509	556.6
498.927	561.6
499.344	558
499.741	563.8
500.158	583
500.576	579.2
500.973	569.4
501.39	560.8
501.787	560.8
502.205	575.6
502.623	571.6
503.02	565
503.438	560.4
503.856	567.8
504.253	569
504.671	569.4
505.068	562.6
505.486	568.6
505.905	580
506.302	576.2
506.72	585
507.118	562.6
507.536	575.6
507.955	568.6
508.352	570
508.771	579.8
509.169	573.8
509.587	561.6
510.006	572.6
510.404	561.6
510.823	562.4
511.221	573.4
511.64	565.8
512.038	582.2
512.457	568.6
512.877	573
513.275	567.8
513.694	563.4
514.092	562
514.512	560.8
514.91	573.8
515.33	560.4
515.749	571.6
516.148	568.6
516.568	571
516.966	561.8
517.386	568.2
517.785	562
518.205	561.8
518.603	564.6
519.024	563.6
519.444	567.2
519.843	569.2
520.263	571.2
520.662	565.8
521.082	567.2
521.481	571.6
521.902	567.6
522.301	568.6
522.722	565.2
523.121	565.6
523.542	561.6
523.963	568.2
524.362	570.2
524.783	571.8
525.183	562
525.604	569
526.003	565.4
526.425	564
526.824	565.2
527.246	573.4
527.646	577.2
528.067	569.4
528.467	570.8
528.888	570.2
529.289	571.8
529.71	566.4
530.11	562.4
530.532	568.4
530.932	561.8
531.354	555.2
531.755	594.6
532.176	567.6
532.577	565
532.999	566.8
533.4	560
533.822	576
534.223	569
534.645	565.6
535.046	562.2
535.468	563
535.869	578.4
536.292	558.6
536.693	585.8
537.115	569.4
537.516	556
537.939	560.4
538.34	585.4
538.742	579.8
539.165	568.4
539.566	577.2
539.989	566
540.391	562.4
540.814	565.4
541.216	564.6
541.639	564.2
542.041	572.6
542.464	559.4
542.866	555.8
543.268	555
543.691	566.6
544.093	573.6
544.517	580.2
544.919	563.4
545.343	589.6
545.745	561.6
546.147	568.8
546.571	568.8
546.974	556.4
547.398	573.4
547.8	572.8
548.224	560.6
548.627	562.4
549.03	570.6
549.454	559.6
549.857	547
550.281	565.2
550.684	561.8
551.087	575
551.512	566
551.915	567.2
552.34	565.6
552.743	560.2
553.146	566.4
553.571	563
553.975	583.8
554.399	561.6
554.803	601.8
555.207	568.2
555.632	563.4
556.036	561.6
556.461	559.6
556.865	558.6
557.268	564
557.694	562.2
558.098	570
558.502	569.2
558.927	558
559.332	565.8
559.736	562
560.162	559.8
560.566	554.8
560.992	562.2
561.396	565.8
561.801	555.6
562.227	566.6
562.631	566.4
563.036	562.2
563.462	563.2
563.867	565.8
564.272	561.8
564.698	567.8
565.103	553.2
565.508	585.4
565.935	568
566.34	560
566.745	572.6
567.172	563.8
567.577	584
567.982	574.4
568.409	566.4
568.815	558.6
569.22	567
569.626	567
570.053	555.2
570.459	572.6
570.865	569.6
571.292	574.2
571.698	577.8
572.104	558.4
572.531	561.2
572.937	570.4
573.343	559.6
573.75	566.2
574.177	566.6
574.583	577.4
574.99	559.4
575.396	572.8
575.824	559
576.231	565
576.637	563.8
577.065	583.2
577.472	556.6
577.879	569.4
578.286	577.4
578.714	557
579.121	558.8
579.528	566.2
579.935	575.6
580.364	567.2
580.771	550
581.178	559
581.585	566.8
582.014	568
582.421	562
582.829	564.2
583.236	573.8
583.644	561
584.073	558.6
584.481	567.2
584.889	565
585.296	566
585.726	557.2
586.134	553.2
586.542	549.8
586.95	579.6
587.358	550.2
587.787	560
588.196	561.4
588.604	554.8
589.012	563.8
589.421	555.2
589.851	555.8
590.259	564.2
590.668	557
591.076	595.8
591.485	555.6
591.894	558.8
592.324	570.2
592.733	572.2
593.142	552
593.551	554.4
593.96	563.6
594.369	557.6
594.8	560.8
595.209	562
595.618	553.4
596.028	556.6
596.437	560.6
596.847	562.8
597.256	564.2
597.687	564
598.097	563.6
598.507	551.6
598.917	569
599.327	567
599.736	563.2
600.146	569.8
600.556	562.2
600.988	574.6
601.398	565.4
601.808	566.2
602.219	557
602.629	562.6
603.039	568.4
603.45	588.6
603.86	559.4
604.271	570.6
604.703	565.4
605.114	563.2
605.525	565.4
605.935	568.8
606.346	575.2
606.757	571
607.168	564
607.579	556.6
607.99	569.2
608.402	559.6
608.813	563
609.224	565.6
609.636	554.6
610.047	557.6
610.48	564.2
610.892	567.6
611.303	568.8
611.715	559.6
612.127	552.4
612.539	554.6
612.95	566.8
613.362	546.8
613.774	548
614.186	559.6
614.599	557
615.011	569.6
615.423	559.6
615.835	561
616.248	551.6
616.66	564.2
617.073	555.6
617.485	559.6
617.898	564
618.311	563.6
618.723	560.4
619.136	583.4
619.549	579
619.962	578
620.375	552.8
620.788	565
621.201	562
621.614	563
622.028	565.2
622.441	559.2
622.854	572.8
623.268	562.8
623.681	558.8
624.095	568.2
624.509	566.4
624.922	560.2
625.336	552.4
625.728	565
626.142	575.2
626.556	574.6
626.97	562.2
627.384	559.6
627.799	559.8
628.213	571.8
628.627	562.8
629.041	560.6
629.456	551
629.87	561.4
630.285	563.6
630.699	560.6
631.093	559.4
631.507	561.8
631.922	560
632.337	573
632.752	554
633.167	554.4
633.582	557.4
633.997	554.8
634.412	558
634.806	562.6
635.221	550.2
635.637	564.4
636.052	555.6
636.468	568.4
636.883	582
637.299	562
637.715	555.6
638.109	565.8
638.525	553.6
638.941	571
639.357	564.6
639.773	570
640.189	558
640.584	565
641	559
641.416	548
641.832	562.6
642.249	553.4
642.665	562.8
643.06	565.2
643.477	576.2
643.894	548
644.31	559
644.727	564.8
645.123	558.8
645.54	555
645.957	568
646.374	576.6
646.77	567.2
647.187	574.2
647.604	564.6
648.021	556
648.439	556.2
648.835	566.6
649.252	558
649.67	556.4
650.088	561.2
650.484	557.2
650.902	563.6
651.32	562.4
651.738	559.2
652.134	559.6
652.552	575
652.971	563.8
653.389	556.8
653.786	568.4
654.204	573.4
654.622	557.6
655.019	553.4
655.438	566.4
655.857	560.2
656.275	557
656.673	553.4
657.091	565.8
657.51	555
657.908	565
658.327	574
658.746	551.8
659.144	553.6
659.563	567
659.982	561.6
660.38	551.2
660.8	555.2
661.219	561.2
661.617	555.6
662.037	553.6
662.457	574.4
662.855	557
663.275	583.8
663.695	562.4
664.094	562.4
664.514	565.8
664.934	558.4
665.333	564
665.753	556.4
666.152	562.2
666.572	557.4
666.993	574.4
667.392	553.2
667.812	569.4
668.212	561
668.632	569
669.053	557.4
669.453	557.8
669.874	562.8
670.273	556.6
670.694	556.8
671.116	571.4
671.515	562
671.937	558.6
672.337	560.8
672.758	557.6
673.158	561.8
673.58	548.8
673.98	553.4
674.402	576.6
674.824	563.2
675.224	556.8
675.646	556.8
676.047	560.6
676.469	560.8
676.869	564.6
677.292	556
677.693	547.2
678.115	554.6
678.516	570.2
678.939	564.8
679.34	557
679.762	561.8
680.164	566.8
680.586	547
680.988	566.8
681.411	577.6
681.812	560.6
682.236	556.4
682.637	550
683.061	551.6
683.462	558.4
683.864	554
684.288	564
684.69	547.6
685.114	564.8
685.516	564.4
685.94	552.6
686.342	560.8
686.766	549.8
687.168	553
687.571	563.8
687.995	557.8
688.398	550.6
688.822	548.4
689.225	568.8
689.628	569.6
690.052	559.6
690.456	564.8
690.88	553.8
691.284	551.2
691.687	560.8
692.112	560
692.515	550.2
692.919	563.6
693.344	564
693.747	556.8
694.173	555.4
694.577	572.6
694.98	558
695.406	556.4
695.81	561.6
696.214	554.8
696.64	556.6
697.044	562
697.448	571.4
697.874	557.8
698.279	560
698.684	550.6
699.11	551
699.514	560.6
699.919	556
700.324	550.6
700.75	568.8
701.156	561.4
701.561	570.8
701.987	558.2
702.393	564.8
702.798	568.6
703.203	555.2
703.63	561
704.036	560
704.442	558.8
704.847	557.4
705.274	560.8
705.68	559.2
706.086	561.6
706.492	551.8
706.92	556.4
707.326	564
707.732	554.4
708.139	551
708.545	554.8
708.973	551
709.38	559.2
709.786	551.6
710.193	574
710.6	560.2
711.028	552.6
711.435	554.8
711.842	558.6
712.249	559.6
712.656	553.6
713.064	566
713.492	547.4
713.9	555.2
714.307	561.8
714.715	550
715.123	559.6
715.53	559.8
715.938	561.4
716.367	557
716.775	558.8
717.184	555.6
717.592	555.6
718	564
718.408	586.4
718.816	594.2
719.225	557.4
719.633	563
720.042	549.4
720.472	558.2
720.881	573.2
721.29	565.2
721.699	548.4
722.108	562.8
722.517	559.8
722.926	550.6
723.335	567.2
723.744	552.2
724.154	553.2
724.563	558.4
724.973	555
725.382	550.2
725.792	553.8
726.202	544.2
726.612	572
727.022	552.4
727.432	548.8
779.813	551.6
780.223	595.2
780.634	542.4
781.044	550
781.454	555.2
781.865	567.4
782.276	540.8
782.686	552.6
783.097	549
783.508	559
783.919	552.8
784.33	566.2
784.741	566.4
785.152	554.4
785.563	550.4
785.974	552.2
786.386	563.6
786.776	561.8
787.188	559.4
787.599	555.8
788.011	560
788.423	559
788.835	554.8
789.247	553.2
789.659	550.8
790.071	551
790.483	592.4
790.874	556.8
791.286	563.2
791.699	555
792.111	560.6
792.524	559.2
792.937	559.6
793.349	554.6
793.741	549.4
794.154	550
794.567	570.6
794.98	558.2
795.393	545.8
795.785	563.4
796.198	554.4
796.612	549.6
797.026	553.4
797.439	546.2
797.831	549.6
798.245	554.8
798.659	547.4
799.073	553.4
799.487	549.8
799.88	554
800.294	552.8
800.708	557.4
801.123	555.4
801.516	567.8
801.93	543.8
802.345	542.8
802.76	547.2
803.153	565.2
803.568	559.2
803.983	558.8
804.377	546
804.792	547.8
805.207	541.2
805.601	552.4
806.016	580.8
806.432	546.4
806.826	575.4
807.242	564
807.658	558
808.052	552.2
808.468	553.6
808.884	546.6
809.279	559.4
809.695	566.4
810.111	567.8
810.506	555
810.922	563.2
811.339	544
811.734	557.4
812.151	560
812.546	553.6
812.963	548
813.38	554.2
813.776	555.6
814.193	571
814.589	550.4
815.006	555.4
815.402	549.6
815.82	555
816.237	555.2
816.633	556.8
817.051	552.4
817.448	560.8
817.866	542.4
818.262	562.4
818.68	555.4
819.077	550.4
819.495	551
819.892	587.8
820.311	552
820.708	550.8
821.127	546
821.524	564.2
821.943	556.6
822.34	570
822.759	556.8
823.157	560.6
823.576	568.2
823.974	555.2
824.393	591.8
824.791	551.8
825.189	555.8
825.609	553
826.007	556.4
826.427	549
826.826	545.4
827.246	556.2
827.644	544.8
828.043	563.8
828.463	552.8
828.862	562.2
829.261	558
829.682	543.2
830.081	562.2
830.502	544.8
830.901	553.6
831.301	562.2
831.722	546
832.121	556.2
832.521	548.6
832.943	551.6
833.342	542.4
833.742	544
834.164	552.2
834.564	546.4
834.965	546
835.386	545.2
835.787	552.6
836.188	553.8
836.588	559
837.01	550.4
837.411	544.4
837.812	553.8
838.213	556.4
838.636	551.6
839.037	604.8
839.438	560.6
839.84	552.8
840.263	556.4
840.664	556.4
841.066	560.4
841.468	551.6
841.891	553
842.293	560.4
842.695	553.8
843.098	563
843.5	551.4
843.902	558.8
844.326	554.6
844.729	557.6
845.131	560.8
845.534	555
845.937	565.8
846.34	571.6
846.764	555
847.167	552.8
847.571	553.2
847.974	561.2
848.377	550.4
848.781	588.8
849.184	561.8
849.588	547.6
849.992	546.8
850.396	555
850.821	565.2
851.225	559.6
851.63	551.2
852.034	557
852.438	550.6
852.843	575.8
853.247	544.4
853.652	548.2
854.057	568.8
854.462	558.6
854.867	562.8
855.272	583.4
855.677	557.2
856.082	544.6
856.487	548.2
856.893	558.2
857.298	548.8
