#lambda/nm	C1
208.295	548.2
208.67	491.2
209.045	449.2
209.419	451.6
209.794	596.8
210.169	586.2
210.544	690.2
210.919	600
211.295	594.4
211.67	599.2
212.045	594.4
212.421	584.8
212.796	630.6
213.172	593
213.547	580.8
213.923	593
214.299	594.4
214.675	597.4
215.051	602.8
215.427	607.6
215.803	611.4
216.179	604.6
216.555	586.6
216.932	596.2
217.308	602.4
217.684	597.6
218.061	600.6
218.438	600.6
218.814	590.4
219.191	603
219.568	584.8
219.945	581.2
220.322	599.6
220.699	599.4
221.076	600.4
221.453	594
221.83	590.8
222.208	587.2
222.585	590.8
222.962	602.2
223.34	594
223.717	594
224.095	592.6
224.473	599.4
224.851	591.2
225.229	585.2
225.607	606
225.985	583.4
226.363	594.6
226.741	595.8
227.119	596
227.497	602.8
227.876	594
228.254	601
228.633	600.6
229.011	603.4
229.39	596.4
229.769	603.8
230.148	605.4
230.527	610.2
230.905	601
231.284	595.2
231.664	592.2
232.043	609.2
232.422	609
232.801	593.8
233.181	596.8
233.56	582.6
233.94	587
234.319	580.6
234.699	588.8
235.079	628
235.458	631.4
235.838	609.8
236.218	586.8
236.598	583.6
236.978	586.2
237.358	596.2
237.738	589.4
238.119	604.8
238.499	584.8
238.88	595.8
239.26	615.8
239.641	579.8
240.021	594.4
240.402	590.4
240.783	587.2
241.163	593
241.544	597.2
241.925	595.6
242.306	605.8
242.687	591
243.069	599.6
243.45	603.8
243.831	587.6
244.212	588.4
244.594	628.4
244.975	606.4
245.357	591.2
245.739	591
246.12	590.6
246.502	611.6
246.884	582.6
247.266	587.2
247.648	592.6
248.03	609.8
248.412	594.2
248.794	595.6
249.176	593.4
249.559	597.4
249.941	586.6
250.323	585
250.706	587.4
251.089	597.4
251.471	602
251.854	591.4
252.237	593
252.62	603
253.002	597.4
253.385	600.2
253.769	610.6
254.152	597.2
254.535	604.2
254.918	582
255.301	581.8
255.685	584
256.068	589.6
256.452	611.8
256.835	594
257.219	596
257.603	602.4
257.986	581.2
258.37	600.4
258.754	577.8
259.138	594.6
259.522	602.4
259.906	594
260.29	594.8
260.675	593.6
261.059	593.8
261.443	588.2
261.828	596.2
262.212	605
262.597	580.8
262.981	594.4
263.366	601.2
263.751	592.4
264.136	589.8
264.521	589.6
264.906	588.4
265.291	607.2
265.676	593.2
266.061	600.2
266.446	618
266.831	592
267.217	605.8
267.602	599.6
267.987	597.6
268.373	591.2
268.759	608.8
269.144	602
269.53	596
269.916	588.6
270.302	582
270.688	595.4
271.074	596.6
271.46	602.2
271.846	622.6
272.232	596
272.618	591.2
273.004	587
273.391	604.8
273.777	605.2
274.164	602.6
274.55	600.8
274.937	597.4
275.324	598.4
275.71	602
276.097	596
276.484	599.4
276.871	597.2
277.258	592.4
277.645	578
278.032	595.4
278.419	593
278.807	605
279.194	587.2
279.581	587.8
279.969	597.4
280.356	598
280.744	599.4
281.131	615.4
281.519	601.6
281.907	587.4
282.295	586.8
282.682	608.4
283.07	598.6
283.458	601.4
283.846	607.2
284.235	611.4
284.623	606
285.011	592.6
285.399	596
285.788	595.8
286.176	589.8
286.565	605.8
286.953	596
287.342	587.2
287.731	584
288.119	593
288.508	596.8
288.897	594.4
289.286	595
289.675	599.6
290.064	606.2
290.453	592
290.821	599.2
291.21	610.4
291.599	594.2
291.989	588
292.378	598
292.768	610
293.157	596.2
293.547	600.6
293.936	590.6
294.326	585.6
294.716	599
295.106	593.8
295.496	602
295.886	600.2
296.276	591.8
296.666	580.8
297.056	592.2
297.446	582.6
297.836	599.6
298.227	588.6
298.617	584.2
299.008	599.6
299.398	587.6
299.789	581.2
300.179	589.8
300.57	594.2
300.961	593
301.352	585.8
301.742	600.2
302.133	590.2
302.524	590.8
302.915	584.2
303.307	577.8
303.698	593.4
304.089	596.8
304.48	599.4
304.872	598.4
305.263	595.4
305.655	585.4
306.046	603.8
306.438	595.8
306.829	591.2
307.221	603
307.613	601.4
308.005	609.2
308.397	609.6
308.789	605.8
309.181	610.4
309.573	607
309.965	610
310.357	596.6
310.749	609.6
311.142	594.8
311.534	594.4
311.926	600
312.319	602
312.711	587.4
313.104	605.6
313.497	593.4
313.889	633.6
314.282	613.6
314.675	616
315.068	596.6
315.461	596.4
315.854	617.4
316.247	591.8
316.64	593
317.033	598.2
317.405	600.2
317.798	597
318.192	595.6
318.585	580.8
318.979	599.2
319.372	588.4
319.766	595.2
320.16	606.4
320.553	604.6
320.947	611.6
321.341	596.6
321.735	593.4
322.129	586.6
322.523	611.2
322.917	589
323.311	601.4
323.705	603.6
324.099	595.4
324.494	609.6
324.888	601.4
325.282	594
325.677	608.6
326.071	599.2
326.466	604.4
326.861	597.4
327.255	606
327.65	612.6
328.045	621.2
328.44	596.6
328.835	601.6
329.23	586.6
329.625	610.8
330.02	592.2
330.415	618
330.81	601
331.206	606.4
331.601	595.8
331.996	602.2
332.37	611.4
332.766	585.6
333.161	608.8
333.557	584
333.953	598.4
334.348	796.8
334.744	594.4
335.14	589.4
335.536	587.2
335.932	607.8
336.328	606.8
336.724	613
337.12	605
337.516	599.8
337.913	591.8
338.309	605.6
338.705	586.4
339.102	604.8
339.498	595.4
339.895	612.6
340.291	582.8
340.688	601.4
341.085	580
341.481	599.4
341.878	598.2
342.275	613.2
342.672	591
343.069	586
343.466	586
343.842	602.8
344.239	578
344.636	591.4
345.033	587
345.431	593
345.828	593.2
346.225	590.6
346.623	621.4
347.02	595.6
347.418	600.4
347.816	598.8
348.213	588.2
348.611	594.4
349.009	592.6
349.407	600.8
349.805	584.8
350.203	590
350.601	602.6
350.999	583.2
351.397	640
351.795	595.6
352.193	600.2
352.57	597.8
352.969	606.2
353.367	584.2
353.766	581.2
354.164	589.6
354.563	603.8
354.961	588
355.36	587.8
355.759	588
356.158	580.2
356.557	586
356.956	576.8
357.355	574.4
357.754	597.8
358.153	588.2
358.552	607.8
358.951	589.4
359.35	607.4
359.75	587
360.149	582.8
360.527	578.2
360.926	586.4
361.326	594.8
361.726	591.2
362.125	579.4
362.525	590.8
362.925	592
363.325	590.8
363.724	596.8
364.124	587.8
364.524	584.6
364.924	586.8
365.324	600
365.725	582.8
366.125	594
366.525	589.4
366.904	580.4
367.304	569.6
367.705	602
368.105	603
368.506	587.2
368.906	586.8
369.307	581.6
369.708	589
370.108	572.4
370.509	600.4
370.91	579.2
371.311	585.4
371.712	588.6
372.113	589
372.514	582.8
372.894	588
373.295	584.2
373.696	599.4
374.097	595.6
374.499	618.4
374.9	585.4
375.301	578.6
375.703	595
376.105	584.4
376.506	592.8
376.908	597.4
377.309	587.2
377.711	585.4
378.113	587.8
378.493	589.8
378.895	581.2
379.297	598.2
379.699	577
380.102	602.6
380.504	591.4
380.906	594.2
381.308	607
381.71	584.8
382.113	594.6
382.515	583
382.918	590.6
383.299	588.4
383.701	595.4
384.104	590.2
384.507	575.6
384.909	587.8
385.312	579.8
385.715	588.4
386.118	591.4
386.521	580
386.924	592.2
387.327	585
387.709	577.6
388.112	574
388.515	582
388.918	587.6
389.322	591.4
389.725	581.6
390.129	613
390.532	590.4
390.936	586.8
391.339	584.8
391.743	584.8
392.125	585.6
392.529	600.2
392.933	600.2
393.337	589.4
393.74	581.2
394.144	586
394.548	579.2
394.953	576.2
395.357	590
395.761	575.2
396.144	585.4
396.548	582.6
396.952	582.4
397.357	579.6
397.761	575.8
398.166	579.8
398.57	579.8
398.975	572.4
399.379	584.8
399.763	628.4
400.168	581
400.572	586.8
400.977	579.4
401.382	600.4
401.787	589
402.192	594
402.597	598
403.002	578
403.386	600.2
403.791	598.2
404.197	578.6
404.602	592.8
405.007	590.6
405.413	582.2
405.818	587.2
406.224	574.8
406.608	585.6
407.014	576.4
407.42	601.6
407.825	591.6
408.231	592.2
408.637	593.8
409.043	603
409.449	581.6
409.834	583.6
410.24	586
410.646	590.2
411.052	589.6
411.458	586.4
411.865	594.2
412.271	597.2
412.677	595.6
413.062	597.8
413.469	575.8
413.875	606
414.282	595.4
414.689	587
415.095	589.2
415.502	572.4
415.888	585
416.294	576.8
416.701	624.8
417.108	588.6
417.515	592
417.923	581.8
418.33	606.8
418.715	604.2
419.123	586.8
419.53	580.2
419.937	585.8
420.345	601.4
420.752	583.2
421.16	598.6
421.546	590
421.953	600.2
422.361	584.6
422.769	592
423.177	581.8
423.585	612.2
423.992	609.8
424.379	598.4
424.787	593
425.195	597.6
425.603	590.2
426.011	601
426.419	593.2
426.806	595.6
427.214	593.2
427.623	600.6
428.031	606.8
428.44	596.4
428.848	604.4
429.235	609.4
429.644	595.6
430.053	588.4
430.461	597.8
430.87	614.4
431.279	595.2
431.666	584
432.075	591.4
432.484	589.4
432.893	585.6
433.302	606.6
433.711	620.8
434.099	587.8
434.508	591.8
434.918	580.2
435.327	598.2
435.737	593.4
436.125	586.8
436.534	588.4
436.944	583
437.353	596.8
437.763	605.8
438.173	584.2
438.561	594.6
438.971	584.4
439.381	589.6
439.791	590.6
440.201	571.8
440.589	585.8
440.999	586
441.409	592.2
441.819	578.8
442.23	588
442.619	598.6
443.029	587.8
443.439	590.6
443.85	592.8
444.26	601.6
444.649	591.4
445.06	586.2
445.471	576.2
445.881	596.2
446.292	599.4
446.682	605
447.092	581.2
447.503	626
447.914	590
448.325	587
448.715	586.8
449.126	582.6
449.537	577.4
449.948	592.2
450.338	584
450.75	590.8
451.161	581.8
451.572	592.8
451.984	577
452.374	567.6
452.786	584.6
453.197	581.4
453.609	593.2
453.999	569.8
454.411	571.4
454.823	587.6
455.235	588.4
455.647	571.4
456.037	590.6
456.449	573.2
456.862	592.4
457.274	587.4
457.665	580
458.077	587.2
458.489	610.6
458.902	579
459.293	583.4
459.705	586.8
460.118	582.2
460.53	582
460.921	582.6
461.334	587.2
461.747	588.6
462.16	595.4
462.551	597
462.964	587.6
463.377	572.4
463.79	578.8
464.182	591.8
464.595	581.4
465.008	590
465.421	582.8
465.813	584.6
466.226	584
466.64	572
467.053	611
467.445	583.4
467.859	598.4
468.272	581.4
468.686	594
469.078	584.4
469.492	575.6
469.906	582.8
470.298	585.4
470.712	574.8
471.126	626
471.54	572.8
471.933	570
472.347	576.6
472.761	577.4
473.175	578.8
473.568	573.6
473.982	570.4
474.397	585.2
474.79	579
475.204	588.2
475.619	577.4
476.033	583.4
476.426	580.4
476.841	577
477.256	594.6
477.649	571
478.064	577
478.479	584.6
478.872	574.6
479.287	566.6
479.702	579.8
480.118	587.8
480.511	578.8
480.927	579.8
481.342	579
481.736	585.2
482.151	573.6
482.566	593
482.96	582.6
483.376	590.2
483.792	576.8
484.186	582.4
484.602	583.8
485.017	576
485.412	574
485.827	589
486.243	580.8
486.638	599
487.054	590.2
487.47	589.8
487.865	572.8
488.281	570.8
488.697	578.6
489.092	576.4
489.508	567.6
489.925	587.8
490.32	570.8
490.736	585.8
491.153	570.2
491.548	578.4
491.964	587.4
492.381	560.8
492.776	576.8
493.193	580.6
493.61	572
494.006	565.6
494.422	583.6
494.84	570.2
495.235	580.6
495.652	576.6
496.069	576.8
496.465	569.6
496.883	584.8
497.3	595.8
497.696	576.6
498.113	590.4
498.509	565.4
498.927	567
499.344	568.6
499.741	570.4
500.158	584
500.576	588.8
500.973	574
501.39	570.8
501.787	572
502.205	575
502.623	568.8
503.02	574.2
503.438	572.4
503.856	579
504.253	579.8
504.671	572.8
505.068	563.8
505.486	572.8
505.905	594.2
506.302	585.8
506.72	597
507.118	572.2
507.536	575.4
507.955	584.2
508.352	584.6
508.771	583
509.169	584.2
509.587	577.8
510.006	573
510.404	572.8
510.823	578.8
511.221	576
511.64	577.6
512.038	584.4
512.457	573.2
512.877	576.4
513.275	566.6
513.694	574.8
514.092	576
514.512	583.2
514.91	589
515.33	578.6
515.749	575.6
516.148	580.2
516.568	584.2
516.966	572.4
517.386	567.8
517.785	576.2
518.205	576.8
518.603	570.8
519.024	568
519.444	584
519.843	582.4
520.263	591.2
520.662	583.4
521.082	578.4
521.481	584.8
521.902	576.4
522.301	579
522.722	583
523.121	583
523.542	575.4
523.963	575
524.362	579.4
524.783	580
525.183	578.6
525.604	579.2
526.003	574
526.425	576.2
526.824	584.4
527.246	587
527.646	585.2
528.067	578.6
528.467	582.6
528.888	579
529.289	576
529.71	575.8
530.11	575
530.532	572.6
530.932	573
531.354	570.4
531.755	602
532.176	586
532.577	578
532.999	580.4
533.4	567.4
533.822	585
534.223	589
534.645	570
535.046	579
535.468	576.4
535.869	588.6
536.292	575.4
536.693	609.6
537.115	586
537.516	576
537.939	570.2
538.34	593.2
538.742	586.6
539.165	579.4
539.566	582.8
539.989	567
540.391	572.2
540.814	576.6
541.216	573
541.639	570.6
542.041	572.6
542.464	573.4
542.866	568
543.268	566.2
543.691	573.2
544.093	579.2
544.517	597
544.919	567
545.343	596
545.745	566.4
546.147	576.2
546.571	574.2
546.974	564.4
547.398	576
547.8	590.2
548.224	575.6
548.627	568.2
549.03	580
549.454	558.6
549.857	562.8
550.281	572
550.684	561.8
551.087	581.8
551.512	568.8
551.915	583.4
552.34	576.8
552.743	567.8
553.146	577.8
553.571	573.8
553.975	586.8
554.399	563.6
554.803	613.4
555.207	581.2
555.632	574.8
556.036	577.6
556.461	569.2
556.865	576
557.268	569.2
557.694	577.4
558.098	584.2
558.502	576
558.927	573
559.332	576.8
559.736	578.8
560.162	587.8
560.566	572.2
560.992	582
561.396	575.8
561.801	574.4
562.227	571.6
562.631	577.6
563.036	566.8
563.462	584.4
563.867	575.2
564.272	567
564.698	579.2
565.103	568
565.508	588.2
565.935	581.2
566.34	572.6
566.745	582.2
567.172	565.2
567.577	586.6
567.982	588.6
568.409	576
568.815	569.2
569.22	581.8
569.626	580.8
570.053	566.8
570.459	581.8
570.865	576.4
571.292	578.6
571.698	580.4
572.104	566.4
572.531	578.8
572.937	586.4
573.343	572.6
573.75	574.4
574.177	580
574.583	579
574.99	576.6
575.396	573.8
575.824	578
576.231	589
576.637	575.8
577.065	596.6
577.472	577.2
577.879	580.8
578.286	590.6
578.714	572.6
579.121	569.2
579.528	585.6
579.935	581
580.364	570.8
580.771	561.2
581.178	563.2
581.585	572.6
582.014	576.2
582.421	575
582.829	567.8
583.236	590.6
583.644	567.2
584.073	565
584.481	578.8
584.889	570
585.296	580.2
585.726	577.4
586.134	564.4
586.542	569.4
586.95	592
587.358	572.2
587.787	578
588.196	586
588.604	569.6
589.012	569.8
589.421	561
589.851	555
590.259	567
590.668	574.4
591.076	599.6
591.485	552.6
591.894	564
592.324	589
592.733	573.6
593.142	563.6
593.551	571.2
593.96	599.6
594.369	571.6
594.8	568.6
595.209	566.4
595.618	565.4
596.028	571.4
596.437	567.4
596.847	570.2
597.256	576
597.687	573.4
598.097	571.6
598.507	570.8
598.917	583.2
599.327	574.6
599.736	579.8
600.146	581
600.556	581.4
600.988	589.8
601.398	571.6
601.808	587.2
602.219	558
602.629	578.6
603.039	574.2
603.45	601.2
603.86	578.6
604.271	582.2
604.703	589.8
605.114	581.2
605.525	577.8
605.935	586.6
606.346	595.8
606.757	577
607.168	579.4
607.579	578.6
607.99	596.6
608.402	582.2
608.813	581.8
609.224	578.2
609.636	581.8
610.047	569.8
610.48	586
610.892	587.8
611.303	591.4
611.715	584.6
612.127	578.2
612.539	584.4
612.95	587
613.362	576
613.774	578.2
614.186	583.2
614.599	579.8
615.011	593.6
615.423	588
615.835	586.2
616.248	582.4
616.66	594.2
617.073	584.2
617.485	589
617.898	593.2
618.311	589.2
618.723	592
619.136	606.8
619.549	611.4
619.962	611.4
620.375	592.2
620.788	597
621.201	587.8
621.614	600.6
622.028	595.2
622.441	595.6
622.854	602.8
623.268	588
623.681	605
624.095	598
624.509	606.6
624.922	597
625.336	594.4
625.728	597.4
626.142	611.2
626.556	616
626.97	602.6
627.384	593.4
627.799	592.2
628.213	612
628.627	596.2
629.041	585.4
629.456	600
629.87	606.8
630.285	611.2
630.699	618.6
631.093	603
631.507	604.6
631.922	603.8
632.337	609.6
632.752	591.2
633.167	597.8
633.582	598.4
633.997	589.8
634.412	592.8
634.806	593.4
635.221	586.4
635.637	608.2
636.052	587.8
636.468	604.4
636.883	614.6
637.299	590
637.715	579.4
638.109	599.6
638.525	585
638.941	598
639.357	597.6
639.773	599.6
640.189	594.6
640.584	596.4
641	591.4
641.416	588
641.832	588.6
642.249	590.8
642.665	592.6
643.06	599.6
643.477	595
643.894	574
644.31	582.6
644.727	594.6
645.123	581.6
645.54	585.2
645.957	590.2
646.374	592.4
646.77	594.4
647.187	614.6
647.604	586
648.021	570.2
648.439	578.2
648.835	580.6
649.252	586
649.67	587
650.088	587.4
650.484	593.8
650.902	592.8
651.32	590.2
651.738	583.6
652.134	578.4
652.552	601
652.971	591.6
653.389	582
653.786	600
654.204	598.4
654.622	578.4
655.019	587.6
655.438	583.2
655.857	576.8
656.275	585
656.673	569.8
657.091	587.4
657.51	570.8
657.908	589.8
658.327	588.2
658.746	567.6
659.144	575
659.563	582.8
659.982	581
660.38	569
660.8	574.8
661.219	584.6
661.617	584.6
662.037	577.2
662.457	586.4
662.855	568.4
663.275	598.6
663.695	583
664.094	571.8
664.514	579
664.934	570.2
665.333	581
665.753	576
666.152	568.4
666.572	571.4
666.993	585.6
667.392	570.4
667.812	565.4
668.212	571.2
668.632	587
669.053	577.4
669.453	575.6
669.874	576.2
670.273	584
670.694	570.6
671.116	588
671.515	587.8
671.937	573.4
672.337	571.6
672.758	570.8
673.158	579.8
673.58	563.4
673.98	574
674.402	587.2
674.824	574.2
675.224	564.8
675.646	570.8
676.047	566.6
676.469	566.2
676.869	581.8
677.292	574.2
677.693	566.4
678.115	571.6
678.516	575.2
678.939	579
679.34	571.6
679.762	584.2
680.164	570.4
680.586	567.2
680.988	572
681.411	591.6
681.812	565.6
682.236	554.6
682.637	563.6
683.061	560.8
683.462	576.2
683.864	573.2
684.288	576.6
684.69	567.4
685.114	575.2
685.516	572.6
685.94	557.8
686.342	569.6
686.766	560.8
687.168	556
687.571	581
687.995	567.8
688.398	556
688.822	562.8
689.225	581.8
689.628	584.8
690.052	564.8
690.456	571.2
690.88	553.4
691.284	564
691.687	578
692.112	567
692.515	564.6
692.919	574
693.344	576.4
693.747	561.2
694.173	566.4
694.577	579.2
694.98	564.6
695.406	568.8
695.81	570.6
696.214	578.6
696.64	576.4
697.044	571.6
697.448	579.4
697.874	566.6
698.279	566.6
698.684	560.4
699.11	566
699.514	566.6
699.919	568.6
700.324	565
700.75	568
701.156	571
701.561	578.6
701.987	571.6
702.393	578.4
702.798	580
703.203	569.8
703.63	558
704.036	570.4
704.442	570.6
704.847	562.6
705.274	568.4
705.68	575.6
706.086	580.6
706.492	561.6
706.92	568.4
707.326	575.2
707.732	563.4
708.139	563.2
708.545	563.6
708.973	568.6
709.38	573.2
709.786	557
710.193	580.8
710.6	573
711.028	563.8
711.435	566.4
711.842	567.2
712.249	554.4
712.656	570.2
713.064	576.2
713.492	562.6
713.9	569.2
714.307	569
714.715	570.4
715.123	575.4
715.53	571.2
715.938	582
716.367	569
716.775	568.4
717.184	561.4
717.592	564.6
718	575.4
718.408	591.6
718.816	607.8
719.225	564.6
719.633	563
720.042	558
720.472	566.6
720.881	583.2
721.29	565.6
721.699	558.2
722.108	567.2
722.517	569.8
722.926	566.6
723.335	576
723.744	569
724.154	569.4
724.563	573.8
724.973	568.2
725.382	562.2
725.792	562.8
726.202	560
726.612	579.6
727.022	565.4
727.432	565.4
779.813	567.4
780.223	605.6
780.634	562.4
781.044	566
781.454	570.2
781.865	579.6
782.276	561.4
782.686	588.8
783.097	571.6
783.508	560
783.919	563.4
784.33	581.8
784.741	580.8
785.152	566.4
785.563	554.4
785.974	560.8
786.386	572.6
786.776	564.8
787.188	565.2
787.599	563
788.011	576.8
788.423	571.8
788.835	561.8
789.247	556.8
789.659	568.4
790.071	569
790.483	601.2
790.874	562
791.286	568.6
791.699	561
792.111	564.6
792.524	568.4
792.937	559.2
793.349	550.8
793.741	558.6
794.154	559.6
794.567	576.6
794.98	557.6
795.393	566
795.785	575.2
796.198	559.4
796.612	564.2
797.026	561
797.439	549.2
797.831	564.4
798.245	554.6
798.659	558.4
799.073	560.2
799.487	564.4
799.88	567.6
800.294	574.8
800.708	569.4
801.123	572.2
801.516	579.8
801.93	558
802.345	548.4
802.76	572.6
803.153	580.4
803.568	572.2
803.983	569
804.377	564
804.792	558.2
805.207	560
805.601	570.6
806.016	590
806.432	561.6
806.826	583.6
807.242	583.4
807.658	566.8
808.052	564.4
808.468	554.4
808.884	558.2
809.279	568
809.695	575.6
810.111	578
810.506	566
810.922	581
811.339	558.2
811.734	568.4
812.151	567
812.546	557
812.963	560
813.38	568.4
813.776	566
814.193	584.6
814.589	563
815.006	564.6
815.402	563.4
815.82	566.6
816.237	571.4
816.633	566
817.051	560.6
817.448	556.8
817.866	550.2
818.262	585.2
818.68	570.6
819.077	563.8
819.495	570.6
819.892	593.4
820.311	567.8
820.708	564.6
821.127	563.8
821.524	566.6
821.943	572.2
822.34	577.4
822.759	558.4
823.157	572.6
823.576	576
823.974	573
824.393	605.6
824.791	558
825.189	559.6
825.609	563.6
826.007	568
826.427	554.2
826.826	565.4
827.246	565
827.644	547.2
828.043	573.6
828.463	558.4
828.862	570.6
829.261	565
829.682	556.6
830.081	567.6
830.502	562.2
830.901	561.6
831.301	577.6
831.722	554.8
832.121	563.8
832.521	554.2
832.943	562.4
833.342	561.4
833.742	555.4
834.164	557.8
834.564	547
834.965	562.8
835.386	557.4
835.787	559.2
836.188	558.2
836.588	561
837.01	563.6
837.411	547
837.812	561.8
838.213	561.6
838.636	560.8
839.037	614.6
839.438	571.6
839.84	567.2
840.263	569.2
840.664	570.4
841.066	565.8
841.468	570.2
841.891	557.6
842.293	570.4
842.695	563.4
843.098	565.4
843.5	557.2
843.902	567
844.326	566.4
844.729	562.2
845.131	578.6
845.534	563.4
845.937	569.6
846.34	575.2
846.764	564.2
847.167	566.8
847.571	559.4
847.974	564.2
848.377	564.8
848.781	603
849.184	579.2
849.588	564.6
849.992	565.8
850.396	567
850.821	580.4
851.225	562.6
851.63	559
852.034	579.6
852.438	565.8
852.843	635.6
853.247	563.6
853.652	563.6
854.057	579.4
854.462	565.2
854.867	564.2
855.272	584.8
855.677	574.4
856.082	564.8
856.487	564.6
856.893	568.8
857.298	564.4
857.704	557.2
858.11	570.8
