#lambda/nm	C1
208.295	534
208.67	485
209.045	448.8
209.419	448.2
209.794	605
210.169	594.2
210.544	702.6
210.919	612.4
211.295	592.4
211.67	610.2
212.045	601.2
212.421	605.2
212.796	638.2
213.172	593.2
213.547	602.4
213.923	595
214.299	597.6
214.675	607.4
215.051	612.8
215.427	614.6
215.803	621
216.179	610.4
216.555	598
216.932	608.4
217.308	596.6
217.684	606.2
218.061	605.2
218.438	617
218.814	593.8
219.191	610.2
219.568	593.4
219.945	598.6
220.322	606.4
220.699	604.6
221.076	606
221.453	605.6
221.83	599.2
222.208	605.2
222.585	601.4
222.962	601.6
223.34	605.4
223.717	604
224.095	606.4
224.473	610.8
224.851	597.2
225.229	590.8
225.607	608.8
225.985	588
226.363	601.4
226.741	603.4
227.119	597
227.497	610.4
227.876	589.2
228.254	605.4
228.633	605.6
229.011	595.4
229.39	600.6
229.769	605.2
230.148	609
230.527	621.4
230.905	607.6
231.284	598.2
231.664	608.4
232.043	613.8
232.422	613.8
232.801	598.8
233.181	610.2
233.56	596.4
233.94	608
234.319	590.6
234.699	597.2
235.079	636.2
235.458	632.2
235.838	613.4
236.218	595.8
236.598	591.6
236.978	599.2
237.358	599
237.738	599
238.119	608.6
238.499	587.6
238.88	601.8
239.26	619.6
239.641	596
240.021	601.8
240.402	601.2
240.783	595.2
241.163	602.8
241.544	609.8
241.925	603
242.306	610.8
242.687	599.8
243.069	605.6
243.45	607.8
243.831	603.8
244.212	601.4
244.594	634.8
244.975	612.4
245.357	613
245.739	599
246.12	605.4
246.502	616.8
246.884	608.2
247.266	601.6
247.648	609.6
248.03	627
248.412	601.6
248.794	610.4
249.176	596
249.559	610.4
249.941	601.4
250.323	595
250.706	598.4
251.089	606.6
251.471	612.4
251.854	601.2
252.237	599.8
252.62	610.4
253.002	604.6
253.385	605
253.769	613.4
254.152	602.2
254.535	610
254.918	597.6
255.301	599
255.685	599
256.068	598.6
256.452	633.8
256.835	607.2
257.219	609.4
257.603	619
257.986	584.6
258.37	612.2
258.754	593.6
259.138	615.8
259.522	608.4
259.906	602.6
260.29	597.4
260.675	603
261.059	602.8
261.443	593
261.828	608.2
262.212	607
262.597	591.8
262.981	597.8
263.366	603.2
263.751	609
264.136	597.6
264.521	604.6
264.906	590.2
265.291	616
265.676	603
266.061	616.2
266.446	619.2
266.831	607.6
267.217	616.4
267.602	606.6
267.987	605.2
268.373	605.2
268.759	614.2
269.144	605.6
269.53	605.6
269.916	601.6
270.302	607.6
270.688	609.2
271.074	610.8
271.46	617.8
271.846	634
272.232	608.8
272.618	599.6
273.004	604.6
273.391	609.6
273.777	612
274.164	601.6
274.55	609.6
274.937	602.6
275.324	602.8
275.71	610.8
276.097	606
276.484	603.2
276.871	608.6
277.258	601.6
277.645	586
278.032	598.8
278.419	596.6
278.807	605.4
279.194	594.6
279.581	593.6
279.969	604.6
280.356	598.2
280.744	602.6
281.131	624.4
281.519	614.2
281.907	605.4
282.295	603
282.682	609.2
283.07	602.8
283.458	614.4
283.846	618.2
284.235	615.2
284.623	614
285.011	591.8
285.399	614.6
285.788	610.4
286.176	599.8
286.565	620.4
286.953	603.4
287.342	598.6
287.731	599.2
288.119	594
288.508	603.4
288.897	603.2
289.286	593.8
289.675	610.2
290.064	618.8
290.453	607.2
290.821	607.8
291.21	618.6
291.599	601.8
291.989	610
292.378	608.2
292.768	624.2
293.157	613.6
293.547	612.4
293.936	601.4
294.326	598.2
294.716	610
295.106	599.6
295.496	614.4
295.886	615.2
296.276	598.8
296.666	601
297.056	604.4
297.446	599
297.836	619.6
298.227	601.4
298.617	605.4
299.008	616
299.398	598
299.789	607
300.179	614.4
300.57	618.8
300.961	608.4
301.352	598.2
301.742	610
302.133	608.6
302.524	609
302.915	608.4
303.307	601.8
303.698	612.6
304.089	613.8
304.48	603
304.872	610
305.263	607
305.655	598.4
306.046	613.2
306.438	607.6
306.829	597.2
307.221	616.6
307.613	611
308.005	619.8
308.397	614.6
308.789	621.2
309.181	634.6
309.573	615.8
309.965	612.6
310.357	607
310.749	611.4
311.142	598
311.534	601.8
311.926	616.8
312.319	602.6
312.711	599.8
313.104	612.8
313.497	606.6
313.889	645.4
314.282	615
314.675	623.8
315.068	610.6
315.461	602.2
315.854	633.6
316.247	609
316.64	608.8
317.033	605
317.405	608.2
317.798	601.2
318.192	610.2
318.585	597.4
318.979	609.8
319.372	601.8
319.766	602.8
320.16	616.6
320.553	614.4
320.947	626.2
321.341	611.2
321.735	608.6
322.129	597
322.523	622.4
322.917	597.4
323.311	611.6
323.705	600
324.099	605.6
324.494	614.2
324.888	611.6
325.282	599.8
325.677	607.8
326.071	602.2
326.466	613.2
326.861	609.2
327.255	618.6
327.65	614.8
328.045	616
328.44	605.8
328.835	600.2
329.23	591
329.625	622
330.02	601
330.415	622.6
330.81	600
331.206	610.6
331.601	602.6
331.996	605.8
332.37	622.8
332.766	592.6
333.161	622.2
333.557	590.4
333.953	608.8
334.348	928.4
334.744	602.8
335.14	608
335.536	597
335.932	614.2
336.328	598.6
336.724	619.6
337.12	603.4
337.516	613.8
337.913	611.2
338.309	616.8
338.705	600.8
339.102	614.6
339.498	598.4
339.895	613.2
340.291	591.8
340.688	608.8
341.085	590
341.481	605
341.878	600.2
342.275	620.4
342.672	598.2
343.069	598.8
343.466	591.4
343.842	605.6
344.239	600.4
344.636	608.4
345.033	608.4
345.431	607.4
345.828	603.6
346.225	601.2
346.623	637.6
347.02	604.8
347.418	612.2
347.816	626.4
348.213	600.8
348.611	603.8
349.009	607.4
349.407	614.2
349.805	593.6
350.203	591.8
350.601	613.6
350.999	593.6
351.397	640.8
351.795	605
352.193	608.6
352.57	610
352.969	617.4
353.367	604
353.766	597.2
354.164	606.6
354.563	612.4
354.961	602
355.36	604.4
355.759	599.8
356.158	595.8
356.557	593.6
356.956	592.6
357.355	586.4
357.754	601.8
358.153	596.4
358.552	622
358.951	601
359.35	612.4
359.75	598.8
360.149	591.4
360.527	590
360.926	594.4
361.326	604.6
361.726	596.6
362.125	594.6
362.525	602.8
362.925	597.6
363.325	603.2
363.724	598.8
364.124	599
364.524	602.4
364.924	597.4
365.324	612.8
365.725	578.6
366.125	605.2
366.525	602.2
366.904	595.6
367.304	574.4
367.705	613.6
368.105	610.4
368.506	598
368.906	598.2
369.307	600.4
369.708	603.8
370.108	592
370.509	607.6
370.91	593.6
371.311	604.8
371.712	594.8
372.113	596.6
372.514	591.6
372.894	605.4
373.295	595.6
373.696	607.8
374.097	612.2
374.499	622
374.9	592.2
375.301	595.8
375.703	607
376.105	596.8
376.506	603.2
376.908	602.4
377.309	598.4
377.711	597.4
378.113	588
378.493	597.2
378.895	598
379.297	611.6
379.699	584.8
380.102	607.2
380.504	595.4
380.906	593.6
381.308	620.6
381.71	597.6
382.113	605
382.515	604
382.918	604.8
383.299	592.4
383.701	610
384.104	600
384.507	584
384.909	595.8
385.312	587
385.715	589.6
386.118	593.4
386.521	589.8
386.924	614.6
387.327	591.8
387.709	587.8
388.112	592.8
388.515	591.8
388.918	602.2
389.322	601
389.725	589.6
390.129	616.4
390.532	603.8
390.936	595.2
391.339	591
391.743	598.2
392.125	593.2
392.529	606.8
392.933	609.6
393.337	598.4
393.74	591.8
394.144	602
394.548	592.2
394.953	589
395.357	597.4
395.761	598.8
396.144	605
396.548	605.4
396.952	599
397.357	598
397.761	591.8
398.166	591.2
398.57	595.4
398.975	585.2
399.379	598.4
399.763	639
400.168	601.6
400.572	598
400.977	594.6
401.382	612.2
401.787	610.4
402.192	614.6
402.597	611.6
403.002	585.8
403.386	604.8
403.791	614
404.197	595
404.602	602
405.007	593.4
405.413	595.6
405.818	591
406.224	595.6
406.608	596.4
407.014	588.2
407.42	604
407.825	597.8
408.231	597.6
408.637	606.4
409.043	606.6
409.449	594
409.834	586
410.24	593.6
410.646	606.8
411.052	605.2
411.458	588.4
411.865	594.8
412.271	605
412.677	590.6
413.062	593.2
413.469	585
413.875	615.4
414.282	607.8
414.689	603
415.095	602.2
415.502	587.2
415.888	596.4
416.294	581.4
416.701	627.8
417.108	589.4
417.515	602.8
417.923	596.6
418.33	614.4
418.715	608.6
419.123	601.4
419.53	595.4
419.937	596
420.345	609.8
420.752	592.8
421.16	611.4
421.546	594.4
421.953	605.6
422.361	594
422.769	593
423.177	588.8
423.585	613.8
423.992	613.4
424.379	604.4
424.787	604.6
425.195	616.6
425.603	590.6
426.011	611.2
426.419	611.2
426.806	597.2
427.214	596.8
427.623	610.2
428.031	613.4
428.44	600.2
428.848	603
429.235	607
429.644	602.2
430.053	594.8
430.461	610
430.87	618.6
431.279	611.6
431.666	591.8
432.075	589.4
432.484	603.2
432.893	599
433.302	615.2
433.711	638.2
434.099	596.6
434.508	605.8
434.918	592.8
435.327	605
435.737	600.6
436.125	597.6
436.534	598.8
436.944	600
437.353	600.2
437.763	617.2
438.173	587.2
438.561	604.2
438.971	582.4
439.381	590.6
439.791	597.6
440.201	587.2
440.589	601.2
440.999	602.2
441.409	602.2
441.819	588.2
442.23	607.6
442.619	603.6
443.029	605
443.439	596.2
443.85	604.6
444.26	611.4
444.649	608.2
445.06	602.6
445.471	590.8
445.881	600.4
446.292	609.8
446.682	611.8
447.092	581.8
447.503	639
447.914	591.6
448.325	585.4
448.715	596.8
449.126	592.8
449.537	593.2
449.948	601.2
450.338	597
450.75	608.8
451.161	598.4
451.572	596.4
451.984	592.6
452.374	590.6
452.786	596.4
453.197	591.8
453.609	597.8
453.999	576.8
454.411	586.4
454.823	595.8
455.235	601.4
455.647	589.8
456.037	596
456.449	584.4
456.862	595.2
457.274	599.2
457.665	581.2
458.077	600
458.489	614.8
458.902	583.8
459.293	596.4
459.705	587.6
460.118	577.2
460.53	588.8
460.921	596.6
461.334	593.4
461.747	588
462.16	598.4
462.551	603.6
462.964	602
463.377	583.6
463.79	591.2
464.182	599.2
464.595	585.8
465.008	602.6
465.421	588.6
465.813	592.2
466.226	600.6
466.64	593
467.053	638.2
467.445	599.6
467.859	606
468.272	595.8
468.686	600.2
469.078	593.4
469.492	579.6
469.906	593.8
470.298	602.2
470.712	580.8
471.126	630.8
471.54	590
471.933	584
472.347	598
472.761	591.4
473.175	584
473.568	589
473.982	583.6
474.397	583.2
474.79	587.6
475.204	610.6
475.619	584
476.033	596.4
476.426	593.4
476.841	586
477.256	613.4
477.649	584.4
478.064	580.8
478.479	583.6
478.872	582
479.287	579.6
479.702	586.8
480.118	587.8
480.511	587
480.927	595.8
481.342	584.8
481.736	591.4
482.151	583.8
482.566	594.2
482.96	593.8
483.376	595.8
483.792	581.6
484.186	594.8
484.602	591.2
485.017	590.2
485.412	597.4
485.827	589.6
486.243	590.8
486.638	606
487.054	594.4
487.47	601.8
487.865	589.4
488.281	588
488.697	588.8
489.092	592
489.508	581.8
489.925	600.6
490.32	581
490.736	600
491.153	588.6
491.548	593.6
491.964	597
492.381	577.6
492.776	591.4
493.193	590.2
493.61	603
494.006	593.2
494.422	592.2
494.84	583.8
495.235	596
495.652	593
496.069	598.4
496.465	575.8
496.883	584.4
497.3	612
497.696	584.6
498.113	597
498.509	585.8
498.927	573.4
499.344	580.2
499.741	585.8
500.158	599.6
500.576	596
500.973	589.6
501.39	586
501.787	579.2
502.205	597.6
502.623	582
503.02	582.2
503.438	582
503.856	590
504.253	586.8
504.671	596
505.068	599.2
505.486	585.4
505.905	602.2
506.302	585.4
506.72	598.4
507.118	583.2
507.536	580
507.955	588.8
508.352	578
508.771	597
509.169	594.2
509.587	582.8
510.006	590.6
510.404	565.8
510.823	582.8
511.221	579
511.64	578
512.038	591.4
512.457	585.6
512.877	579.8
513.275	583.2
513.694	582.8
514.092	592.2
514.512	583.6
514.91	588.4
515.33	575.8
515.749	587.8
516.148	590
516.568	592
516.966	584.8
517.386	578
517.785	586.6
518.205	574
518.603	581.8
519.024	586.6
519.444	585.2
519.843	592.4
520.263	595
520.662	592.6
521.082	584.2
521.481	579.4
521.902	589.6
522.301	586.4
522.722	588.6
523.121	584.2
523.542	579.8
523.963	586.4
524.362	585.2
524.783	590.4
525.183	576.4
525.604	587.4
526.003	577.6
526.425	577
526.824	591
527.246	591.4
527.646	590.6
528.067	578.8
528.467	589.2
528.888	583.8
529.289	578.6
529.71	585
530.11	589.6
530.532	579.4
530.932	576.8
531.354	576.4
531.755	608.8
532.176	580.8
532.577	587.6
532.999	581.8
533.4	580
533.822	599
534.223	595.6
534.645	578.2
535.046	580.6
535.468	579.4
535.869	599.8
536.292	580.6
536.693	610.4
537.115	582.4
537.516	582.2
537.939	581.8
538.34	599.8
538.742	594.4
539.165	589.2
539.566	585.6
539.989	575
540.391	586.4
540.814	581.8
541.216	587.4
541.639	583.6
542.041	590
542.464	581.4
542.866	575.6
543.268	571.4
543.691	587.4
544.093	592.4
544.517	596.2
544.919	574.6
545.343	599.6
545.745	575.8
546.147	586.8
546.571	596.6
546.974	578.2
547.398	586.6
547.8	597
548.224	584
548.627	581.4
549.03	588.8
549.454	577.8
549.857	576.8
550.281	585.6
550.684	585
551.087	598.4
551.512	589.2
551.915	597
552.34	589.6
552.743	580
553.146	589.8
553.571	585.2
553.975	602
554.399	574
554.803	632.8
555.207	575
555.632	582.6
556.036	589.2
556.461	584.8
556.865	589.8
557.268	576.8
557.694	585
558.098	590.2
558.502	591
558.927	579
559.332	583.2
559.736	583.2
560.162	587.6
560.566	581.4
560.992	593.6
561.396	585
561.801	579
562.227	588.8
562.631	579.4
563.036	582
563.462	586
563.867	580.6
564.272	573
564.698	585.8
565.103	570.8
565.508	598.4
565.935	583
566.34	593.4
566.745	597.2
567.172	582.6
567.577	606.6
567.982	595.4
568.409	583.4
568.815	582.2
569.22	589.6
569.626	593.2
570.053	573.2
570.459	583.8
570.865	590.6
571.292	592.2
571.698	591.4
572.104	571
572.531	577.6
572.937	593.6
573.343	582.4
573.75	581.4
574.177	580.6
574.583	590.2
574.99	582.4
575.396	587.6
575.824	581
576.231	596.6
576.637	578.4
577.065	609.8
577.472	584.8
577.879	580.6
578.286	598.4
578.714	588
579.121	579.6
579.528	586
579.935	592.4
580.364	575
580.771	565.6
581.178	574.8
581.585	593
582.014	588.4
582.421	577.8
582.829	579
583.236	595
583.644	577.4
584.073	583.4
584.481	583.2
584.889	579
585.296	584
585.726	583.8
586.134	578.2
586.542	576.4
586.95	583
587.358	580.8
587.787	582.8
588.196	593.4
588.604	584.8
589.012	580
589.421	577
589.851	578.8
590.259	588.4
590.668	579.4
591.076	624
591.485	573.2
591.894	587.8
592.324	590
592.733	587.8
593.142	574.2
593.551	579
593.96	620
594.369	578.2
594.8	579.2
595.209	578
595.618	566.4
596.028	571.6
596.437	574.6
596.847	574.2
597.256	587.8
597.687	585.8
598.097	589.6
598.507	572
598.917	585
599.327	590.6
599.736	590
600.146	593
600.556	582.8
600.988	589.4
601.398	579.2
601.808	583.2
602.219	576
602.629	582.2
603.039	584.2
603.45	605.6
603.86	586.2
604.271	592
604.703	580.4
605.114	579.8
605.525	579.8
605.935	583.4
606.346	600.8
606.757	594
607.168	575.8
607.579	571.2
607.99	595.8
608.402	577
608.813	584.4
609.224	580
609.636	576.4
610.047	578.2
610.48	581.2
610.892	581.2
611.303	587
611.715	579.4
612.127	569.8
612.539	576.8
612.95	579.4
613.362	570.4
613.774	570.4
614.186	576.4
614.599	579.2
615.011	591.6
615.423	581.6
615.835	578
616.248	577.2
616.66	587.4
617.073	570
617.485	583.6
617.898	584.6
618.311	584.8
618.723	578.4
619.136	600.6
619.549	588.8
619.962	601.2
620.375	584.8
620.788	582.4
621.201	576
621.614	587
622.028	571.2
622.441	584.8
622.854	592.4
623.268	574.6
623.681	581.6
624.095	585
624.509	581.2
624.922	586.4
625.336	566.2
625.728	575
626.142	594.6
626.556	597.4
626.97	579
627.384	586.6
627.799	582
628.213	590.6
628.627	581.2
629.041	582.8
629.456	577.2
629.87	582
630.285	585.2
630.699	591.8
631.093	578
631.507	578.4
631.922	586.2
632.337	592.8
632.752	572
633.167	575.8
633.582	581.6
633.997	571.6
634.412	575.6
634.806	584.8
635.221	574.8
635.637	588.6
636.052	570
636.468	583
636.883	599
637.299	576.8
637.715	571.8
638.109	579.2
638.525	568.8
638.941	592.6
639.357	583
639.773	593.2
640.189	577
640.584	575.6
641	582.6
641.416	569
641.832	581.4
642.249	584.8
642.665	585.8
643.06	595.6
643.477	594.4
643.894	569.6
644.31	588
644.727	584.8
645.123	584.2
645.54	577
645.957	587.6
646.374	599
646.77	579.6
647.187	605
647.604	576.4
648.021	568.8
648.439	572.8
648.835	585.4
649.252	576.8
649.67	571
650.088	576
650.484	587.8
650.902	580.8
651.32	589.6
651.738	580.2
652.134	576.4
652.552	598.2
652.971	584.2
653.389	577.4
653.786	591
654.204	602.8
654.622	582.4
655.019	578.8
655.438	580.6
655.857	589.2
656.275	581.2
656.673	571.8
657.091	579.2
657.51	577.2
657.908	593.4
658.327	589.8
658.746	579.2
659.144	581
659.563	592
659.982	588.4
660.38	574.8
660.8	576.2
661.219	596.8
661.617	585.2
662.037	576.2
662.457	582
662.855	572
663.275	609.6
663.695	578.4
664.094	581.4
664.514	577.8
664.934	570.4
665.333	580.2
665.753	578.2
666.152	572.4
666.572	576
666.993	593.6
667.392	583
667.812	588.8
668.212	584.6
668.632	584
669.053	569
669.453	583.8
669.874	579.2
670.273	579
670.694	569.2
671.116	583
671.515	582.6
671.937	576
672.337	575.6
672.758	572
673.158	586.6
673.58	571.2
673.98	577.4
674.402	588.4
674.824	577
675.224	575
675.646	573.8
676.047	574.8
676.469	573
676.869	581.8
677.292	582.8
677.693	576.2
678.115	579.4
678.516	585.6
678.939	588.4
679.34	578.6
679.762	592
680.164	588.8
680.586	576.2
680.988	580.8
681.411	600.6
681.812	575.2
682.236	572.6
682.637	569.2
683.061	573.2
683.462	579
683.864	572
684.288	584.2
684.69	575.8
685.114	591
685.516	583.4
685.94	568.6
686.342	580.4
686.766	575.8
687.168	577
687.571	598.8
687.995	575.4
688.398	568.8
688.822	584.4
689.225	590.4
689.628	588.2
690.052	577
690.456	586.2
690.88	578.4
691.284	567.4
691.687	583
692.112	570
692.515	574.8
692.919	577.8
693.344	579.2
693.747	576.2
694.173	573.4
694.577	599.2
694.98	579.8
695.406	577.6
695.81	581.6
696.214	580.4
696.64	579.6
697.044	579.6
697.448	582
697.874	573.4
698.279	584.6
698.684	569.2
699.11	571.6
699.514	588
699.919	572.6
700.324	578.4
700.75	582.8
701.156	585.4
701.561	583.4
701.987	579.2
702.393	579.8
702.798	587.2
703.203	575.2
703.63	573.4
704.036	569.4
704.442	580
704.847	566.2
705.274	568.8
705.68	578.8
706.086	576
706.492	571.8
706.92	574
707.326	587.4
707.732	572.4
708.139	570
708.545	571.4
708.973	569.2
709.38	576.8
709.786	566
710.193	593.4
710.6	575.4
711.028	576
711.435	571.4
711.842	575.4
712.249	570.4
712.656	575.2
713.064	584.4
713.492	567.8
713.9	576.2
714.307	580
714.715	578.2
715.123	584.4
715.53	572
715.938	581.6
716.367	576.4
716.775	567
717.184	561.2
717.592	567.4
718	584.4
718.408	604.2
718.816	609.6
719.225	578.6
719.633	574.6
720.042	574.2
720.472	573.6
720.881	598.2
721.29	578.4
721.699	565.8
722.108	579.2
722.517	575.6
722.926	573.2
723.335	588
723.744	577.6
724.154	579.4
724.563	575.2
724.973	572
725.382	575
725.792	568.4
726.202	569.6
726.612	592.2
727.022	573.8
727.432	566.4
779.813	578.4
780.223	615.6
780.634	567.2
781.044	569
781.454	577
781.865	585.6
782.276	566.8
782.686	585.2
783.097	570.6
783.508	572.6
783.919	574.8
784.33	591.4
784.741	581
785.152	566.6
785.563	570.8
785.974	575.4
786.386	580.4
786.776	577.6
787.188	567.6
787.599	568.2
788.011	583.2
788.423	579.2
788.835	576.2
789.247	571.4
789.659	566.8
790.071	577.2
790.483	610.2
790.874	573.6
791.286	586.6
791.699	570.8
792.111	571
792.524	574
792.937	574.2
793.349	569.2
793.741	569
794.154	576.2
794.567	579.4
794.98	577.6
795.393	562
795.785	592.4
796.198	571.6
796.612	568.8
797.026	567.4
797.439	562.6
797.831	576
798.245	567
798.659	571.6
799.073	578.6
799.487	568.4
799.88	576.2
800.294	568.2
800.708	583.2
801.123	577.6
801.516	591.4
801.93	563.2
802.345	564.4
802.76	577.8
803.153	582.4
803.568	585.8
803.983	582.6
804.377	585.2
804.792	572.4
805.207	563.4
805.601	579.4
806.016	599
806.432	568.2
806.826	601.4
807.242	589.8
807.658	576.2
808.052	568.2
808.468	566.6
808.884	562
809.279	580
809.695	585.2
810.111	592.4
810.506	573
810.922	594.6
811.339	573.2
811.734	575.8
812.151	573.6
812.546	570.6
812.963	569.8
813.38	582.6
813.776	575.8
814.193	595.4
814.589	572.8
815.006	572.4
815.402	566.6
815.82	568.2
816.237	575.8
816.633	582.6
817.051	574.8
817.448	575.8
817.866	558
818.262	593.4
818.68	576.2
819.077	568.2
819.495	572.4
819.892	608.4
820.311	567
820.708	577.2
821.127	569.6
821.524	580.4
821.943	580
822.34	584.4
822.759	574.2
823.157	571.4
823.576	588
823.974	579.4
824.393	620
824.791	575.8
825.189	567.2
825.609	571.8
826.007	575.4
826.427	560.8
826.826	571.4
827.246	573.2
827.644	563.4
828.043	585.8
828.463	567.4
828.862	584.4
829.261	574.6
829.682	570.8
830.081	576
830.502	565.4
830.901	579
831.301	592.6
831.722	569
832.121	575.6
832.521	569.4
832.943	578.8
833.342	572
833.742	572
834.164	572.6
834.564	560.6
834.965	578.8
835.386	573.4
835.787	567.8
836.188	583.2
836.588	575.6
837.01	568.2
837.411	561.8
837.812	576.4
838.213	574.8
838.636	570.6
839.037	636.2
839.438	578.2
839.84	573.4
840.263	577.6
840.664	570.4
841.066	565
841.468	572.2
841.891	567.2
842.293	584.4
842.695	580.8
843.098	589.2
843.5	564.2
843.902	575.6
844.326	575
844.729	572.8
845.131	587.8
845.534	576.6
845.937	582.6
846.34	585.2
846.764	571.4
847.167	576.2
847.571	563.4
847.974	576.8
848.377	573.8
848.781	617.6
849.184	578.4
849.588	571.2
849.992	572.6
850.396	573.4
850.821	590.6
851.225	573.6
851.63	562.2
852.034	581.8
852.438	569
852.843	640
853.247	564
853.652	562.8
854.057	581.2
854.462	573
854.867	578
855.272	599.8
855.677	582.2
856.082	564.4
856.487	568.2
856.893	569.6
857.298	563.4
