#lambda/nm	C1
208.295	544.2
208.67	488.4
209.045	452.2
209.419	453.4
209.794	600
210.169	589.4
210.544	699.2
210.919	608.8
211.295	597.6
211.67	602.6
212.045	593
212.421	593.4
212.796	630
213.172	587
213.547	593.2
213.923	593.8
214.299	597.8
214.675	609.2
215.051	604.6
215.427	601.6
215.803	614
216.179	602.2
216.555	595.2
216.932	595.4
217.308	603.2
217.684	595.6
218.061	600.2
218.438	603.6
218.814	594.2
219.191	599.2
219.568	589
219.945	593.2
220.322	600.6
220.699	603.4
221.076	602.2
221.453	602.2
221.83	589.6
222.208	599.2
222.585	591
222.962	595.6
223.34	606
223.717	596.8
224.095	595.6
224.473	598.6
224.851	592.8
225.229	587.2
225.607	618.4
225.985	583.8
226.363	594.6
226.741	599.6
227.119	598.6
227.497	610.8
227.876	583
228.254	603.2
228.633	600
229.011	594.6
229.39	595.8
229.769	605.2
230.148	608
230.527	611.2
230.905	594.6
231.284	597.4
231.664	594.8
232.043	605.2
232.422	606.4
232.801	596
233.181	594
233.56	599.2
233.94	600.8
234.319	588
234.699	589.4
235.079	624
235.458	629.4
235.838	611.4
236.218	595
236.598	588.8
236.978	590
237.358	589.2
237.738	594.4
238.119	605.4
238.499	589
238.88	603.6
239.26	612
239.641	596.6
240.021	593.8
240.402	597.4
240.783	591
241.163	597.2
241.544	603.8
241.925	602.4
242.306	604.8
242.687	602.4
243.069	599.2
243.45	608
243.831	600
244.212	593.8
244.594	624
244.975	602.6
245.357	599.4
245.739	599.6
246.12	598.2
246.502	609.2
246.884	599.6
247.266	593.6
247.648	602.6
248.03	615.4
248.412	601.2
248.794	604.8
249.176	588.4
249.559	607.2
249.941	587
250.323	595.6
250.706	592.8
251.089	595
251.471	592.6
251.854	594.6
252.237	598
252.62	603
253.002	595.2
253.385	595.8
253.769	604.6
254.152	591.6
254.535	601.6
254.918	586
255.301	595.2
255.685	589
256.068	588
256.452	615.4
256.835	604
257.219	605.2
257.603	609.6
257.986	589.4
258.37	605.4
258.754	584.2
259.138	592
259.522	607.8
259.906	590.6
260.29	599.4
260.675	587.6
261.059	598.6
261.443	586.8
261.828	602.2
262.212	602
262.597	590.4
262.981	590.8
263.366	603.8
263.751	595.2
264.136	596.2
264.521	594.6
264.906	599.6
265.291	611.8
265.676	589.2
266.061	608.4
266.446	613
266.831	597
267.217	609
267.602	595.6
267.987	599.6
268.373	593.8
268.759	605.4
269.144	598
269.53	603
269.916	594.6
270.302	592.6
270.688	605.2
271.074	596
271.46	611
271.846	627.4
272.232	606.8
272.618	596
273.004	598
273.391	610.6
273.777	607.8
274.164	601.2
274.55	616.4
274.937	595.2
275.324	596.4
275.71	604
276.097	607.8
276.484	593.6
276.871	591.8
277.258	605
277.645	587.2
278.032	593.2
278.419	592.8
278.807	599.8
279.194	584.6
279.581	589.8
279.969	603.4
280.356	603.4
280.744	598.6
281.131	616
281.519	610.8
281.907	595.4
282.295	594
282.682	608
283.07	594.4
283.458	599.8
283.846	599.6
284.235	611.6
284.623	603.2
285.011	594.8
285.399	603.2
285.788	601
286.176	583.6
286.565	608.6
286.953	600.2
287.342	591.8
287.731	589.8
288.119	589.6
288.508	591.8
288.897	601.6
289.286	586
289.675	595.2
290.064	611.4
290.453	587.2
290.821	597.2
291.21	605.8
291.599	597.8
291.989	591.4
292.378	610
292.768	615.6
293.157	601.2
293.547	601.6
293.936	594.6
294.326	598
294.716	600.6
295.106	599.4
295.496	595.8
295.886	600
296.276	597
296.666	600.6
297.056	589
297.446	587.4
297.836	604.4
298.227	592.2
298.617	599.2
299.008	606.8
299.398	592
299.789	584.4
300.179	601.2
300.57	612.6
300.961	593.2
301.352	602.6
301.742	612.2
302.133	601.2
302.524	597.4
302.915	597.6
303.307	592.4
303.698	613
304.089	605
304.48	598.8
304.872	600.2
305.263	593.4
305.655	592
306.046	603.4
306.438	603.4
306.829	590.6
307.221	608
307.613	604
308.005	611.4
308.397	613.4
308.789	617
309.181	621
309.573	612.2
309.965	607.6
310.357	606.2
310.749	623.2
311.142	586.8
311.534	586
311.926	607.6
312.319	605.2
312.711	591.8
313.104	614.8
313.497	596.6
313.889	626.8
314.282	620.6
314.675	621.4
315.068	605.4
315.461	606.2
315.854	636.2
316.247	609.4
316.64	598.6
317.033	604.2
317.405	607.2
317.798	594.6
318.192	608.8
318.585	599
318.979	606.6
319.372	589.6
319.766	598
320.16	611
320.553	607
320.947	618.2
321.341	594.8
321.735	610.2
322.129	586.8
322.523	617.4
322.917	599
323.311	606.6
323.705	601.8
324.099	605.6
324.494	612
324.888	612
325.282	597.4
325.677	605.2
326.071	600
326.466	609.2
326.861	602.6
327.255	610.6
327.65	606.4
328.045	609.2
328.44	600
328.835	594.4
329.23	589
329.625	617.6
330.02	600.2
330.415	615.6
330.81	603.6
331.206	600.6
331.601	595.4
331.996	615.6
332.37	618.4
332.766	599.6
333.161	615.6
333.557	597.8
333.953	594.8
334.348	841
334.744	600.2
335.14	602.2
335.536	596.2
335.932	606
336.328	604.8
336.724	612.2
337.12	592.6
337.516	605.2
337.913	589
338.309	610.4
338.705	597
339.102	599.6
339.498	594.4
339.895	615
340.291	595.2
340.688	605
341.085	596.6
341.481	594.6
341.878	593.8
342.275	617.2
342.672	596
343.069	592.8
343.466	584.8
343.842	603.2
344.239	588.6
344.636	607
345.033	591.8
345.431	599.8
345.828	600.2
346.225	596.4
346.623	628.2
347.02	599.6
347.418	609.8
347.816	604.8
348.213	587.2
348.611	600
349.009	589.2
349.407	603.4
349.805	588.2
350.203	585.2
350.601	614.4
350.999	597.2
351.397	629.8
351.795	592
352.193	599.2
352.57	603.6
352.969	606.8
353.367	583
353.766	580.4
354.164	596.6
354.563	600.4
354.961	590.8
355.36	591
355.759	598
356.158	589.8
356.557	587.2
356.956	580.4
357.355	583.6
357.754	601
358.153	599.8
358.552	620.4
358.951	592
359.35	612
359.75	591.8
360.149	584.4
360.527	580.6
360.926	596.6
361.326	601
361.726	593.8
362.125	584
362.525	603.4
362.925	585.4
363.325	596.8
363.724	596.4
364.124	581.8
364.524	584.6
364.924	588
365.324	602
365.725	583.8
366.125	596.8
366.525	592.6
366.904	589.4
367.304	577.4
367.705	603.4
368.105	607.8
368.506	587.2
368.906	592.2
369.307	592
369.708	597.2
370.108	585.6
370.509	596.2
370.91	583.2
371.311	585.6
371.712	594.2
372.113	591
372.514	586
372.894	597.2
373.295	586.6
373.696	594.2
374.097	603
374.499	620.2
374.9	592.8
375.301	588.4
375.703	591.4
376.105	576.8
376.506	584
376.908	593.2
377.309	591
377.711	589.4
378.113	592
378.493	587.8
378.895	592.4
379.297	595.2
379.699	578.4
380.102	583.8
380.504	590
380.906	583.6
381.308	608.4
381.71	584.2
382.113	599.4
382.515	589.2
382.918	590.2
383.299	589.2
383.701	601.8
384.104	590.4
384.507	580.4
384.909	581.4
385.312	581.4
385.715	575.2
386.118	581.6
386.521	577.2
386.924	601.4
387.327	583.2
387.709	572.4
388.112	573.4
388.515	584
388.918	578.8
389.322	594
389.725	586.2
390.129	613.2
390.532	593
390.936	584
391.339	584
391.743	593.8
392.125	587.6
392.529	593
392.933	596.4
393.337	579
393.74	590
394.144	584
394.548	580.4
394.953	580.6
395.357	588
395.761	581.4
396.144	581
396.548	585.4
396.952	594.2
397.357	593.2
397.761	582.6
398.166	578.8
398.57	580.2
398.975	576.8
399.379	593.2
399.763	637
400.168	587.4
400.572	583.8
400.977	589.6
401.382	612.2
401.787	600.8
402.192	608.8
402.597	600.2
403.002	578
403.386	604.8
403.791	608.8
404.197	575.4
404.602	589
405.007	592
405.413	583.4
405.818	596.4
406.224	581.2
406.608	582
407.014	584.2
407.42	607.4
407.825	592.6
408.231	593.2
408.637	583.2
409.043	604.6
409.449	590
409.834	584.8
410.24	595.6
410.646	599.4
411.052	589.2
411.458	589.8
411.865	603
412.271	598.6
412.677	594.8
413.062	597
413.469	583.4
413.875	609.2
414.282	604.6
414.689	595.8
415.095	598.4
415.502	581.6
415.888	587
416.294	575.4
416.701	628.8
417.108	589.2
417.515	597.4
417.923	588.4
418.33	610
418.715	598
419.123	586.6
419.53	591.8
419.937	592
420.345	601
420.752	590.8
421.16	600
421.546	588.4
421.953	601.6
422.361	584.2
422.769	595.6
423.177	587.6
423.585	618.4
423.992	611
424.379	597.4
424.787	591.2
425.195	605.2
425.603	592.2
426.011	594.4
426.419	603.8
426.806	597.4
427.214	591.6
427.623	600.8
428.031	607.4
428.44	591.8
428.848	602.8
429.235	609
429.644	596.2
430.053	589.4
430.461	618.8
430.87	616.4
431.279	597.6
431.666	589.2
432.075	596.8
432.484	593
432.893	593.6
433.302	608.8
433.711	626
434.099	604.8
434.508	598
434.918	583
435.327	604
435.737	599.8
436.125	588.2
436.534	592.4
436.944	594.2
437.353	596
437.763	607
438.173	576.4
438.561	601
438.971	576.6
439.381	592.6
439.791	592
440.201	580.4
440.589	586.6
440.999	593.6
441.409	595.6
441.819	582.8
442.23	590.8
442.619	600
443.029	592.8
443.439	592.6
443.85	592.6
444.26	608
444.649	597
445.06	589.8
445.471	581.4
445.881	581.8
446.292	608.2
446.682	608
447.092	585.8
447.503	629
447.914	589.6
448.325	584.8
448.715	591.8
449.126	583.2
449.537	587
449.948	589
450.338	582.6
450.75	593.2
451.161	588.2
451.572	588.8
451.984	577.6
452.374	566.4
452.786	585.8
453.197	588.4
453.609	594.4
453.999	571.6
454.411	580.8
454.823	592
455.235	584.4
455.647	576.8
456.037	587.6
456.449	573.4
456.862	583.8
457.274	596.2
457.665	586.4
458.077	595
458.489	615.4
458.902	580
459.293	588.8
459.705	597.4
460.118	580.6
460.53	589
460.921	589.4
461.334	584.8
461.747	590.6
462.16	597.2
462.551	601
462.964	583.2
463.377	573
463.79	591.2
464.182	600.4
464.595	581.8
465.008	593.4
465.421	592.4
465.813	587.8
466.226	590.6
466.64	577.6
467.053	626.2
467.445	588.6
467.859	599.6
468.272	588.6
468.686	603.4
469.078	583.8
469.492	577
469.906	585
470.298	598.2
470.712	576.6
471.126	626.6
471.54	578.4
471.933	578.8
472.347	577.6
472.761	583.8
473.175	577.2
473.568	580.4
473.982	577.6
474.397	584.2
474.79	581.2
475.204	591
475.619	582.6
476.033	577.4
476.426	582.8
476.841	578
477.256	597.4
477.649	572
478.064	575.4
478.479	574.4
478.872	575.6
479.287	566.2
479.702	577.6
480.118	581
480.511	582.8
480.927	583.2
481.342	579
481.736	580
482.151	575.6
482.566	590.8
482.96	589.6
483.376	594.2
483.792	582.8
484.186	581.6
484.602	581
485.017	588.2
485.412	583.8
485.827	577
486.243	576.6
486.638	605.2
487.054	585.6
487.47	592.6
487.865	576
488.281	578.4
488.697	575
489.092	584.2
489.508	572
489.925	588.8
490.32	576.4
490.736	587.8
491.153	580.8
491.548	583.6
491.964	591.2
492.381	576.2
492.776	580.4
493.193	580.2
493.61	579.4
494.006	580
494.422	587
494.84	583.4
495.235	587.8
495.652	592.6
496.069	575.8
496.465	574.6
496.883	578.4
497.3	599.2
497.696	581.4
498.113	585.6
498.509	572.2
498.927	577
499.344	582.4
499.741	578.4
500.158	588
500.576	591.8
500.973	586.6
501.39	581.6
501.787	572.2
502.205	584.4
502.623	587.8
503.02	580.6
503.438	582.6
503.856	577.2
504.253	582
504.671	581.2
505.068	573.4
505.486	588.8
505.905	593.4
506.302	582
506.72	597.8
507.118	578.6
507.536	586.4
507.955	581.6
508.352	587.8
508.771	590.6
509.169	588.2
509.587	582.2
510.006	577.4
510.404	572.2
510.823	577.2
511.221	575.6
511.64	578.2
512.038	586.6
512.457	582.8
512.877	576.6
513.275	573.4
513.694	573.2
514.092	576.6
514.512	583.2
514.91	582.2
515.33	572.6
515.749	585.2
516.148	583.4
516.568	587.2
516.966	588.6
517.386	575.4
517.785	574
518.205	580.6
518.603	575.6
519.024	576.2
519.444	586.6
519.843	587.2
520.263	587.8
520.662	584.6
521.082	578
521.481	581.8
521.902	580.8
522.301	580.4
522.722	583.2
523.121	580.4
523.542	581.6
523.963	570.8
524.362	576.4
524.783	588.6
525.183	575.8
525.604	581.4
526.003	576.2
526.425	572
526.824	587.8
527.246	581.2
527.646	587.2
528.067	577.8
528.467	579.8
528.888	586.8
529.289	580.6
529.71	585.2
530.11	579.8
530.532	575.4
530.932	581.8
531.354	578
531.755	613
532.176	597
532.577	586
532.999	585.2
533.4	584.4
533.822	589
534.223	587.4
534.645	587
535.046	575
535.468	585
535.869	595
536.292	577.8
536.693	613.2
537.115	585.4
537.516	583.6
537.939	572.8
538.34	597.4
538.742	593
539.165	585
539.566	588.8
539.989	578.6
540.391	577.4
540.814	580.6
541.216	579.2
541.639	576.6
542.041	588.6
542.464	574.2
542.866	568.2
543.268	569.4
543.691	580.8
544.093	586.4
544.517	595.4
544.919	571
545.343	600
545.745	570.6
546.147	575.6
546.571	575.8
546.974	561.8
547.398	582
547.8	592
548.224	569.4
548.627	574.6
549.03	583.8
549.454	560.6
549.857	565.2
550.281	575.8
550.684	575.4
551.087	588.4
551.512	584.4
551.915	582.8
552.34	579.4
552.743	570.8
553.146	577.4
553.571	580.6
553.975	588
554.399	567.2
554.803	622.6
555.207	582.6
555.632	575.4
556.036	582.6
556.461	568.8
556.865	577.2
557.268	575.2
557.694	567.6
558.098	587.6
558.502	579.8
558.927	583.4
559.332	580.4
559.736	584.8
560.162	590.4
560.566	577.6
560.992	580
561.396	577.2
561.801	582.6
562.227	582.4
562.631	577.4
563.036	579.8
563.462	584.6
563.867	578.6
564.272	569.6
564.698	583.6
565.103	571
565.508	598
565.935	580.4
566.34	568.2
566.745	591.2
567.172	587.8
567.577	593.6
567.982	591.6
568.409	588.6
568.815	566
569.22	575.4
569.626	577.2
570.053	564.8
570.459	573.4
570.865	573
571.292	583.2
571.698	580.8
572.104	564.6
572.531	578
572.937	585.4
573.343	577.4
573.75	575.4
574.177	582.6
574.583	577.8
574.99	575
575.396	578.6
575.824	569.2
576.231	585
576.637	568.2
577.065	591.2
577.472	571.4
577.879	572.2
578.286	587.6
578.714	568.8
579.121	580.2
579.528	577.6
579.935	589.6
580.364	575.2
580.771	566
581.178	574.4
581.585	571.8
582.014	578.8
582.421	570.8
582.829	565.2
583.236	576
583.644	565.8
584.073	578.4
584.481	569.4
584.889	566.4
585.296	579.6
585.726	574.2
586.134	563.4
586.542	570.4
586.95	598.2
587.358	577.2
587.787	572.6
588.196	587.4
588.604	572.4
589.012	576.6
589.421	567.8
589.851	570.6
590.259	571.6
590.668	571
591.076	606
591.485	569.4
591.894	582
592.324	593.2
592.733	584
593.142	566.2
593.551	574.2
593.96	576.4
594.369	565
594.8	566.4
595.209	575.6
595.618	567.4
596.028	571.8
596.437	570.8
596.847	582.4
597.256	571.8
597.687	572.2
598.097	572.2
598.507	568.2
598.917	579.8
599.327	575.6
599.736	578
600.146	580
600.556	579.8
600.988	582.8
601.398	575.4
601.808	587.6
602.219	565.6
602.629	568.2
603.039	579.4
603.45	603.4
603.86	569.6
604.271	584.4
604.703	578.8
605.114	581
605.525	584.4
605.935	578
606.346	596.2
606.757	582.8
607.168	584.6
607.579	573.2
607.99	578
608.402	579
608.813	577.6
609.224	580.2
609.636	568.8
610.047	573.6
610.48	583
610.892	583.4
611.303	585.8
611.715	576.6
612.127	568.6
612.539	569.2
612.95	578.2
613.362	569.4
613.774	569.8
614.186	573.8
614.599	571.2
615.011	599.8
615.423	574
615.835	581.6
616.248	565.6
616.66	585
617.073	574.6
617.485	577.4
617.898	584.8
618.311	581.6
618.723	584.2
619.136	604.2
619.549	588.4
619.962	594.6
620.375	577.6
620.788	576.6
621.201	570.2
621.614	583.2
622.028	573.6
622.441	572
622.854	589.8
623.268	569.2
623.681	584.2
624.095	576.2
624.509	578.8
624.922	588.8
625.336	572.2
625.728	575.6
626.142	586.6
626.556	595.8
626.97	580.8
627.384	577.2
627.799	584
628.213	586.4
628.627	580
629.041	582
629.456	583.2
629.87	581.8
630.285	588.4
630.699	587.8
631.093	586.4
631.507	580.6
631.922	581.2
632.337	591
632.752	575
633.167	583.6
633.582	576.6
633.997	573.8
634.412	581.2
634.806	582
635.221	576.8
635.637	595.4
636.052	571.4
636.468	582
636.883	593.6
637.299	578
637.715	570
638.109	582.6
638.525	571.2
638.941	595.2
639.357	578.2
639.773	593
640.189	578
640.584	574.2
641	577.8
641.416	569.8
641.832	569.8
642.249	576.8
642.665	573.8
643.06	576
643.477	583
643.894	563.8
644.31	567.8
644.727	575
645.123	573.4
645.54	576
645.957	575
646.374	588.8
646.77	564.6
647.187	598.6
647.604	573.8
648.021	564.2
648.439	573.6
648.835	572
649.252	574
649.67	578.2
650.088	583.4
650.484	579.8
650.902	580
651.32	579.8
651.738	575.8
652.134	578
652.552	588
652.971	588.4
653.389	572.2
653.786	582.4
654.204	592.4
654.622	574.8
655.019	578.8
655.438	574.8
655.857	577
656.275	588.8
656.673	571.8
657.091	584.4
657.51	568.8
657.908	592.8
658.327	587.4
658.746	565.2
659.144	580
659.563	591.2
659.982	575
660.38	567.2
660.8	574.6
661.219	580.6
661.617	578
662.037	576.2
662.457	586.6
662.855	565.4
663.275	600.8
663.695	582.8
664.094	574.4
664.514	577.6
664.934	574.2
665.333	578
665.753	567
666.152	561.2
666.572	570.6
666.993	590
667.392	572.4
667.812	565.6
668.212	571.4
668.632	587.2
669.053	571.8
669.453	576.8
669.874	570
670.273	576
670.694	575.8
671.116	592.4
671.515	574.6
671.937	578.4
672.337	574.6
672.758	574.8
673.158	579.6
673.58	567.4
673.98	574.8
674.402	584.2
674.824	577.4
675.224	578.4
675.646	557
676.047	576.4
676.469	580.4
676.869	573.8
677.292	575
677.693	557.2
678.115	565
678.516	574.8
678.939	578.4
679.34	574.8
679.762	577.2
680.164	569.6
680.586	569.2
680.988	568.4
681.411	593.2
681.812	567.2
682.236	562
682.637	562.6
683.061	560.8
683.462	569.2
683.864	572.8
684.288	576
684.69	561
685.114	578.8
685.516	572.2
685.94	559.2
686.342	575.2
686.766	567.6
687.168	559.6
687.571	578.2
687.995	571.2
688.398	565
688.822	572.8
689.225	581.8
689.628	595.4
690.052	573.8
690.456	580.2
690.88	575.6
691.284	572.2
691.687	578
692.112	565.2
692.515	568.4
692.919	569.6
693.344	574.2
693.747	577.6
694.173	570.2
694.577	584.2
694.98	578.2
695.406	571.6
695.81	576.6
696.214	583
696.64	570.4
697.044	575
697.448	579
697.874	570.4
698.279	564.2
698.684	563.6
699.11	562.4
699.514	565
699.919	563.8
700.324	572
700.75	570.8
701.156	564.4
701.561	578.4
701.987	576.4
702.393	576
702.798	580
703.203	575
703.63	570.4
704.036	570.2
704.442	576.4
704.847	571.2
705.274	575.2
705.68	575.6
706.086	575.2
706.492	563.8
706.92	567.8
707.326	576.2
707.732	563.6
708.139	570.2
708.545	572
708.973	563.4
709.38	566.6
709.786	562.6
710.193	585.8
710.6	564
711.028	572
711.435	571.8
711.842	575
712.249	567.8
712.656	575.6
713.064	575
713.492	558.8
713.9	566.6
714.307	577.6
714.715	576
715.123	567.6
715.53	578.4
715.938	574.8
716.367	568.2
716.775	574.4
717.184	562.6
717.592	573.4
718	581.4
718.408	600
718.816	606.6
719.225	575.2
719.633	568.6
720.042	568.2
720.472	569
720.881	588.4
721.29	574.4
721.699	565.4
722.108	573.4
722.517	570.2
722.926	565.8
723.335	580.4
723.744	566.6
724.154	572.8
724.563	574.4
724.973	576
725.382	568.4
725.792	567.4
726.202	564
726.612	592.8
727.022	568.2
727.432	562.4
779.813	567.4
780.223	604
780.634	567.4
781.044	565.4
781.454	571.8
781.865	582
782.276	564.4
782.686	575.6
783.097	571.6
783.508	569.4
783.919	575.8
784.33	574.8
784.741	578.6
785.152	561.8
785.563	558.4
785.974	564
786.386	577.6
786.776	572.8
787.188	569.8
787.599	569.4
788.011	569.8
788.423	568.8
788.835	565.6
789.247	554.6
789.659	569.8
790.071	564.8
790.483	599.6
790.874	569.2
791.286	575.4
791.699	564.8
792.111	561.8
792.524	566
792.937	565.4
793.349	556
793.741	559
794.154	562.4
794.567	578.4
794.98	559.4
795.393	549.4
795.785	579
796.198	562.6
796.612	569.2
797.026	561.4
797.439	555.6
797.831	568.4
798.245	571.8
798.659	575.2
799.073	569.6
799.487	562.6
799.88	567.2
800.294	571.2
800.708	562.4
801.123	571
801.516	578.4
801.93	561.4
802.345	563
802.76	572.4
803.153	579.4
803.568	579.4
803.983	581.6
804.377	576.2
804.792	560.4
805.207	561.2
805.601	570.4
806.016	598.8
806.432	562.2
806.826	596.4
807.242	573.4
807.658	571.2
808.052	564.8
808.468	566.6
808.884	559.6
809.279	574
809.695	580
810.111	588.6
810.506	565.8
810.922	585.6
811.339	562.2
811.734	570
812.151	564.6
812.546	563
812.963	568.6
813.38	568.6
813.776	567.2
814.193	583
814.589	557.4
815.006	557.6
815.402	555.8
815.82	568
816.237	567.4
816.633	568.2
817.051	557
817.448	576.8
817.866	562.8
818.262	582.2
818.68	564.6
819.077	556.8
819.495	563.8
819.892	601.4
820.311	558.6
820.708	559
821.127	564.2
821.524	576.6
821.943	576
822.34	580.4
822.759	571.4
823.157	563.6
823.576	579.6
823.974	566
824.393	602.8
824.791	561.6
825.189	562.4
825.609	570.6
826.007	560
826.427	555.4
826.826	569.4
827.246	563
827.644	551.4
828.043	576.4
828.463	561.2
828.862	569.6
829.261	569.6
829.682	554
830.081	572.8
830.502	560.2
830.901	566.6
831.301	577.6
831.722	553
832.121	562.4
832.521	557.8
832.943	564.4
833.342	563.8
833.742	556.8
834.164	569.8
834.564	559.4
834.965	567
835.386	572.4
835.787	571
836.188	566.6
836.588	569.2
837.01	572.4
837.411	555
837.812	565.4
838.213	565.2
838.636	563.4
839.037	621.6
839.438	571
839.84	562.6
840.263	566.8
840.664	571.4
841.066	562.2
841.468	574.2
841.891	557.8
842.293	574.8
842.695	569.6
843.098	572.8
843.5	560.4
843.902	571.4
844.326	576.2
844.729	573.4
845.131	576
845.534	570
845.937	578.8
846.34	579.6
846.764	565.2
847.167	568.6
847.571	563.2
847.974	568.2
848.377	559.2
848.781	606.8
849.184	577
849.588	571.4
849.992	567.2
850.396	576.4
850.821	590.2
851.225	571.6
851.63	564.2
852.034	583.8
852.438	565.6
852.843	634.4
853.247	553.6
853.652	563.2
854.057	580.4
854.462	567.8
854.867	576.2
855.272	591.6
855.677	572.6
856.082	567.2
856.487	562
856.893	576.2
