#lambda/nm	C1
208.295	547.8
208.67	490.8
209.045	450
209.419	442.6
209.794	595.6
210.169	586
210.544	701.4
210.919	606.6
211.295	589.8
211.67	604.2
212.045	588.8
212.421	586.2
212.796	625
213.172	587.6
213.547	596.2
213.923	597.6
214.299	592
214.675	599.6
215.051	595.8
215.427	608
215.803	614.6
216.179	602.8
216.555	584.6
216.932	603.2
217.308	604
217.684	597.6
218.061	596.6
218.438	607.6
218.814	594.6
219.191	598
219.568	595.6
219.945	594.2
220.322	598.4
220.699	606.8
221.076	601
221.453	604.2
221.83	591.8
222.208	591.2
222.585	586.4
222.962	609.8
223.34	600.6
223.717	597.6
224.095	594.2
224.473	595.4
224.851	590.4
225.229	587.4
225.607	610.4
225.985	580.2
226.363	602.4
226.741	598
227.119	584.8
227.497	607.8
227.876	587.2
228.254	608.8
228.633	606.2
229.011	603
229.39	602.2
229.769	592.4
230.148	599.4
230.527	613.8
230.905	589.2
231.284	600.2
231.664	590.8
232.043	596.8
232.422	595.4
232.801	592.4
233.181	595.4
233.56	598
233.94	602.6
234.319	582.4
234.699	592.8
235.079	629.4
235.458	632.2
235.838	607.2
236.218	587.2
236.598	581.6
236.978	580.6
237.358	586
237.738	592.6
238.119	602
238.499	583.8
238.88	593.8
239.26	608.4
239.641	598.8
240.021	591.4
240.402	592.8
240.783	586.6
241.163	595
241.544	591.4
241.925	594.2
242.306	607.8
242.687	596.8
243.069	596.4
243.45	607.4
243.831	587.2
244.212	586.2
244.594	621.4
244.975	599.8
245.357	603.2
245.739	592
246.12	599.4
246.502	605.4
246.884	591
247.266	587
247.648	595
248.03	616
248.412	594.8
248.794	596.4
249.176	590.2
249.559	607.6
249.941	587.6
250.323	580.6
250.706	590.4
251.089	590
251.471	599.6
251.854	586.2
252.237	591.4
252.62	613.6
253.002	592.4
253.385	591.6
253.769	610.2
254.152	584.8
254.535	597
254.918	577
255.301	594.6
255.685	590.4
256.068	584.4
256.452	614.6
256.835	607.6
257.219	604.2
257.603	603.4
257.986	591
258.37	597.4
258.754	586.2
259.138	592.8
259.522	600
259.906	595.6
260.29	589.4
260.675	592.2
261.059	588.4
261.443	590.6
261.828	594.2
262.212	598.8
262.597	579.6
262.981	585.2
263.366	593.2
263.751	594.6
264.136	589.4
264.521	580
264.906	579.2
265.291	607
265.676	591
266.061	590.4
266.446	604.2
266.831	589
267.217	607.2
267.602	594.8
267.987	594.6
268.373	586.4
268.759	601.2
269.144	594.4
269.53	592
269.916	586.6
270.302	592.6
270.688	603.2
271.074	594.2
271.46	607.8
271.846	623
272.232	596.2
272.618	588
273.004	593.6
273.391	605.4
273.777	603.8
274.164	593.6
274.55	608.8
274.937	595.4
275.324	594.6
275.71	599.8
276.097	599.4
276.484	588.4
276.871	599.6
277.258	602.8
277.645	588
278.032	591.2
278.419	590
278.807	595.6
279.194	588.4
279.581	590.4
279.969	596.6
280.356	594.4
280.744	592.8
281.131	617.8
281.519	600.4
281.907	586
282.295	584.4
282.682	607.6
283.07	592
283.458	595.2
283.846	603.2
284.235	602.2
284.623	601.6
285.011	588.6
285.399	594.2
285.788	598.6
286.176	582.8
286.565	603.6
286.953	585.8
287.342	596.2
287.731	592
288.119	591.8
288.508	587.8
288.897	587.2
289.286	584.4
289.675	596.2
290.064	599
290.453	589.4
290.821	602.2
291.21	610.4
291.599	588.4
291.989	589.8
292.378	603
292.768	613.2
293.157	600
293.547	596.6
293.936	596.4
294.326	587.4
294.716	600
295.106	592.8
295.496	606.6
295.886	598.8
296.276	587.4
296.666	582
297.056	591.2
297.446	580.8
297.836	618.6
298.227	593.8
298.617	596.4
299.008	599.8
299.398	601.4
299.789	587.2
300.179	592
300.57	604.8
300.961	592.8
301.352	590.4
301.742	610.4
302.133	593.4
302.524	600.4
302.915	592.8
303.307	587.4
303.698	611
304.089	601.2
304.48	595.2
304.872	596.2
305.263	593.6
305.655	582.4
306.046	602.4
306.438	597.2
306.829	584.8
307.221	609.2
307.613	604
308.005	602.2
308.397	602
308.789	607.6
309.181	618.2
309.573	609.2
309.965	602.8
310.357	593.4
310.749	605
311.142	586.2
311.534	593.8
311.926	601.4
312.319	600.2
312.711	594.6
313.104	603
313.497	592.8
313.889	629.4
314.282	600
314.675	610.6
315.068	597.8
315.461	594.4
315.854	623.2
316.247	593.2
316.64	594.4
317.033	606
317.405	603
317.798	597.2
318.192	597.2
318.585	595.2
318.979	599.6
319.372	589.2
319.766	593.2
320.16	600.8
320.553	602.4
320.947	608.2
321.341	591.8
321.735	596.4
322.129	584.2
322.523	611
322.917	591.2
323.311	607
323.705	601.8
324.099	602.6
324.494	609.4
324.888	604.6
325.282	602.8
325.677	605
326.071	607.2
326.466	603
326.861	601.6
327.255	601.4
327.65	609.4
328.045	612.4
328.44	603.2
328.835	603.4
329.23	595
329.625	616.6
330.02	594.8
330.415	610.8
330.81	601.2
331.206	597.2
331.601	595.4
331.996	601.6
332.37	613.6
332.766	594
333.161	612.8
333.557	594.4
333.953	593.2
334.348	829.4
334.744	595
335.14	596.6
335.536	594
335.932	608.2
336.328	593.6
336.724	601.8
337.12	603.4
337.516	598
337.913	596.4
338.309	603.2
338.705	591.8
339.102	609.6
339.498	591
339.895	608
340.291	587.6
340.688	596.8
341.085	591.6
341.481	589.6
341.878	592.4
342.275	606
342.672	591.2
343.069	584.6
343.466	583.4
343.842	605.4
344.239	594.8
344.636	588
345.033	597.4
345.431	587.8
345.828	593.8
346.225	589.2
346.623	619.2
347.02	586.6
347.418	594.6
347.816	601.2
348.213	585.6
348.611	600
349.009	592.6
349.407	600.8
349.805	579.6
350.203	589.4
350.601	598.4
350.999	590.8
351.397	634
351.795	584.6
352.193	599.2
352.57	590.2
352.969	601
353.367	581.6
353.766	589.4
354.164	585
354.563	598.2
354.961	591
355.36	585
355.759	584
356.158	583.6
356.557	584.4
356.956	580.8
357.355	571.6
357.754	592.6
358.153	593.6
358.552	608.6
358.951	592
359.35	595.6
359.75	591.8
360.149	582
360.527	576.2
360.926	582
361.326	591
361.726	589.6
362.125	581
362.525	598.8
362.925	584.8
363.325	585.4
363.724	585.2
364.124	582.6
364.524	578
364.924	583.8
365.324	591.8
365.725	577.8
366.125	589.6
366.525	579.4
366.904	576.2
367.304	573.6
367.705	606.6
368.105	598
368.506	585.8
368.906	590
369.307	586.8
369.708	594.4
370.108	576.8
370.509	592.8
370.91	580
371.311	584.8
371.712	587.8
372.113	581.4
372.514	579.6
372.894	592.4
373.295	573
373.696	598.2
374.097	594.2
374.499	619.6
374.9	590.6
375.301	582.2
375.703	588.6
376.105	585.4
376.506	596
376.908	591.8
377.309	593.8
377.711	595.6
378.113	582.2
378.493	589.2
378.895	586.4
379.297	587
379.699	575
380.102	582
380.504	591
380.906	580
381.308	607
381.71	587.6
382.113	596.4
382.515	580.4
382.918	600.6
383.299	586.6
383.701	594
384.104	591.4
384.507	576.4
384.909	583.4
385.312	574.2
385.715	578.2
386.118	590.4
386.521	580.6
386.924	596.8
387.327	590
387.709	576.4
388.112	563.4
388.515	590
388.918	588.6
389.322	590.6
389.725	574.6
390.129	601.6
390.532	594.4
390.936	586.4
391.339	574.8
391.743	600.6
392.125	588
392.529	593.4
392.933	596.8
393.337	585.4
393.74	584.2
394.144	594
394.548	581
394.953	585.8
395.357	593.6
395.761	587
396.144	586.4
396.548	582.6
396.952	584.6
397.357	583.2
397.761	585
398.166	575.6
398.57	581.6
398.975	581.8
399.379	592
399.763	630.8
400.168	586.8
400.572	583.6
400.977	588.6
401.382	603.2
401.787	596.2
402.192	608.8
402.597	603.4
403.002	574.4
403.386	599.8
403.791	606.6
404.197	586.6
404.602	584.4
405.007	587.6
405.413	582.2
405.818	588.4
406.224	588
406.608	585.2
407.014	575.4
407.42	595.4
407.825	582.6
408.231	594.4
408.637	593.2
409.043	593
409.449	579.6
409.834	579
410.24	588.2
410.646	600.4
411.052	589.8
411.458	589.2
411.865	595.4
412.271	598.4
412.677	596.8
413.062	591.8
413.469	575.4
413.875	605.6
414.282	594.4
414.689	592
415.095	593.8
415.502	586.6
415.888	585.4
416.294	579
416.701	629
417.108	574.8
417.515	599.4
417.923	578.8
418.33	602.2
418.715	594.4
419.123	583.2
419.53	590.6
419.937	593.2
420.345	603
420.752	588.4
421.16	598
421.546	585.6
421.953	597
422.361	580.4
422.769	587.2
423.177	581.8
423.585	607.4
423.992	603.4
424.379	592.4
424.787	599.6
425.195	606.2
425.603	594
426.011	604.8
426.419	596.4
426.806	595.6
427.214	583
427.623	603.4
428.031	608.2
428.44	593.6
428.848	596.8
429.235	603
429.644	590.4
430.053	585.2
430.461	605.8
430.87	613.6
431.279	602.2
431.666	589.2
432.075	596.4
432.484	595
432.893	591
433.302	608
433.711	622.6
434.099	597.8
434.508	590.2
434.918	586.2
435.327	583
435.737	591
436.125	592.4
436.534	591
436.944	597.4
437.353	592
437.763	602.8
438.173	582.4
438.561	605.4
438.971	575.2
439.381	590.6
439.791	589.8
440.201	575.8
440.589	580.6
440.999	591.8
441.409	588.8
441.819	578.4
442.23	602.6
442.619	598
443.029	586.4
443.439	589.2
443.85	592.8
444.26	603.8
444.649	590.6
445.06	592
445.471	588.6
445.881	584.6
446.292	598.6
446.682	603.6
447.092	575.6
447.503	632.6
447.914	585.6
448.325	590.2
448.715	592
449.126	581.4
449.537	584.4
449.948	584.8
450.338	591
450.75	592.4
451.161	586.6
451.572	595.6
451.984	581.2
452.374	575
452.786	582.4
453.197	580
453.609	589
453.999	574.6
454.411	571.6
454.823	591.2
455.235	587
455.647	583
456.037	585.2
456.449	573.4
456.862	579
457.274	585
457.665	573.2
458.077	583.4
458.489	604.4
458.902	582
459.293	575.8
459.705	573.4
460.118	574.8
460.53	586.8
460.921	576.2
461.334	581.6
461.747	582
462.16	601.8
462.551	590.8
462.964	586
463.377	573.6
463.79	573.6
464.182	592.6
464.595	570.4
465.008	588.4
465.421	589.8
465.813	585.4
466.226	583.8
466.64	578.8
467.053	620.4
467.445	591
467.859	600
468.272	590
468.686	597.4
469.078	579.2
469.492	566
469.906	582.4
470.298	586.6
470.712	574.8
471.126	617.4
471.54	576.2
471.933	574.6
472.347	578
472.761	575.8
473.175	575.2
473.568	580.8
473.982	564.2
474.397	580
474.79	587.4
475.204	584.4
475.619	580
476.033	585.6
476.426	581
476.841	580.2
477.256	597.4
477.649	576.8
478.064	575.8
478.479	578
478.872	572.4
479.287	571.2
479.702	570.2
480.118	585.8
480.511	577.8
480.927	580.4
481.342	579
481.736	583.4
482.151	573.8
482.566	585
482.96	577.4
483.376	592.2
483.792	573.6
484.186	580
484.602	579
485.017	579.4
485.412	579.6
485.827	577.6
486.243	579.8
486.638	602.2
487.054	592.4
487.47	588.2
487.865	588.4
488.281	576.6
488.697	574.4
489.092	590.8
489.508	583.8
489.925	597.6
490.32	578
490.736	590.4
491.153	579
491.548	578.6
491.964	586.6
492.381	566.4
492.776	584.4
493.193	586.4
493.61	586
494.006	573.6
494.422	590.4
494.84	578.4
495.235	592.2
495.652	578.4
496.069	586
496.465	573.8
496.883	581.4
497.3	597.2
497.696	576.2
498.113	581.8
498.509	572.6
498.927	573.6
499.344	565.8
499.741	573
500.158	580.8
500.576	590.6
500.973	581.4
501.39	574
501.787	578.8
502.205	580.4
502.623	572.6
503.02	572.8
503.438	566.4
503.856	576.4
504.253	572.6
504.671	581.8
505.068	566.4
505.486	575.8
505.905	594.8
506.302	579.2
506.72	580.4
507.118	580.2
507.536	585.4
507.955	575.4
508.352	587.4
508.771	581.2
509.169	581
509.587	573.2
510.006	574.6
510.404	574.8
510.823	576.4
511.221	577.8
511.64	571.6
512.038	591.6
512.457	574.2
512.877	577.2
513.275	576
513.694	579.8
514.092	572.4
514.512	580.2
514.91	588.2
515.33	577.6
515.749	577.2
516.148	580.2
516.568	582.2
516.966	579.2
517.386	571.4
517.785	574
518.205	579
518.603	569
519.024	575.4
519.444	582.8
519.843	588
520.263	580.2
520.662	584
521.082	573.6
521.481	578.6
521.902	576.6
522.301	574.6
522.722	582.8
523.121	582.4
523.542	581.4
523.963	577.2
524.362	581.6
524.783	586
525.183	578.4
525.604	579.8
526.003	570.4
526.425	576
526.824	587.8
527.246	580
527.646	594
528.067	571.2
528.467	576.6
528.888	581.8
529.289	575.8
529.71	575.6
530.11	581.8
530.532	571.6
530.932	575.6
531.354	578
531.755	605.2
532.176	585.6
532.577	584.2
532.999	572.4
533.4	579.4
533.822	584
534.223	586.8
534.645	581.8
535.046	575.4
535.468	579.6
535.869	592.8
536.292	567.6
536.693	599
537.115	582.2
537.516	573.4
537.939	574.6
538.34	586.2
538.742	581.6
539.165	575
539.566	589.8
539.989	568.6
540.391	574.2
540.814	577
541.216	576.6
541.639	579.4
542.041	585
542.464	575
542.866	565.4
543.268	567
543.691	575.8
544.093	588.8
544.517	593.6
544.919	563.8
545.343	594.8
545.745	566
546.147	575.8
546.571	570
546.974	565
547.398	571.6
547.8	586.6
548.224	565
548.627	564.2
549.03	574.8
549.454	567
549.857	561.2
550.281	571.4
550.684	559.6
551.087	581.6
551.512	577.4
551.915	581.6
552.34	575.4
552.743	570.8
553.146	572.6
553.571	576.8
553.975	583.6
554.399	562.2
554.803	618
555.207	564
555.632	568.4
556.036	576.2
556.461	566.6
556.865	572.2
557.268	571.4
557.694	565.4
558.098	575.6
558.502	580.2
558.927	572.2
559.332	572.8
559.736	578
560.162	574.6
560.566	566.6
560.992	581.6
561.396	572.2
561.801	576.6
562.227	573.4
562.631	571.6
563.036	570.6
563.462	579.4
563.867	573.6
564.272	566.2
564.698	579.4
565.103	571.8
565.508	591.6
565.935	574.2
566.34	566
566.745	583.4
567.172	571.4
567.577	593.2
567.982	589
568.409	574.8
568.815	568.4
569.22	574.2
569.626	582.8
570.053	560.8
570.459	576.4
570.865	580.8
571.292	579.6
571.698	580.2
572.104	564.4
572.531	573.2
572.937	580.2
573.343	575
573.75	571.4
574.177	570.6
574.583	577.4
574.99	574.4
575.396	582.2
575.824	572.2
576.231	579
576.637	572.6
577.065	595.4
577.472	562.8
577.879	573
578.286	583.2
578.714	561.8
579.121	572.8
579.528	571
579.935	584
580.364	571
580.771	562.6
581.178	563.8
581.585	578.4
582.014	577
582.421	576
582.829	568
583.236	579.8
583.644	567.8
584.073	569
584.481	568.4
584.889	571.8
585.296	581.8
585.726	577.8
586.134	567
586.542	565.2
586.95	591.4
587.358	560.8
587.787	577.8
588.196	586.2
588.604	579.8
589.012	575.8
589.421	572.8
589.851	558
590.259	573.2
590.668	571.2
591.076	606.8
591.485	571.2
591.894	577
592.324	579.4
592.733	583.4
593.142	566.2
593.551	567.4
593.96	598.8
594.369	570.6
594.8	563.2
595.209	577.4
595.618	562.8
596.028	568.2
596.437	567.4
596.847	578.8
597.256	571
597.687	576.2
598.097	580.8
598.507	571
598.917	575.6
599.327	581.2
599.736	571.4
600.146	580.2
600.556	574.4
600.988	585.6
601.398	574.4
601.808	581.2
602.219	560.4
602.629	571.2
603.039	575.6
603.45	597
603.86	576.2
604.271	597
604.703	568.4
605.114	574.8
605.525	577
605.935	580.2
606.346	590.4
606.757	582.4
607.168	579.8
607.579	574.6
607.99	584.4
608.402	582
608.813	580.4
609.224	575.2
609.636	571
610.047	572
610.48	577.8
610.892	595
611.303	582.8
611.715	585.2
612.127	575.8
612.539	582.6
612.95	588.8
613.362	572.2
613.774	576.2
614.186	575.6
614.599	582
615.011	601
615.423	589.4
615.835	583.6
616.248	579.8
616.66	590.2
617.073	579.4
617.485	588.2
617.898	602.6
618.311	593.4
618.723	588.4
619.136	608.2
619.549	599.6
619.962	605.4
620.375	590.2
620.788	590.8
621.201	590
621.614	591.8
622.028	591.6
622.441	603.8
622.854	601.2
623.268	588.4
623.681	589.6
624.095	595.6
624.509	600.6
624.922	601
625.336	589.4
625.728	598.4
626.142	595.6
626.556	614
626.97	607.8
627.384	594.2
627.799	587
628.213	606.6
628.627	588.8
629.041	587.8
629.456	587.6
629.87	596.6
630.285	600.2
630.699	596.4
631.093	587
631.507	605.2
631.922	598.6
632.337	609
632.752	587.6
633.167	602.4
633.582	590.6
633.997	590.2
634.412	591
634.806	593.6
635.221	585.2
635.637	602
636.052	583
636.468	607
636.883	610
637.299	592.8
637.715	578.6
638.109	592.6
638.525	584.8
638.941	597.8
639.357	592.8
639.773	604.4
640.189	587.2
640.584	597.2
641	591.2
641.416	573
641.832	587.6
642.249	588.4
642.665	589.8
643.06	592.8
643.477	599.8
643.894	573.4
644.31	588.6
644.727	581.8
645.123	595
645.54	588.6
645.957	590.6
646.374	601.2
646.77	589.4
647.187	611.2
647.604	584
648.021	574.2
648.439	580.8
648.835	591
649.252	588
649.67	571.8
650.088	578.4
650.484	581.2
650.902	581.8
651.32	587
651.738	573
652.134	584.6
652.552	592.2
652.971	584
653.389	574.4
653.786	587
654.204	591.4
654.622	569.6
655.019	574.8
655.438	579.4
655.857	577
656.275	578.6
656.673	577.6
657.091	588.4
657.51	573
657.908	584.2
658.327	590.4
658.746	573.8
659.144	578.4
659.563	588.6
659.982	585.4
660.38	568.4
660.8	575.8
661.219	585.8
661.617	584.6
662.037	582.2
662.457	593.2
662.855	560.8
663.275	604.8
663.695	578.6
664.094	576.8
664.514	577.8
664.934	566.6
665.333	578.2
665.753	573
666.152	568
666.572	565.8
666.993	585.2
667.392	566.6
667.812	564.4
668.212	572.8
668.632	584.2
669.053	564.8
669.453	587
669.874	574.8
670.273	573.6
670.694	567.2
671.116	578.8
671.515	581.2
671.937	571.6
672.337	576.6
672.758	571.8
673.158	578
673.58	558.4
673.98	574.4
674.402	579.6
674.824	572.4
675.224	571.2
675.646	565.8
676.047	572.6
676.469	573.4
676.869	574.4
677.292	579.4
677.693	581.2
678.115	560
678.516	576.6
678.939	576.4
679.34	573.2
679.762	579.8
680.164	572.6
680.586	563
680.988	571.4
681.411	592.4
681.812	571
682.236	565.6
682.637	567.6
683.061	563.6
683.462	577.2
683.864	571.6
684.288	568.6
684.69	564.2
685.114	576.6
685.516	580.6
685.94	563.8
686.342	566.8
686.766	561.2
687.168	574.4
687.571	586.8
687.995	582.8
688.398	561.2
688.822	567
689.225	588.4
689.628	582.2
690.052	570.8
690.456	572.4
690.88	562.8
691.284	563.8
691.687	588
692.112	557.6
692.515	564.8
692.919	570
693.344	567.4
693.747	565.6
694.173	566.4
694.577	573.8
694.98	576.8
695.406	566
695.81	564.8
696.214	570.8
696.64	568.2
697.044	565.2
697.448	573.8
697.874	575.8
698.279	565.4
698.684	560.8
699.11	566.2
699.514	569
699.919	562.8
700.324	565.6
700.75	572.2
701.156	567
701.561	584
701.987	572.6
702.393	571.4
702.798	581.4
703.203	567.4
703.63	570.2
704.036	566
704.442	569.2
704.847	569
705.274	571.2
705.68	576.4
706.086	568.2
706.492	559.4
706.92	570.8
707.326	577.6
707.732	567.8
708.139	560
708.545	569.2
708.973	569.4
709.38	564
709.786	563.6
710.193	578.4
710.6	568
711.028	565.4
711.435	567.4
711.842	574
712.249	564.2
712.656	568.2
713.064	578.4
713.492	561.8
713.9	567.4
714.307	574
714.715	562.8
715.123	570.6
715.53	570.4
715.938	572.4
716.367	573.2
716.775	566.8
717.184	560
717.592	568.2
718	572.2
718.408	589.4
718.816	612
719.225	575.8
719.633	569.4
720.042	561
720.472	566.4
720.881	592.6
721.29	573.8
721.699	566
722.108	570.6
722.517	570.8
722.926	564.6
723.335	578.6
723.744	568.8
724.154	571
724.563	564.8
724.973	569
725.382	565.8
725.792	562.8
726.202	558.2
726.612	590
727.022	569
727.432	561.4
779.813	566.8
780.223	605.8
780.634	561.4
781.044	561.8
781.454	576.6
781.865	579
782.276	563.2
782.686	580.4
783.097	569.2
783.508	566.2
783.919	567.6
784.33	571.4
784.741	579.8
785.152	568.2
785.563	555
785.974	560.4
786.386	568.6
786.776	570.2
787.188	568
787.599	558.6
788.011	577.6
788.423	569.6
788.835	561.2
789.247	559.8
789.659	563
790.071	569.6
790.483	605.6
790.874	562.8
791.286	580.2
791.699	560.8
792.111	559.6
792.524	565.2
792.937	564.2
793.349	557.2
793.741	557.2
794.154	559.4
794.567	581.6
794.98	565.2
795.393	554.8
795.785	579.6
796.198	568
796.612	562.6
797.026	556.4
797.439	543.8
797.831	554.4
798.245	550
798.659	563.2
799.073	560.6
799.487	546.4
799.88	558
800.294	555.4
800.708	567.2
801.123	557.4
801.516	579.8
801.93	547.4
802.345	546
802.76	558.8
803.153	581.8
803.568	568.6
803.983	569.4
804.377	559.8
804.792	554
805.207	544.6
805.601	561.6
806.016	596.8
806.432	559.4
806.826	594.8
807.242	572.4
807.658	571.4
808.052	558.4
808.468	558.6
808.884	564.6
809.279	558.6
809.695	575.8
810.111	579
810.506	572.4
810.922	579.2
811.339	560
811.734	571.4
812.151	561.2
812.546	559.4
812.963	556
813.38	566.4
813.776	569.2
814.193	582.2
814.589	563
815.006	564.8
815.402	556.2
815.82	559
816.237	566.4
816.633	569.2
817.051	550.6
817.448	564.4
817.866	555.6
818.262	578.2
818.68	562.8
819.077	555.2
819.495	567
819.892	599.4
820.311	557.2
820.708	561
821.127	561.2
821.524	569.8
821.943	562.8
822.34	578.2
822.759	564.4
823.157	563.2
823.576	577.4
823.974	565.8
824.393	581.6
824.791	563.8
825.189	552
825.609	557.8
826.007	564
826.427	551.2
826.826	555.6
827.246	566
827.644	556.2
828.043	571.2
828.463	560.8
828.862	570.2
829.261	567.2
829.682	559.4
830.081	566.8
830.502	556.4
830.901	573.4
831.301	585.4
831.722	553.2
832.121	559.4
832.521	560.2
832.943	566.8
833.342	563.2
833.742	561.2
834.164	568.4
834.564	556.8
834.965	566.6
835.386	561.2
835.787	565.6
836.188	561.4
836.588	562.4
837.01	563.2
837.411	553.8
837.812	574
838.213	570.8
838.636	557.2
839.037	622.8
839.438	567.6
839.84	566.2
840.263	572.2
840.664	566.6
841.066	561
841.468	567.4
841.891	555.8
842.293	570.4
842.695	570.2
843.098	576
843.5	558.6
843.902	565
844.326	568.6
844.729	574.8
845.131	580.2
845.534	568.4
845.937	566.8
846.34	585.2
846.764	562
847.167	568.8
847.571	557.8
847.974	568.2
848.377	561
848.781	597
849.184	571.2
849.588	559.6
849.992	559.4
850.396	565
850.821	582.2
851.225	570.4
851.63	565.8
852.034	575.4
852.438	562.6
852.843	633
853.247	559.4
853.652	562.4
854.057	583.4
854.462	561
854.867	572.6
855.272	590.4
855.677	568.4
