#lambda/nm	C1
208.295	555
208.67	500.4
209.045	459.4
209.419	451.8
209.794	594.2
210.169	575.6
210.544	667.6
210.919	592.6
211.295	580.2
211.67	591.6
212.045	586.2
212.421	577.8
212.796	615.2
213.172	586
213.547	579.6
213.923	583.8
214.299	575.8
214.675	595.2
215.051	590
215.427	594.8
215.803	604.6
216.179	594.2
216.555	585.6
216.932	590.8
217.308	591.6
217.684	587.6
218.061	588.6
218.438	593
218.814	575.8
219.191	590.8
219.568	587.8
219.945	586.2
220.322	597
220.699	589.8
221.076	593
221.453	592
221.83	582.8
222.208	577.4
222.585	581.8
222.962	582.4
223.34	583.6
223.717	582.6
224.095	583.6
224.473	581.8
224.851	571
225.229	567.4
225.607	599.2
225.985	580
226.363	584.6
226.741	582.8
227.119	579.2
227.497	599
227.876	583.2
228.254	588.8
228.633	585.8
229.011	588
229.39	594.2
229.769	583.8
230.148	587.6
230.527	595.2
230.905	587.4
231.284	589.6
231.664	588.4
232.043	589.2
232.422	589.2
232.801	581.8
233.181	591.8
233.56	581
233.94	585
234.319	574.6
234.699	585.2
235.079	617.6
235.458	621
235.838	596.2
236.218	574.8
236.598	568
236.978	582.2
237.358	582
237.738	577.4
238.119	587.2
238.499	571.8
238.88	590.4
239.26	590.6
239.641	576.6
240.021	579.4
240.402	582
240.783	578.4
241.163	587.8
241.544	591.6
241.925	585.4
242.306	596.2
242.687	589.4
243.069	587.8
243.45	594.6
243.831	585.8
244.212	581.4
244.594	612.2
244.975	588
245.357	583.2
245.739	578.6
246.12	587.8
246.502	599.2
246.884	587.2
247.266	582.2
247.648	593.2
248.03	602.2
248.412	591.8
248.794	597.8
249.176	578.4
249.559	591.8
249.941	583.6
250.323	576.6
250.706	584.2
251.089	579.8
251.471	585.4
251.854	586.4
252.237	579.6
252.62	592
253.002	586.2
253.385	588.4
253.769	589.8
254.152	578.2
254.535	599.4
254.918	583.8
255.301	587.4
255.685	586.2
256.068	582.6
256.452	599.8
256.835	596.8
257.219	595
257.603	598.8
257.986	584.6
258.37	584.8
258.754	575
259.138	581.8
259.522	593
259.906	585.6
260.29	592
260.675	580.2
261.059	584.8
261.443	577.6
261.828	589.8
262.212	581.2
262.597	576.6
262.981	581.6
263.366	588
263.751	581.2
264.136	579
264.521	579
264.906	574
265.291	590.4
265.676	582.8
266.061	592.6
266.446	598.8
266.831	586.2
267.217	596.2
267.602	595.8
267.987	583
268.373	591.4
268.759	596.2
269.144	593.2
269.53	587.4
269.916	585
270.302	581
270.688	589.8
271.074	587
271.46	597.6
271.846	611.4
272.232	589
272.618	585.4
273.004	584.2
273.391	597
273.777	596
274.164	590
274.55	595.2
274.937	582.4
275.324	585
275.71	584.4
276.097	588
276.484	579.2
276.871	591.2
277.258	589.4
277.645	577.8
278.032	582.8
278.419	589
278.807	582
279.194	586.8
279.581	585
279.969	596.4
280.356	582.8
280.744	581.6
281.131	603.8
281.519	593
281.907	583.6
282.295	576.8
282.682	598.8
283.07	590.2
283.458	593.6
283.846	600.6
284.235	591.6
284.623	591.8
285.011	571.8
285.399	593.6
285.788	591.4
286.176	589.2
286.565	589.8
286.953	583.4
287.342	579.8
287.731	579.4
288.119	579.6
288.508	586
288.897	588.4
289.286	579.2
289.675	584.4
290.064	594.4
290.453	579.6
290.821	579.2
291.21	591.4
291.599	583
291.989	582
292.378	583.6
292.768	593.2
293.157	583.8
293.547	593.4
293.936	582.4
294.326	580.8
294.716	583.6
295.106	583.2
295.496	585.6
295.886	592.6
296.276	582.2
296.666	578.6
297.056	580
297.446	575
297.836	593
298.227	578.6
298.617	581.8
299.008	593.6
299.398	581.8
299.789	581.4
300.179	589.4
300.57	601
300.961	583.8
301.352	583.8
301.742	585.4
302.133	584.2
302.524	584.4
302.915	587.8
303.307	574
303.698	596
304.089	586
304.48	577.2
304.872	586.8
305.263	585.6
305.655	581.8
306.046	588.4
306.438	587
306.829	579.6
307.221	587.2
307.613	588
308.005	597.2
308.397	591.6
308.789	601.2
309.181	603.4
309.573	596
309.965	592.4
310.357	595.4
310.749	592
311.142	580.8
311.534	574.4
311.926	593.8
312.319	589.8
312.711	584
313.104	594.8
313.497	588.2
313.889	614
314.282	595
314.675	603.4
315.068	581.8
315.461	590.6
315.854	608.4
316.247	579.6
316.64	586.4
317.033	589.2
317.405	594.4
317.798	586.2
318.192	588.4
318.585	580.6
318.979	590
319.372	577.2
319.766	581.8
320.16	593.6
320.553	600.4
320.947	603
321.341	581.2
321.735	586.4
322.129	583.2
322.523	605.2
322.917	577.2
323.311	592.6
323.705	588.8
324.099	592.4
324.494	595.8
324.888	592.4
325.282	582.2
325.677	590
326.071	586.6
326.466	592.6
326.861	592.8
327.255	594.2
327.65	592
328.045	596.2
328.44	584.8
328.835	584.8
329.23	586.2
329.625	600.6
330.02	583.6
330.415	603
330.81	586.8
331.206	592.8
331.601	576.6
331.996	587.2
332.37	596.2
332.766	573.6
333.161	606.2
333.557	576.8
333.953	586.4
334.348	874.2
334.744	590.2
335.14	584.4
335.536	574.2
335.932	592.8
336.328	590.6
336.724	592.8
337.12	586.4
337.516	585.6
337.913	584
338.309	598.6
338.705	584.2
339.102	594.6
339.498	586.6
339.895	590.8
340.291	586.4
340.688	596.6
341.085	577
341.481	581.8
341.878	583.8
342.275	606.4
342.672	580.2
343.069	583.4
343.466	580.2
343.842	587.4
344.239	576.4
344.636	580.8
345.033	575.6
345.431	576.6
345.828	582
346.225	575.8
346.623	608.4
347.02	580.8
347.418	589.8
347.816	595.6
348.213	575.4
348.611	593.4
349.009	590.6
349.407	601
349.805	578.2
350.203	576.8
350.601	598.6
350.999	582
351.397	628.2
351.795	585.4
352.193	597.6
352.57	595.4
352.969	598.8
353.367	571.6
353.766	579.6
354.164	589.8
354.563	590
354.961	583.4
355.36	585.2
355.759	584.4
356.158	573
356.557	577.4
356.956	566
357.355	565.4
357.754	583.8
358.153	585.6
358.552	600.2
358.951	577.6
359.35	590.2
359.75	577.6
360.149	573.4
360.527	567.8
360.926	569.2
361.326	587
361.726	574.6
362.125	573.2
362.525	582.6
362.925	577
363.325	581.6
363.724	580
364.124	570.6
364.524	570.8
364.924	578.2
365.324	588.2
365.725	572.6
366.125	582
366.525	581.6
366.904	572
367.304	573
367.705	595.6
368.105	587.4
368.506	578.4
368.906	571.4
369.307	580.8
369.708	584.8
370.108	569.2
370.509	589.6
370.91	574.4
371.311	579
371.712	575.6
372.113	574.6
372.514	575
372.894	581.8
373.295	572
373.696	586.4
374.097	588.8
374.499	614
374.9	580.4
375.301	571
375.703	582.2
376.105	578
376.506	580.4
376.908	582.2
377.309	586
377.711	577.2
378.113	573.4
378.493	585
378.895	578.6
379.297	581.4
379.699	567.6
380.102	580.8
380.504	581.8
380.906	577
381.308	595.2
381.71	578.6
382.113	590.2
382.515	576.2
382.918	574.6
383.299	574.6
383.701	583.2
384.104	582.6
384.507	559.4
384.909	575.8
385.312	563.4
385.715	570.4
386.118	576.4
386.521	569.2
386.924	584.2
387.327	575.6
387.709	571.8
388.112	569.6
388.515	575.4
388.918	583
389.322	581
389.725	575
390.129	596
390.532	584.6
390.936	574
391.339	563.8
391.743	575.8
392.125	569.2
392.529	580
392.933	582.8
393.337	571
393.74	572
394.144	577.4
394.548	569.4
394.953	572.8
395.357	577.4
395.761	575.2
396.144	575.2
396.548	584.4
396.952	578
397.357	572
397.761	573.8
398.166	569.8
398.57	578.2
398.975	575.2
399.379	587
399.763	621
400.168	578
400.572	576.6
400.977	576.8
401.382	590.8
401.787	591.8
402.192	600.2
402.597	588.2
403.002	568.8
403.386	590.2
403.791	584.2
404.197	566
404.602	572.8
405.007	580.8
405.413	572.4
405.818	571.8
406.224	573.2
406.608	570.2
407.014	567.8
407.42	592.8
407.825	581.4
408.231	584.2
408.637	586.2
409.043	587.2
409.449	578.6
409.834	573.2
410.24	571.6
410.646	593
411.052	588.8
411.458	576.2
411.865	578.8
412.271	590.8
412.677	577
413.062	587
413.469	570.2
413.875	596.6
414.282	586
414.689	584.8
415.095	581.8
415.502	567.4
415.888	582.6
416.294	574
416.701	612.6
417.108	577
417.515	588.4
417.923	570.4
418.33	592.4
418.715	583.8
419.123	575.2
419.53	582.8
419.937	585.6
420.345	585
420.752	577.2
421.16	587
421.546	577
421.953	589.2
422.361	571.8
422.769	574.2
423.177	572.4
423.585	602.4
423.992	592
424.379	587.8
424.787	588.6
425.195	591
425.603	575.8
426.011	590.8
426.419	595.6
426.806	584
427.214	580.2
427.623	583
428.031	592.4
428.44	584.6
428.848	589
429.235	589.8
429.644	585.8
430.053	576.4
430.461	595.4
430.87	599.6
431.279	581.4
431.666	576.2
432.075	581.4
432.484	581.6
432.893	575.8
433.302	592
433.711	612.2
434.099	584.2
434.508	580.2
434.918	578.4
435.327	587.2
435.737	577.6
436.125	576.4
436.534	576.2
436.944	576.4
437.353	579
437.763	588
438.173	579.2
438.561	588.4
438.971	561.2
439.381	573.6
439.791	583.2
440.201	565
440.589	573.8
440.999	585.6
441.409	581.4
441.819	571.2
442.23	585.2
442.619	587.8
443.029	583.8
443.439	580
443.85	592.8
444.26	591.2
444.649	588.6
445.06	579.6
445.471	575
445.881	582
446.292	588
446.682	588.8
447.092	569.4
447.503	616.2
447.914	570.6
448.325	578.2
448.715	578.6
449.126	581.2
449.537	583.4
449.948	581.2
450.338	578.2
450.75	575.8
451.161	575.6
451.572	585.6
451.984	567.6
452.374	564.2
452.786	574.4
453.197	581
453.609	582.2
453.999	567.4
454.411	574
454.823	578.6
455.235	577
455.647	568.8
456.037	576.6
456.449	564.4
456.862	571.2
457.274	578.6
457.665	571.6
458.077	578.8
458.489	602.6
458.902	577
459.293	578.2
459.705	580.2
460.118	566.8
460.53	574.2
460.921	574.4
461.334	568.8
461.747	574.6
462.16	580.2
462.551	579.2
462.964	581.2
463.377	568.8
463.79	581.2
464.182	586.4
464.595	568.8
465.008	574.6
465.421	581.4
465.813	572.6
466.226	577.6
466.64	562.2
467.053	612
467.445	582.2
467.859	591.2
468.272	575
468.686	578
469.078	573.4
469.492	567.8
469.906	577.2
470.298	581.6
470.712	570
471.126	604
471.54	563.2
471.933	564.4
472.347	571.2
472.761	567
473.175	569.2
473.568	572.4
473.982	571.8
474.397	571
474.79	570
475.204	574.8
475.619	566.4
476.033	574.6
476.426	566
476.841	563.6
477.256	586.4
477.649	563.4
478.064	564.8
478.479	567.8
478.872	565.4
479.287	559.6
479.702	561
480.118	573
480.511	564
480.927	566.8
481.342	563.2
481.736	576.2
482.151	572.2
482.566	579.6
482.96	576.8
483.376	575.4
483.792	567.6
484.186	566.8
484.602	563.4
485.017	574.6
485.412	570.4
485.827	571.2
486.243	575.6
486.638	587.8
487.054	574.2
487.47	570.6
487.865	560
488.281	564.8
488.697	563.4
489.092	569
489.508	565.2
489.925	578.8
490.32	563.6
490.736	572
491.153	564.6
491.548	565.4
491.964	583.6
492.381	557.4
492.776	566.4
493.193	574.2
493.61	571.2
494.006	569
494.422	570.8
494.84	563
495.235	580
495.652	569.2
496.069	569.2
496.465	560.6
496.883	565.4
497.3	594
497.696	565.4
498.113	572.8
498.509	560
498.927	558.4
499.344	561.4
499.741	568
500.158	575.2
500.576	565.8
500.973	567.2
501.39	567.6
501.787	560.8
502.205	568.6
502.623	561.8
503.02	565
503.438	559.4
503.856	568.4
504.253	579.2
504.671	569.4
505.068	561.6
505.486	564.2
505.905	581.8
506.302	572.6
506.72	580.4
507.118	562
507.536	572.2
507.955	569.8
508.352	566.6
508.771	573.8
509.169	577.8
509.587	565.8
510.006	568
510.404	562.6
510.823	566.6
511.221	566.6
511.64	560.8
512.038	580.8
512.457	567.8
512.877	566.2
513.275	568.4
513.694	567.2
514.092	556.6
514.512	572.8
514.91	569
515.33	575.4
515.749	579.8
516.148	569.6
516.568	570
516.966	576.2
517.386	572.2
517.785	568
518.205	562.8
518.603	574
519.024	566
519.444	569
519.843	572.4
520.263	573.4
520.662	570
521.082	567.4
521.481	566.4
521.902	568
522.301	573.8
522.722	565.8
523.121	564.6
523.542	561.4
523.963	566.8
524.362	563
524.783	569.2
525.183	559.8
525.604	568.8
526.003	561.2
526.425	559.6
526.824	569.6
527.246	573.6
527.646	572.8
528.067	572.4
528.467	558.4
528.888	561.2
529.289	568
529.71	564.6
530.11	574
530.532	563.6
530.932	560.2
531.354	556.8
531.755	592.4
532.176	569
532.577	568.6
532.999	572.8
533.4	563.2
533.822	581
534.223	569.4
534.645	573
535.046	571.2
535.468	568
535.869	578.4
536.292	564.6
536.693	597.4
537.115	573
537.516	561.6
537.939	567.4
538.34	580.6
538.742	580.2
539.165	571.6
539.566	569
539.989	566.2
540.391	563
540.814	571
541.216	568
541.639	565.6
542.041	578.8
542.464	567
542.866	570.4
543.268	557.8
543.691	567.4
544.093	569.8
544.517	595.4
544.919	561.8
545.343	586.2
545.745	565.2
546.147	577.6
546.571	568.2
546.974	561.4
547.398	568
547.8	583
548.224	563.4
548.627	558.8
549.03	576
549.454	565.6
549.857	558.8
550.281	556.8
550.684	565.6
551.087	573.8
551.512	571.4
551.915	571.2
552.34	563.8
552.743	558
553.146	571.8
553.571	563.4
553.975	578.4
554.399	562.4
554.803	604.4
555.207	559.4
555.632	565.8
556.036	577.4
556.461	568.8
556.865	564.4
557.268	561.6
557.694	565.4
558.098	569.8
558.502	572.6
558.927	563.6
559.332	564.2
559.736	573.4
560.162	574.8
560.566	564.2
560.992	567.2
561.396	574.2
561.801	562.6
562.227	566.4
562.631	561.4
563.036	568.6
563.462	567.2
563.867	571.8
564.272	556.2
564.698	570.8
565.103	557.6
565.508	579
565.935	568.6
566.34	566.6
566.745	579.4
567.172	565.8
567.577	572.4
567.982	578.6
568.409	564.6
568.815	558.8
569.22	564.4
569.626	572.8
570.053	552.6
570.459	568
570.865	568.2
571.292	571.2
571.698	570
572.104	556.8
572.531	566
572.937	572.8
573.343	560.2
573.75	558.8
574.177	564.2
574.583	569.4
574.99	560
575.396	577
575.824	562.2
576.231	573.2
576.637	559.4
577.065	585.4
577.472	556.6
577.879	567.2
578.286	574.6
578.714	555.8
579.121	558.4
579.528	560.6
579.935	562
580.364	565
580.771	554.2
581.178	549.8
581.585	568.4
582.014	565.2
582.421	559.6
582.829	562.4
583.236	572.2
583.644	561.2
584.073	560.8
584.481	557.6
584.889	552
585.296	568.6
585.726	554
586.134	546.2
586.542	550.4
586.95	576.2
587.358	555.2
587.787	560.8
588.196	575.4
588.604	567
589.012	559.8
589.421	556.8
589.851	556.6
590.259	565.6
590.668	555.4
591.076	590.6
591.485	562.4
591.894	567.2
592.324	572.2
592.733	572.2
593.142	551.6
593.551	570
593.96	557
594.369	561.2
594.8	557.2
595.209	569.8
595.618	555.6
596.028	565
596.437	554.8
596.847	564.4
597.256	564.8
597.687	571
598.097	560.6
598.507	555.2
598.917	573
599.327	574.2
599.736	572.6
600.146	580.6
600.556	574.8
600.988	579
601.398	559.6
601.808	577.8
602.219	561.8
602.629	573.2
603.039	577.4
603.45	593.6
603.86	577.4
604.271	586.2
604.703	581.2
605.114	584
605.525	578.6
605.935	582.2
606.346	597.6
606.757	581.8
607.168	580
607.579	577
607.99	595.4
608.402	588
608.813	588
609.224	582.6
609.636	588.8
610.047	596.8
610.48	600.6
610.892	604.6
611.303	604.6
611.715	594.2
612.127	591.8
612.539	592.6
612.95	596.2
613.362	592.8
613.774	593.6
614.186	593.4
614.599	602.6
615.011	607
615.423	603.4
615.835	593.8
616.248	597.4
616.66	607.8
617.073	608.6
617.485	608.2
617.898	625.6
618.311	615.6
618.723	611
619.136	634.8
619.549	628.4
619.962	633.6
620.375	625
620.788	622.6
621.201	617.6
621.614	624.4
622.028	623
622.441	614.8
622.854	629.8
623.268	609.4
623.681	627.2
624.095	621.4
624.509	635.4
624.922	627.8
625.336	616.2
625.728	631
626.142	636.4
626.556	639.2
626.97	630.8
627.384	624
627.799	622.4
628.213	627.6
628.627	623.2
629.041	625.4
629.456	622.6
629.87	629.2
630.285	631.4
630.699	622
631.093	621.6
631.507	631.4
631.922	628.4
632.337	633
632.752	621.8
633.167	630.4
633.582	622.6
633.997	613.4
634.412	609.6
634.806	620.6
635.221	609.4
635.637	622.2
636.052	610
636.468	617.8
636.883	630.8
637.299	613
637.715	603.4
638.109	617.8
638.525	605.2
638.941	617.6
639.357	613.2
639.773	618.4
640.189	612.8
640.584	612.2
641	612
641.416	607.4
641.832	615.4
642.249	602.8
642.665	607.2
643.06	612.2
643.477	608
643.894	596.2
644.31	595.6
644.727	602.6
645.123	599.6
645.54	592.8
645.957	600.6
646.374	604.8
646.77	595
647.187	614.6
647.604	593.4
648.021	588.4
648.439	589.6
648.835	591.6
649.252	588.2
649.67	587.2
650.088	591.4
650.484	588.4
650.902	596.2
651.32	600.4
651.738	584.6
652.134	587.2
652.552	605.8
652.971	592.6
653.389	585.4
653.786	597.4
654.204	599.2
654.622	579.6
655.019	588.4
655.438	583.2
655.857	592.6
656.275	587.8
656.673	574.2
657.091	584
657.51	574.4
657.908	576
658.327	595
658.746	565.4
659.144	583.4
659.563	586.2
659.982	583.2
660.38	573.2
660.8	573.4
661.219	581.2
661.617	578.2
662.037	578
662.457	583.4
662.855	565.2
663.275	602.6
663.695	577.4
664.094	575.2
664.514	578.2
664.934	574.2
665.333	580.2
665.753	570.2
666.152	566.4
666.572	566.2
666.993	586.2
667.392	571.8
667.812	567.4
668.212	568.6
668.632	580.4
669.053	570.4
669.453	573.6
669.874	574.6
670.273	570.4
670.694	571.6
671.116	577.4
671.515	572
671.937	567.4
672.337	566
672.758	568.2
673.158	574.6
673.58	558.6
673.98	574.8
674.402	574.2
674.824	558.8
675.224	569.8
675.646	558.6
676.047	562.6
676.469	559.4
676.869	573
677.292	558.4
677.693	563.2
678.115	557.8
678.516	572.2
678.939	566.8
679.34	562
679.762	573.6
680.164	568.2
680.586	557.6
680.988	565.4
681.411	584.4
681.812	561.6
682.236	552.6
682.637	553.4
683.061	548.6
683.462	559.8
683.864	559.8
684.288	567.6
684.69	552.4
685.114	569.8
685.516	563.4
685.94	560.2
686.342	576
686.766	561.2
687.168	563.6
687.571	571.8
687.995	567.4
688.398	558.4
688.822	563.4
689.225	570.4
689.628	570.2
690.052	567.4
690.456	570
690.88	564.8
691.284	559.4
691.687	568
692.112	561.4
692.515	551
692.919	562.4
693.344	564.2
693.747	556.6
694.173	556.8
694.577	570.2
694.98	554.4
695.406	567.8
695.81	567.2
696.214	565
696.64	562.4
697.044	571.6
697.448	563.8
697.874	558.8
698.279	567.2
698.684	558.2
699.11	557.6
699.514	557.2
699.919	556.6
700.324	558.2
700.75	571.6
701.156	565.4
701.561	574
701.987	570.6
702.393	578.6
702.798	569.4
703.203	560.4
703.63	552.2
704.036	561.4
704.442	560.6
704.847	556.8
705.274	556.8
705.68	563.2
706.086	571
706.492	548.8
706.92	558.6
707.326	566.2
707.732	564.4
708.139	559.8
708.545	554.8
708.973	556.6
709.38	562.4
709.786	558.4
710.193	568.6
710.6	561.2
711.028	551.8
711.435	564.6
711.842	561.8
712.249	552.2
712.656	562
713.064	572.8
713.492	556.2
713.9	555.4
714.307	565.2
714.715	560.2
715.123	565.6
715.53	560.2
715.938	568.8
716.367	561
716.775	564.6
717.184	556.4
717.592	553.4
718	560.6
718.408	583.8
718.816	595.2
719.225	570.4
719.633	558.2
720.042	555.2
720.472	558.6
720.881	575.4
721.29	570.4
721.699	555.4
722.108	561.4
722.517	561.2
722.926	555.4
723.335	570.8
723.744	554
724.154	561
724.563	555.4
724.973	558.4
725.382	563.4
725.792	556.2
726.202	549.6
726.612	578.6
727.022	563
727.432	556.8
779.813	562.6
780.223	588.4
780.634	553.8
781.044	552.6
781.454	558.2
781.865	566.8
782.276	557.6
782.686	562
783.097	557.4
783.508	557.6
783.919	560.4
784.33	563.4
784.741	563.4
785.152	556.2
785.563	549.8
785.974	561.8
786.386	577.6
786.776	554
787.188	559
787.599	546.2
788.011	560.6
788.423	562.4
788.835	552.2
789.247	557.6
789.659	551.2
790.071	558.4
790.483	591.2
790.874	548.4
791.286	561.8
791.699	554.6
792.111	559.2
792.524	559.6
792.937	557
793.349	558
793.741	556.8
794.154	554.4
794.567	573.8
794.98	562
795.393	546.6
795.785	567
796.198	555.8
796.612	549.6
797.026	548.6
797.439	550
797.831	553.6
798.245	552.6
798.659	554.4
799.073	548
799.487	549
799.88	551.8
800.294	559
800.708	552.6
801.123	553.2
801.516	566
801.93	547.2
802.345	540.6
802.76	553.4
803.153	571.6
803.568	562.2
803.983	558.2
804.377	554.8
804.792	543.6
805.207	543.2
805.601	557.6
806.016	582.2
806.432	546
806.826	588
807.242	564.6
807.658	561
808.052	549
808.468	555.4
808.884	552.4
809.279	557
809.695	569.4
810.111	573.4
810.506	556.6
810.922	573
811.339	553
811.734	564.6
812.151	553.8
812.546	557
812.963	550.2
813.38	561.2
813.776	556.6
814.193	578.6
814.589	555
815.006	560.2
815.402	544
815.82	550.6
816.237	552.2
816.633	556
817.051	546.6
817.448	555.6
817.866	549.4
818.262	567.6
818.68	551.6
819.077	556.2
819.495	549.6
819.892	585.8
820.311	548.8
820.708	555.8
821.127	554.4
821.524	557.4
821.943	562
822.34	572.8
822.759	557
823.157	551.8
823.576	561.8
823.974	560.2
824.393	569.8
824.791	550.8
825.189	547.4
825.609	550.6
826.007	549
826.427	540.8
826.826	554.8
827.246	546.2
827.644	548.6
828.043	558.4
828.463	548.8
828.862	561.6
829.261	559.6
829.682	544.2
830.081	553.8
830.502	548.4
830.901	554.2
831.301	557.6
831.722	545.8
832.121	551.4
832.521	545
832.943	551.4
833.342	550.4
833.742	546.8
834.164	558
834.564	541.2
834.965	555
835.386	548.8
835.787	553.2
836.188	562.2
836.588	547.6
837.01	554
837.411	551
837.812	570.2
838.213	560.4
838.636	555.6
839.037	613.4
839.438	561
839.84	545.4
840.263	558.2
840.664	556.2
841.066	547.2
841.468	554.6
841.891	557
842.293	553.4
842.695	551.4
843.098	558.8
843.5	550
843.902	552.8
844.326	550.2
844.729	557.6
845.131	569.4
845.534	558.8
845.937	563.4
846.34	569.8
846.764	554.8
847.167	564
847.571	555
847.974	554.8
848.377	550
848.781	596.6
849.184	562.4
849.588	558.2
849.992	547.4
850.396	552.6
850.821	568
851.225	558.6
851.63	559
852.034	567
852.438	553
852.843	614
853.247	550
853.652	548.8
854.057	571.6
854.462	549.8
854.867	565.8
855.272	572
