#lambda/nm	C1
208.295	549.6
208.67	483.2
209.045	445.8
209.419	447.6
209.794	601.8
210.169	584.8
210.544	699.2
210.919	605.4
211.295	598.2
211.67	593.6
212.045	587.8
212.421	594
212.796	625.2
213.172	589.8
213.547	592.4
213.923	594.4
214.299	594.6
214.675	601.2
215.051	598.6
215.427	607.2
215.803	614.6
216.179	603.8
216.555	598.4
216.932	605
217.308	595.4
217.684	600.2
218.061	600.4
218.438	595.6
218.814	587.8
219.191	605.4
219.568	587.2
219.945	595.2
220.322	606.6
220.699	602.6
221.076	608
221.453	600.4
221.83	588.6
222.208	590.8
222.585	590.8
222.962	603.2
223.34	600.4
223.717	600.4
224.095	590.8
224.473	598.6
224.851	596.2
225.229	597.8
225.607	608.6
225.985	585.4
226.363	599.4
226.741	592.8
227.119	588.8
227.497	603
227.876	590.6
228.254	599
228.633	605.6
229.011	594.4
229.39	602
229.769	597.6
230.148	604
230.527	611.2
230.905	596.8
231.284	603.6
231.664	591.6
232.043	610.4
232.422	603.6
232.801	596.4
233.181	597.6
233.56	590.6
233.94	595.4
234.319	592
234.699	600
235.079	639
235.458	628.4
235.838	616.4
236.218	588.6
236.598	588
236.978	602.8
237.358	593.8
237.738	588
238.119	598
238.499	584.8
238.88	602.6
239.26	608.8
239.641	582.2
240.021	593.6
240.402	594.2
240.783	592.2
241.163	597.8
241.544	596.4
241.925	592.8
242.306	602
242.687	600.8
243.069	602.8
243.45	603.2
243.831	593
244.212	595
244.594	623.2
244.975	600.6
245.357	598.4
245.739	591.4
246.12	593.2
246.502	608
246.884	595
247.266	592.4
247.648	601.4
248.03	613.8
248.412	599.4
248.794	596.6
249.176	588.4
249.559	602.2
249.941	592.2
250.323	582.8
250.706	586
251.089	588.2
251.471	603
251.854	588.4
252.237	589.6
252.62	604.4
253.002	599.8
253.385	595
253.769	612.2
254.152	596.2
254.535	606.6
254.918	595
255.301	590.4
255.685	588.4
256.068	585
256.452	618.8
256.835	600.8
257.219	597.2
257.603	609.4
257.986	587.2
258.37	596.6
258.754	581.2
259.138	604
259.522	599.8
259.906	588.6
260.29	595.2
260.675	591.8
261.059	598.4
261.443	585.4
261.828	599.2
262.212	597
262.597	596.4
262.981	595.8
263.366	608.4
263.751	599.8
264.136	588.6
264.521	599.6
264.906	589
265.291	605.2
265.676	589
266.061	603.8
266.446	610.6
266.831	596.6
267.217	619.2
267.602	602
267.987	596
268.373	595
268.759	605
269.144	602.2
269.53	595.2
269.916	593.8
270.302	582.8
270.688	599.8
271.074	598.2
271.46	605
271.846	617.8
272.232	597.4
272.618	588.8
273.004	595.6
273.391	608.2
273.777	605.8
274.164	598.4
274.55	607.8
274.937	609.4
275.324	597.8
275.71	601
276.097	601
276.484	591.6
276.871	601
277.258	608.8
277.645	590.2
278.032	600
278.419	593.4
278.807	603.2
279.194	581.2
279.581	592.8
279.969	602.4
280.356	591.8
280.744	600.4
281.131	622.4
281.519	602.8
281.907	594.2
282.295	596.4
282.682	607.4
283.07	591
283.458	602.4
283.846	606.2
284.235	605.8
284.623	604.4
285.011	590
285.399	605.8
285.788	597.8
286.176	586.4
286.565	600.8
286.953	592.4
287.342	590.2
287.731	587.2
288.119	592.6
288.508	596
288.897	600
289.286	588.4
289.675	598.2
290.064	603.4
290.453	592.2
290.821	594.8
291.21	611.8
291.599	594.8
291.989	598.4
292.378	601.6
292.768	617.8
293.157	600.4
293.547	605.6
293.936	589.4
294.326	591.6
294.716	602.6
295.106	592.6
295.496	601.6
295.886	603
296.276	602.6
296.666	592.2
297.056	589.2
297.446	589
297.836	611.6
298.227	594
298.617	597.6
299.008	614.4
299.398	594.4
299.789	604.2
300.179	597.8
300.57	612.2
300.961	602.8
301.352	593.6
301.742	607.4
302.133	597.4
302.524	592.8
302.915	602
303.307	591.8
303.698	612.6
304.089	600
304.48	585.4
304.872	608.4
305.263	592.6
305.655	591.4
306.046	601.8
306.438	601.2
306.829	587.6
307.221	609
307.613	599
308.005	604.6
308.397	607
308.789	613.4
309.181	613.2
309.573	605.4
309.965	601.8
310.357	591.2
310.749	609.4
311.142	588.8
311.534	590.6
311.926	603.2
312.319	594.8
312.711	586.8
313.104	611.8
313.497	592.4
313.889	626.4
314.282	606.8
314.675	625.8
315.068	602.8
315.461	603
315.854	626.4
316.247	604.8
316.64	597
317.033	596.4
317.405	607.6
317.798	598.6
318.192	601.2
318.585	595
318.979	599
319.372	589
319.766	597.4
320.16	608.4
320.553	605.8
320.947	615.8
321.341	597.8
321.735	608
322.129	589.4
322.523	620
322.917	596.2
323.311	611
323.705	598.2
324.099	602.6
324.494	614.6
324.888	610.4
325.282	602.8
325.677	610.6
326.071	599
326.466	606.2
326.861	600.6
327.255	611.6
327.65	606.6
328.045	610.2
328.44	602.8
328.835	600.6
329.23	589.6
329.625	620.4
330.02	597.6
330.415	619.2
330.81	605.6
331.206	609.4
331.601	595.6
331.996	598.2
332.37	616
332.766	585.8
333.161	611.6
333.557	599
333.953	607
334.348	837
334.744	599
335.14	588.8
335.536	587
335.932	601
336.328	598.4
336.724	605
337.12	599.8
337.516	608
337.913	599
338.309	603.8
338.705	597.2
339.102	606.2
339.498	588
339.895	612.8
340.291	590
340.688	605.8
341.085	589
341.481	592.6
341.878	595.6
342.275	608
342.672	594.6
343.069	590
343.466	582.6
343.842	604.4
344.239	595
344.636	589.4
345.033	577
345.431	589.6
345.828	599
346.225	593.6
346.623	624.4
347.02	600.6
347.418	600
347.816	607.8
348.213	592.8
348.611	593.2
349.009	587.8
349.407	611.2
349.805	586.6
350.203	581.6
350.601	602.6
350.999	591.2
351.397	638
351.795	590.2
352.193	606
352.57	606.8
352.969	609
353.367	586.6
353.766	590.8
354.164	592
354.563	600.8
354.961	592.4
355.36	596.2
355.759	595
356.158	577.4
356.557	588
356.956	579.6
357.355	576
357.754	590.6
358.153	599.4
358.552	605.2
358.951	594.4
359.35	606
359.75	588.6
360.149	583.2
360.527	584.2
360.926	581
361.326	601.8
361.726	588.6
362.125	589.2
362.525	602.2
362.925	591.6
363.325	599.4
363.724	593
364.124	587.4
364.524	586.2
364.924	593
365.324	608
365.725	580.8
366.125	593.8
366.525	595.4
366.904	590
367.304	578.4
367.705	608.4
368.105	602.8
368.506	590.8
368.906	595.8
369.307	584.6
369.708	585
370.108	587.8
370.509	596.6
370.91	592.8
371.311	596.4
371.712	592
372.113	596
372.514	581.8
372.894	588.2
373.295	585.6
373.696	595
374.097	598.4
374.499	613.6
374.9	589.4
375.301	581.6
375.703	597.8
376.105	584.6
376.506	595.8
376.908	595.4
377.309	598.2
377.711	600.4
378.113	590.2
378.493	594.6
378.895	593.2
379.297	595.6
379.699	579.4
380.102	598.6
380.504	590.4
380.906	589
381.308	609.6
381.71	596
382.113	601.6
382.515	587
382.918	595.6
383.299	584.6
383.701	598.8
384.104	599.2
384.507	570.8
384.909	595.8
385.312	578.8
385.715	582.4
386.118	590.2
386.521	577.6
386.924	602.6
387.327	580.4
387.709	581.8
388.112	567.6
388.515	577.6
388.918	592.4
389.322	591.4
389.725	572.6
390.129	599
390.532	592.8
390.936	586.4
391.339	574.2
391.743	588.2
392.125	583.2
392.529	604.2
392.933	597.6
393.337	595.2
393.74	585.8
394.144	585.4
394.548	584.2
394.953	590.2
395.357	594
395.761	592.4
396.144	596.2
396.548	585
396.952	593.2
397.357	592
397.761	590.4
398.166	589
398.57	588.4
398.975	586
399.379	587.4
399.763	627
400.168	587.4
400.572	586.2
400.977	585.2
401.382	600.4
401.787	599.6
402.192	604.4
402.597	603.8
403.002	574.8
403.386	596.2
403.791	604.2
404.197	580.2
404.602	592.8
405.007	592.8
405.413	587.8
405.818	590.4
406.224	581.2
406.608	579.8
407.014	578.4
407.42	599.8
407.825	583.2
408.231	590.6
408.637	587.6
409.043	599.4
409.449	573.8
409.834	576
410.24	597.2
410.646	598.8
411.052	588.6
411.458	592
411.865	591.6
412.271	592.4
412.677	587.8
413.062	597
413.469	580
413.875	604.8
414.282	604.4
414.689	590.6
415.095	595.6
415.502	587.4
415.888	591.2
416.294	574.8
416.701	623.8
417.108	587.8
417.515	592.2
417.923	587.2
418.33	606.6
418.715	596.4
419.123	596.6
419.53	587.4
419.937	595.8
420.345	608.8
420.752	591.6
421.16	604.2
421.546	590
421.953	602.6
422.361	582.8
422.769	597.4
423.177	579.8
423.585	610.2
423.992	605
424.379	594.8
424.787	598.4
425.195	613.6
425.603	593.4
426.011	602.2
426.419	599.4
426.806	596.4
427.214	592.2
427.623	599.2
428.031	608.8
428.44	604
428.848	603
429.235	610.4
429.644	595.2
430.053	590.4
430.461	606.6
430.87	618.8
431.279	596.6
431.666	583.8
432.075	593.6
432.484	604.4
432.893	588.4
433.302	605.8
433.711	621.8
434.099	595.4
434.508	591.4
434.918	584.2
435.327	597.8
435.737	596.2
436.125	594
436.534	590.2
436.944	598.2
437.353	591.2
437.763	610.4
438.173	580.6
438.561	602
438.971	574.4
439.381	578.8
439.791	582.6
440.201	565.6
440.589	585.4
440.999	594.8
441.409	587.4
441.819	583.8
442.23	597.8
442.619	590
443.029	589.6
443.439	592.8
443.85	594.4
444.26	603.2
444.649	587.2
445.06	585.6
445.471	574.6
445.881	588
446.292	598.4
446.682	598.8
447.092	573
447.503	630
447.914	589.6
448.325	591.2
448.715	589.8
449.126	583.4
449.537	588.2
449.948	590.8
450.338	586.4
450.75	596.6
451.161	585
451.572	591.6
451.984	581.8
452.374	575.4
452.786	586.6
453.197	585.2
453.609	595.6
453.999	575
454.411	572.6
454.823	590.6
455.235	583.2
455.647	576.2
456.037	588.2
456.449	578.6
456.862	590.6
457.274	586.8
457.665	579
458.077	589.8
458.489	609.6
458.902	586.2
459.293	585
459.705	598.4
460.118	578
460.53	590
460.921	586.2
461.334	590
461.747	587
462.16	600.6
462.551	591.6
462.964	591.6
463.377	575.8
463.79	590.4
464.182	595.2
464.595	579.8
465.008	591.8
465.421	591.6
465.813	583.8
466.226	591.4
466.64	590
467.053	623
467.445	601.2
467.859	608.2
468.272	581.4
468.686	601.2
469.078	590.2
469.492	571.6
469.906	584.6
470.298	588
470.712	579.2
471.126	624.4
471.54	569.6
471.933	577.4
472.347	581.2
472.761	578.2
473.175	572
473.568	585
473.982	581
474.397	582.2
474.79	584.4
475.204	585.4
475.619	582.2
476.033	588
476.426	581.6
476.841	579.2
477.256	603.8
477.649	573
478.064	574.2
478.479	579.8
478.872	575.6
479.287	579.4
479.702	581.6
480.118	587.2
480.511	580
480.927	583.6
481.342	579.2
481.736	585
482.151	581.4
482.566	594.8
482.96	592.6
483.376	594.4
483.792	577.4
484.186	587.4
484.602	578.6
485.017	577.4
485.412	583.2
485.827	581.8
486.243	580.8
486.638	597.6
487.054	595.2
487.47	593
487.865	575
488.281	579.6
488.697	578
489.092	584.2
489.508	576.6
489.925	586.4
490.32	574
490.736	583.4
491.153	576.6
491.548	583.8
491.964	591.2
492.381	572.6
492.776	587.8
493.193	587.2
493.61	590.2
494.006	579.2
494.422	590
494.84	578.4
495.235	592
495.652	576.2
496.069	575.6
496.465	573.2
496.883	587.6
497.3	610
497.696	578.6
498.113	583.4
498.509	568.6
498.927	566.2
499.344	571
499.741	575.6
500.158	587.4
500.576	588
500.973	579.6
501.39	581.4
501.787	571.2
502.205	591.2
502.623	578
503.02	567.2
503.438	581.2
503.856	577.2
504.253	575
504.671	581.4
505.068	566.2
505.486	573.2
505.905	583.8
506.302	573.2
506.72	583.2
507.118	567.4
507.536	576.8
507.955	585
508.352	585
508.771	590.4
509.169	587.2
509.587	570.4
510.006	578.4
510.404	564.4
510.823	575.2
511.221	576.4
511.64	577
512.038	596.4
512.457	579.4
512.877	582.8
513.275	577.6
513.694	580.2
514.092	581.8
514.512	579
514.91	591.2
515.33	572.8
515.749	586.8
516.148	587
516.568	586.8
516.966	576.8
517.386	571.2
517.785	580
518.205	575
518.603	576.6
519.024	577
519.444	580.4
519.843	584.2
520.263	590.6
520.662	582
521.082	576.8
521.481	575.8
521.902	579.8
522.301	591.6
522.722	587.6
523.121	582.4
523.542	575.6
523.963	580.4
524.362	583.2
524.783	583.4
525.183	571.6
525.604	588.8
526.003	578.6
526.425	579.8
526.824	584.2
527.246	582.2
527.646	590.2
528.067	584
528.467	582
528.888	586.6
529.289	579.2
529.71	581.4
530.11	575.4
530.532	574.4
530.932	576
531.354	570.2
531.755	601.8
532.176	578.2
532.577	569.4
532.999	577.2
533.4	573
533.822	586.4
534.223	584.4
534.645	567.4
535.046	575.8
535.468	578.8
535.869	591.4
536.292	568.2
536.693	604.2
537.115	580.2
537.516	576.4
537.939	568.4
538.34	588.4
538.742	594.8
539.165	576.6
539.566	575
539.989	567.4
540.391	570.2
540.814	580.4
541.216	577.8
541.639	578.2
542.041	578.8
542.464	575
542.866	574.2
543.268	576.2
543.691	570.6
544.093	580.4
544.517	591.4
544.919	558.2
545.343	598.6
545.745	565.6
546.147	576.6
546.571	570.8
546.974	569.8
547.398	587.8
547.8	577.4
548.224	570.8
548.627	571.6
549.03	581
549.454	569.4
549.857	564.4
550.281	574.6
550.684	567.8
551.087	583.2
551.512	573.6
551.915	578.2
552.34	583.4
552.743	574
553.146	579.2
553.571	577.6
553.975	592
554.399	574.6
554.803	623.4
555.207	572.4
555.632	577.8
556.036	585.2
556.461	572.6
556.865	576.8
557.268	573.6
557.694	575.4
558.098	590.4
558.502	579.2
558.927	566.8
559.332	585.4
559.736	577.2
560.162	585.4
560.566	579.6
560.992	583.2
561.396	583.2
561.801	582.4
562.227	583
562.631	575.4
563.036	579.8
563.462	587.4
563.867	577.4
564.272	572.4
564.698	578.8
565.103	573.2
565.508	596.6
565.935	580.6
566.34	580
566.745	589
567.172	584.6
567.577	600.2
567.982	588.6
568.409	589.6
568.815	575.8
569.22	574.4
569.626	585.2
570.053	574.4
570.459	586.4
570.865	579.6
571.292	585
571.698	584
572.104	569.4
572.531	577
572.937	590.2
573.343	578.4
573.75	578.4
574.177	586.4
574.583	579.2
574.99	579.2
575.396	580.2
575.824	576.8
576.231	587.6
576.637	584
577.065	606
577.472	580.8
577.879	576.2
578.286	597
578.714	576
579.121	574
579.528	580
579.935	586.6
580.364	574.2
580.771	563.2
581.178	574.4
581.585	583.4
582.014	585.6
582.421	573.6
582.829	571.2
583.236	585.8
583.644	574.6
584.073	568.8
584.481	580.6
584.889	580.2
585.296	585.6
585.726	576.6
586.134	570
586.542	566.6
586.95	587.2
587.358	565.2
587.787	571.6
588.196	584.2
588.604	577.4
589.012	573.2
589.421	569.4
589.851	578
590.259	576.4
590.668	567
591.076	613.2
591.485	562.2
591.894	572
592.324	587.8
592.733	585
593.142	556.8
593.551	575.4
593.96	582
594.369	569.4
594.8	561.4
595.209	574
595.618	563.4
596.028	570
596.437	568
596.847	569.8
597.256	575.4
597.687	574.2
598.097	577.6
598.507	566.2
598.917	577
599.327	578.2
599.736	574.8
600.146	573
600.556	580.8
600.988	583.8
601.398	569.6
601.808	582.2
602.219	567.4
602.629	575.8
603.039	575.6
603.45	603.2
603.86	581.8
604.271	581
604.703	575.2
605.114	575
605.525	576.2
605.935	569.2
606.346	600.4
606.757	585.8
607.168	574.8
607.579	571.6
607.99	587.6
608.402	579.8
608.813	583.6
609.224	581.8
609.636	567.2
610.047	563
610.48	579.8
610.892	581.4
611.303	577.2
611.715	574
612.127	566.4
612.539	579.8
612.95	587.2
613.362	573.6
613.774	562.6
614.186	577.2
614.599	568.8
615.011	582.4
615.423	585.8
615.835	570.8
616.248	572.8
616.66	582.6
617.073	581.2
617.485	582.6
617.898	585.6
618.311	580.4
618.723	577.2
619.136	597.6
619.549	598.8
619.962	605.8
620.375	578.6
620.788	581
621.201	577.8
621.614	585.8
622.028	574.2
622.441	580.6
622.854	588.4
623.268	570.8
623.681	580.4
624.095	575
624.509	588.4
624.922	592
625.336	573
625.728	586.8
626.142	585.4
626.556	593.8
626.97	585.4
627.384	576.6
627.799	576
628.213	595.4
628.627	586.4
629.041	575.8
629.456	579.8
629.87	577.8
630.285	587.2
630.699	590
631.093	579
631.507	581.4
631.922	580.6
632.337	590.4
632.752	569.8
633.167	583.4
633.582	580.4
633.997	575.2
634.412	573
634.806	582
635.221	567.4
635.637	592.6
636.052	565.6
636.468	579
636.883	595.8
637.299	576.6
637.715	571
638.109	575.2
638.525	565.6
638.941	581.4
639.357	582.4
639.773	586
640.189	571.8
640.584	580
641	578.6
641.416	570
641.832	580.2
642.249	577.8
642.665	572.6
643.06	586.8
643.477	593.6
643.894	568.4
644.31	578.4
644.727	570.8
645.123	574.8
645.54	566
645.957	572.2
646.374	581.2
646.77	583.4
647.187	604.6
647.604	579.8
648.021	569
648.439	572.6
648.835	575
649.252	573
649.67	577
650.088	570.8
650.484	578
650.902	583.2
651.32	583
651.738	571
652.134	586
652.552	591
652.971	592.6
653.389	579.2
653.786	591.6
654.204	594
654.622	566.2
655.019	582
655.438	577.8
655.857	578.2
656.275	584.2
656.673	582
657.091	586.2
657.51	568.2
657.908	583
658.327	591.2
658.746	561.2
659.144	577
659.563	578.8
659.982	573.8
660.38	564.6
660.8	578.8
661.219	579.4
661.617	578
662.037	572.6
662.457	584
662.855	569.8
663.275	597.6
663.695	572.6
664.094	585.6
664.514	571.8
664.934	568
665.333	579
665.753	572.8
666.152	570
666.572	568.8
666.993	587.2
667.392	578.4
667.812	580.4
668.212	568.8
668.632	574.4
669.053	568
669.453	570.6
669.874	573.6
670.273	574.4
670.694	567
671.116	588.4
671.515	586.8
671.937	566.4
672.337	576
672.758	570.8
673.158	585.8
673.58	566.8
673.98	580.8
674.402	586.2
674.824	574
675.224	571.6
675.646	568.4
676.047	573.4
676.469	572.2
676.869	573.6
677.292	567.8
677.693	567.2
678.115	569
678.516	570
678.939	578
679.34	580.2
679.762	584
680.164	573.4
680.586	562
680.988	573.2
681.411	595.8
681.812	568
682.236	563.2
682.637	567.4
683.061	559
683.462	574.4
683.864	572.4
684.288	569.6
684.69	562.4
685.114	573.6
685.516	579.2
685.94	569.6
686.342	575.8
686.766	570.2
687.168	563
687.571	588
687.995	582
688.398	562
688.822	565.2
689.225	588
689.628	585
690.052	575.8
690.456	576
690.88	575.8
691.284	568.2
691.687	578.8
692.112	560.2
692.515	560.8
692.919	569.2
693.344	569.6
693.747	563.6
694.173	569.4
694.577	576
694.98	575.8
695.406	571.6
695.81	570.6
696.214	572.6
696.64	571.2
697.044	569.8
697.448	578.6
697.874	569.2
698.279	571.4
698.684	568
699.11	563.6
699.514	565.4
699.919	570.6
700.324	566.8
700.75	569.6
701.156	564.8
701.561	575.8
701.987	566
702.393	574.2
702.798	582.6
703.203	572.4
703.63	562.2
704.036	570.8
704.442	572.6
704.847	560.2
705.274	570
705.68	575.6
706.086	582.6
706.492	561.2
706.92	578.4
707.326	584
707.732	565.6
708.139	562.4
708.545	557.4
708.973	567.2
709.38	571.4
709.786	564.8
710.193	588.4
710.6	573
711.028	561.8
711.435	571.8
711.842	570.8
712.249	564.2
712.656	574.2
713.064	574.2
713.492	567.2
713.9	567.2
714.307	567.6
714.715	565.8
715.123	569.2
715.53	572.4
715.938	585.8
716.367	571.4
716.775	572
717.184	566.4
717.592	571.2
718	579.2
718.408	598
718.816	611.2
719.225	578.6
719.633	579.8
720.042	571.4
720.472	564.4
720.881	589.8
721.29	577.6
721.699	565
722.108	570.2
722.517	571.2
722.926	570
723.335	579
723.744	570.6
724.154	578.8
724.563	571.6
724.973	573.4
725.382	572.2
725.792	564.6
726.202	567.4
726.612	584.4
727.022	561.6
727.432	565.4
779.813	570.4
780.223	605.6
780.634	573
781.044	568
781.454	569.6
781.865	575.4
782.276	558.8
782.686	575.6
783.097	570.2
783.508	569.6
783.919	566.6
784.33	578.4
784.741	579.2
785.152	568.2
785.563	557
785.974	564
786.386	570.2
786.776	558.8
787.188	571.4
787.599	560.6
788.011	567.6
788.423	574.2
788.835	560.8
789.247	563.6
789.659	554
790.071	569.4
790.483	604.2
790.874	564.2
791.286	572.2
791.699	564.8
792.111	566
792.524	572.2
792.937	564.2
793.349	556.4
793.741	558.4
794.154	561.6
794.567	580.4
794.98	567.4
795.393	562
795.785	580.6
796.198	571
796.612	574
797.026	564.8
797.439	552.6
797.831	564
798.245	561.6
798.659	570.8
799.073	566.6
799.487	555
799.88	567
800.294	563.4
800.708	571.4
801.123	576
801.516	585.6
801.93	557.8
802.345	561.8
802.76	569.4
803.153	583.2
803.568	579.2
803.983	572.6
804.377	571
804.792	563
805.207	562
805.601	571.4
806.016	596.2
806.432	568.8
806.826	587.4
807.242	577.6
807.658	568.8
808.052	561
808.468	565.2
808.884	572
809.279	571
809.695	580
810.111	582.8
810.506	564.6
810.922	584
811.339	565.6
811.734	576.6
812.151	564.2
812.546	565.4
812.963	563.8
813.38	570
813.776	568.6
814.193	583.6
814.589	559
815.006	562.6
815.402	560.8
815.82	557.8
816.237	567
816.633	574
817.051	565.4
817.448	571.2
817.866	556
818.262	586.4
818.68	561.8
819.077	563
819.495	564.6
819.892	605.6
820.311	564
820.708	564.4
821.127	567.8
821.524	579
821.943	569.2
822.34	592.6
822.759	571.4
823.157	571
823.576	576.4
823.974	575.2
824.393	582
824.791	566
825.189	557.8
825.609	567.2
826.007	570
826.427	560.6
826.826	569.4
827.246	568.8
827.644	566
828.043	575.2
828.463	567.4
828.862	573.6
829.261	573.2
829.682	563.4
830.081	574
830.502	561.4
830.901	575.4
831.301	580.6
831.722	552.8
832.121	565
832.521	558.8
832.943	566
833.342	567.2
833.742	559.8
834.164	557.4
834.564	564.8
834.965	559
835.386	566.8
835.787	559.2
836.188	566.2
836.588	566.4
837.01	569.2
837.411	559.4
837.812	568.2
838.213	567.2
838.636	563.8
839.037	625.6
839.438	572.4
839.84	568.4
840.263	567.8
840.664	567.6
841.066	554.4
841.468	573.4
841.891	567.2
842.293	574.6
842.695	570.6
843.098	580.2
843.5	566
843.902	566.2
844.326	564
844.729	561.2
845.131	576.6
845.534	567.2
845.937	580.6
846.34	577
846.764	559
847.167	561.2
847.571	556.4
847.974	564.4
848.377	556.6
848.781	598.4
849.184	572.8
849.588	561
849.992	565.2
850.396	570.8
850.821	583.4
851.225	574.8
851.63	564.8
852.034	576
852.438	572.6
852.843	638.6
853.247	563.6
853.652	556.6
854.057	584.8
854.462	572.6
854.867	572.4
855.272	595
855.677	571
856.082	563.4
856.487	561
856.893	566.2
