#lambda/nm	C1
208.295	545
208.67	491.8
209.045	449
209.419	453.4
209.794	601.8
210.169	588.4
210.544	684.4
210.919	601.2
211.295	582.8
211.67	598
212.045	598
212.421	593.2
212.796	626.6
213.172	596.4
213.547	597
213.923	596
214.299	589.4
214.675	597
215.051	605.4
215.427	591.8
215.803	607
216.179	607
216.555	590.8
216.932	601.4
217.308	599
217.684	598.8
218.061	607
218.438	597
218.814	601.2
219.191	599.8
219.568	592.4
219.945	589.4
220.322	609.2
220.699	601.2
221.076	603.4
221.453	603.2
221.83	597.2
222.208	587
222.585	598.2
222.962	602.6
223.34	598.2
223.717	597.8
224.095	598.4
224.473	605
224.851	598.4
225.229	593.6
225.607	605.6
225.985	599.6
226.363	597.8
226.741	599
227.119	600
227.497	609.8
227.876	588.6
228.254	605
228.633	606.2
229.011	593.4
229.39	601
229.769	605.4
230.148	602.2
230.527	608.6
230.905	597.4
231.284	592.6
231.664	588.8
232.043	606.6
232.422	599.4
232.801	592.4
233.181	597.6
233.56	588.4
233.94	587.6
234.319	582.4
234.699	587.4
235.079	624.6
235.458	625.4
235.838	609.4
236.218	589.4
236.598	580.2
236.978	583.6
237.358	594.2
237.738	585.8
238.119	593.8
238.499	587.8
238.88	595.4
239.26	605.6
239.641	585.4
240.021	594.6
240.402	593.4
240.783	596.6
241.163	593.2
241.544	589.8
241.925	594.6
242.306	611.2
242.687	601.8
243.069	600.4
243.45	604
243.831	587.4
244.212	586.6
244.594	629.8
244.975	597.8
245.357	606.2
245.739	598
246.12	600.8
246.502	608
246.884	594
247.266	595.8
247.648	603
248.03	617.4
248.412	598.8
248.794	596.8
249.176	591.8
249.559	600.4
249.941	590.4
250.323	593.2
250.706	587
251.089	600.4
251.471	595.6
251.854	594.6
252.237	591.8
252.62	603.8
253.002	599.2
253.385	595.4
253.769	608.8
254.152	594.4
254.535	595
254.918	586.6
255.301	598.4
255.685	598.6
256.068	585.4
256.452	614.4
256.835	603.8
257.219	606
257.603	605.4
257.986	589.8
258.37	599.8
258.754	590
259.138	605.6
259.522	608.2
259.906	591.8
260.29	595
260.675	595
261.059	597.8
261.443	582.2
261.828	606
262.212	596.2
262.597	583
262.981	593.8
263.366	610.2
263.751	597.8
264.136	589.6
264.521	588.8
264.906	585.8
265.291	604.8
265.676	595
266.061	596.8
266.446	616.8
266.831	593.4
267.217	614.4
267.602	597
267.987	600.8
268.373	595.6
268.759	603.4
269.144	602.2
269.53	598
269.916	592.4
270.302	593.2
270.688	605
271.074	594.6
271.46	612.8
271.846	617.4
272.232	603.2
272.618	594
273.004	594.4
273.391	605.2
273.777	606.4
274.164	588.8
274.55	608
274.937	595.6
275.324	594.2
275.71	597.6
276.097	602.2
276.484	595.8
276.871	594.4
277.258	603.4
277.645	581.8
278.032	593.6
278.419	588
278.807	598.4
279.194	588.2
279.581	576.8
279.969	595.4
280.356	597.6
280.744	592.8
281.131	616
281.519	604
281.907	595.8
282.295	590.4
282.682	606.4
283.07	601.6
283.458	603.8
283.846	613
284.235	601.2
284.623	605
285.011	587.2
285.399	603.8
285.788	588.4
286.176	580.8
286.565	605.4
286.953	591.6
287.342	598
287.731	593.6
288.119	583.8
288.508	592.8
288.897	599.8
289.286	582.2
289.675	593.4
290.064	599
290.453	596.2
290.821	591.4
291.21	596.6
291.599	594.4
291.989	599.8
292.378	604.4
292.768	611.8
293.157	605.6
293.547	609
293.936	602.2
294.326	595
294.716	602
295.106	593
295.496	608
295.886	604.8
296.276	582.6
296.666	594.6
297.056	594.2
297.446	589
297.836	618
298.227	599.6
298.617	600.8
299.008	612
299.398	601.4
299.789	586.6
300.179	594.4
300.57	613
300.961	594
301.352	595.8
301.742	607.8
302.133	598.6
302.524	598
302.915	598.8
303.307	594
303.698	610.4
304.089	608.4
304.48	590
304.872	595.8
305.263	599.8
305.655	587.4
306.046	601.8
306.438	599
306.829	588.4
307.221	609
307.613	598.4
308.005	598.4
308.397	611.2
308.789	611.6
309.181	620.8
309.573	615.6
309.965	606.4
310.357	596
310.749	612.4
311.142	587
311.534	589.2
311.926	603.2
312.319	594.6
312.711	590.6
313.104	616.4
313.497	595
313.889	630.8
314.282	609.2
314.675	617.2
315.068	593.4
315.461	605
315.854	627.4
316.247	609.2
316.64	595.4
317.033	599.6
317.405	596.2
317.798	590.8
318.192	599.4
318.585	595.4
318.979	599.2
319.372	598
319.766	592.6
320.16	600
320.553	606.8
320.947	614
321.341	587.6
321.735	599.4
322.129	584.8
322.523	615.8
322.917	596.4
323.311	610.6
323.705	605
324.099	593.6
324.494	610.4
324.888	605.4
325.282	598.8
325.677	615.6
326.071	605.2
326.466	610
326.861	602
327.255	604.8
327.65	617.6
328.045	618.2
328.44	599.8
328.835	593.6
329.23	592.8
329.625	614.4
330.02	588.6
330.415	613.6
330.81	602
331.206	595
331.601	587.4
331.996	600.6
332.37	608.2
332.766	586.2
333.161	609.8
333.557	587.8
333.953	598.4
334.348	860.4
334.744	599.4
335.14	591.4
335.536	586.8
335.932	605.4
336.328	600.2
336.724	614
337.12	597.8
337.516	603.8
337.913	597.8
338.309	614.2
338.705	600.4
339.102	596.6
339.498	589.4
339.895	606.8
340.291	596.4
340.688	601
341.085	585.4
341.481	594.4
341.878	590.4
342.275	619
342.672	593.4
343.069	585.2
343.466	581.8
343.842	597.2
344.239	591.8
344.636	597
345.033	592.8
345.431	591.6
345.828	595.4
346.225	590.4
346.623	625.6
347.02	598.6
347.418	606.2
347.816	613
348.213	591.2
348.611	600.8
349.009	599.6
349.407	598.4
349.805	589.4
350.203	589.8
350.601	610.6
350.999	590.2
351.397	640.2
351.795	602
352.193	614.8
352.57	596.6
352.969	610.6
353.367	588.2
353.766	593.6
354.164	599.2
354.563	596.2
354.961	593.2
355.36	590.6
355.759	599.4
356.158	585
356.557	591.2
356.956	590.4
357.355	584.6
357.754	592
358.153	594.6
358.552	609.8
358.951	584
359.35	602.8
359.75	586.2
360.149	585.4
360.527	576.6
360.926	582.6
361.326	593.6
361.726	588
362.125	581
362.525	596.2
362.925	586.6
363.325	594.2
363.724	598.2
364.124	587.6
364.524	583.6
364.924	589
365.324	603
365.725	579.6
366.125	594.4
366.525	593
366.904	585.6
367.304	581.2
367.705	605.4
368.105	596.8
368.506	593.2
368.906	597.6
369.307	596.8
369.708	594.8
370.108	580.8
370.509	592.2
370.91	582.8
371.311	600
371.712	598.2
372.113	583.8
372.514	580.2
372.894	584
373.295	588
373.696	597.8
374.097	597.2
374.499	614.6
374.9	592.8
375.301	580
375.703	589.4
376.105	581.6
376.506	590
376.908	590.6
377.309	585.8
377.711	593.4
378.113	581
378.493	593.8
378.895	580.2
379.297	606.2
379.699	581.2
380.102	601.8
380.504	587.6
380.906	585.8
381.308	609.8
381.71	585.2
382.113	593.2
382.515	579.4
382.918	589
383.299	585
383.701	592.4
384.104	588.8
384.507	572.8
384.909	584.2
385.312	574.6
385.715	580.8
386.118	586.6
386.521	584.4
386.924	595.4
387.327	575.6
387.709	572
388.112	569.6
388.515	585
388.918	581.2
389.322	591.4
389.725	577.2
390.129	604.6
390.532	593.2
390.936	581
391.339	579.2
391.743	597.6
392.125	586
392.529	596.6
392.933	599.6
393.337	594.2
393.74	587.4
394.144	597.8
394.548	586.2
394.953	586.8
395.357	600.2
395.761	583.4
396.144	589.4
396.548	592.4
396.952	584.6
397.357	591.4
397.761	584.2
398.166	584.6
398.57	583.6
398.975	580
399.379	586.8
399.763	633.6
400.168	590.8
400.572	586.8
400.977	578.2
401.382	606.4
401.787	593.8
402.192	602.2
402.597	599.4
403.002	571
403.386	594.6
403.791	594.8
404.197	582.8
404.602	580.8
405.007	589.6
405.413	582.2
405.818	585.2
406.224	582.6
406.608	586.6
407.014	579
407.42	600.8
407.825	584.2
408.231	600.8
408.637	588
409.043	608.4
409.449	589.8
409.834	587.4
410.24	598.6
410.646	592.8
411.052	600.2
411.458	589.6
411.865	598.2
412.271	601.6
412.677	596.6
413.062	595.8
413.469	579.8
413.875	618
414.282	602.4
414.689	588.8
415.095	592.8
415.502	593.4
415.888	594.6
416.294	577.2
416.701	621.2
417.108	585.2
417.515	603.6
417.923	591.6
418.33	605.4
418.715	595.8
419.123	594.6
419.53	589.4
419.937	602.8
420.345	605.8
420.752	589.4
421.16	604.2
421.546	591.4
421.953	598.8
422.361	582.4
422.769	591.4
423.177	589
423.585	611.6
423.992	612.8
424.379	599.4
424.787	595.6
425.195	604
425.603	579.8
426.011	602.4
426.419	607.8
426.806	598.4
427.214	593.2
427.623	597.2
428.031	600.6
428.44	596.2
428.848	607
429.235	605.4
429.644	598.6
430.053	600.2
430.461	603.4
430.87	610.2
431.279	598.2
431.666	582.8
432.075	591.2
432.484	599.4
432.893	589.8
433.302	609.8
433.711	623.4
434.099	597.8
434.508	592
434.918	589
435.327	600.2
435.737	596.4
436.125	594.6
436.534	593.4
436.944	589.6
437.353	593.8
437.763	614.4
438.173	583.6
438.561	596.4
438.971	574.4
439.381	590.2
439.791	596.6
440.201	571.4
440.589	585.8
440.999	599.8
441.409	598.2
441.819	575.8
442.23	594.6
442.619	593.6
443.029	584.8
443.439	589.8
443.85	598.8
444.26	604.6
444.649	594.4
445.06	586.8
445.471	585.8
445.881	597.2
446.292	599
446.682	606.6
447.092	578
447.503	628
447.914	599.6
448.325	587
448.715	590.8
449.126	580.6
449.537	596.2
449.948	590.6
450.338	593.6
450.75	596
451.161	596.8
451.572	590.2
451.984	583.6
452.374	573.6
452.786	597.8
453.197	597.4
453.609	598.6
453.999	579.2
454.411	576.8
454.823	596.6
455.235	592.8
455.647	582
456.037	581.2
456.449	577.4
456.862	584.6
457.274	592
457.665	580.8
458.077	591.4
458.489	612.2
458.902	580.8
459.293	583.2
459.705	591.4
460.118	586.2
460.53	587.4
460.921	586.4
461.334	592
461.747	587.8
462.16	594.8
462.551	599.8
462.964	594
463.377	573.4
463.79	579.4
464.182	594
464.595	585.8
465.008	593
465.421	593
465.813	583.8
466.226	600.6
466.64	575.6
467.053	624.2
467.445	601.2
467.859	599.4
468.272	589.8
468.686	593.2
469.078	581.8
469.492	579
469.906	593.4
470.298	588.2
470.712	577
471.126	627
471.54	577.4
471.933	575.4
472.347	580
472.761	577
473.175	579
473.568	579.8
473.982	574.4
474.397	578.2
474.79	587.6
475.204	584.8
475.619	583.2
476.033	589.6
476.426	583.2
476.841	576.8
477.256	601.2
477.649	577.4
478.064	578.4
478.479	578.6
478.872	575.6
479.287	567.6
479.702	570.2
480.118	578.6
480.511	581.8
480.927	582.8
481.342	579.6
481.736	582.4
482.151	578
482.566	591.2
482.96	575.4
483.376	595
483.792	582.2
484.186	580.4
484.602	577.2
485.017	578
485.412	580.8
485.827	583.2
486.243	587
486.638	603.2
487.054	593.6
487.47	593.6
487.865	577.2
488.281	576.4
488.697	575.6
489.092	578.6
489.508	575.6
489.925	593.4
490.32	578.8
490.736	582.4
491.153	582.4
491.548	578.4
491.964	582.6
492.381	570.8
492.776	582.6
493.193	580.2
493.61	589
494.006	580
494.422	586.6
494.84	573
495.235	587.8
495.652	584.6
496.069	585
496.465	577.8
496.883	579
497.3	605.6
497.696	573.6
498.113	582.6
498.509	571.2
498.927	577
499.344	573.8
499.741	574.8
500.158	588
500.576	590
500.973	583.8
501.39	572.6
501.787	576.4
502.205	575
502.623	569.6
503.02	568.4
503.438	576.8
503.856	574.8
504.253	579.4
504.671	587.2
505.068	581
505.486	582.8
505.905	604
506.302	582.2
506.72	586.8
507.118	570
507.536	581.8
507.955	578.2
508.352	587.4
508.771	584.2
509.169	580.4
509.587	574.4
510.006	582.2
510.404	577.4
510.823	580.6
511.221	575.6
511.64	574
512.038	590
512.457	577.4
512.877	581
513.275	583
513.694	579.6
514.092	586.4
514.512	582.4
514.91	594.4
515.33	583.8
515.749	590
516.148	584
516.568	576.4
516.966	575.8
517.386	575
517.785	582.8
518.205	570.2
518.603	584.8
519.024	572
519.444	582
519.843	586.2
520.263	588.4
520.662	584.8
521.082	581.6
521.481	580
521.902	584
522.301	579.6
522.722	581.4
523.121	583.6
523.542	571.6
523.963	579.6
524.362	577.2
524.783	583.4
525.183	572.2
525.604	587.2
526.003	568.2
526.425	567.6
526.824	583.8
527.246	589
527.646	581.4
528.067	580
528.467	582.2
528.888	582.4
529.289	572.6
529.71	580
530.11	576.6
530.532	576.6
530.932	573
531.354	575
531.755	613.4
532.176	587.8
532.577	577
532.999	578.6
533.4	574.4
533.822	584.4
534.223	589.4
534.645	578.6
535.046	579.8
535.468	584.2
535.869	589.8
536.292	570.4
536.693	600.2
537.115	584.6
537.516	581
537.939	582.2
538.34	589.4
538.742	593.4
539.165	584.6
539.566	589
539.989	574.8
540.391	573.8
540.814	580.6
541.216	579.6
541.639	573.8
542.041	579.6
542.464	578.2
542.866	574.8
543.268	570.4
543.691	583.6
544.093	585
544.517	598.6
544.919	579
545.343	593.6
545.745	574.2
546.147	578.8
546.571	576.6
546.974	569.8
547.398	578
547.8	590.2
548.224	578.4
548.627	568.8
549.03	582.8
549.454	568
549.857	571
550.281	568.6
550.684	575.8
551.087	582.2
551.512	573.2
551.915	589.4
552.34	582
552.743	576
553.146	582.6
553.571	575.2
553.975	595.6
554.399	577
554.803	621.2
555.207	574.8
555.632	567.2
556.036	582.2
556.461	579
556.865	577.8
557.268	572
557.694	579.6
558.098	585
558.502	585.2
558.927	578
559.332	570.8
559.736	574.6
560.162	585
560.566	573.2
560.992	586.6
561.396	570
561.801	573.4
562.227	578
562.631	580.2
563.036	579.4
563.462	586.2
563.867	582.6
564.272	572
564.698	582
565.103	570.8
565.508	605.8
565.935	578.2
566.34	583.2
566.745	582
567.172	572.8
567.577	587
567.982	587.4
568.409	574
568.815	568.2
569.22	574
569.626	578
570.053	569.6
570.459	577.6
570.865	579
571.292	580.8
571.698	587
572.104	571.4
572.531	566
572.937	588.4
573.343	578.4
573.75	571.4
574.177	576
574.583	585
574.99	571
575.396	572.6
575.824	572
576.231	583
576.637	570.8
577.065	595.2
577.472	572.8
577.879	575.8
578.286	581
578.714	563.6
579.121	573.8
579.528	579
579.935	587
580.364	568.2
580.771	564.2
581.178	566
581.585	574
582.014	576.2
582.421	573.2
582.829	576.4
583.236	573.6
583.644	567.2
584.073	573.4
584.481	567.6
584.889	566.8
585.296	584.4
585.726	573
586.134	566
586.542	569.6
586.95	589.2
587.358	568.6
587.787	575.4
588.196	588.2
588.604	577.8
589.012	579.8
589.421	568.6
589.851	575
590.259	578.2
590.668	577.6
591.076	603.6
591.485	574.4
591.894	576.8
592.324	582.2
592.733	587.4
593.142	563
593.551	571.2
593.96	604.8
594.369	564.6
594.8	564.4
595.209	570
595.618	566.2
596.028	571.4
596.437	571.4
596.847	571.6
597.256	571.4
597.687	573.6
598.097	570.6
598.507	565.2
598.917	576.8
599.327	580.8
599.736	577.8
600.146	582.6
600.556	577.8
600.988	580.4
601.398	575.6
601.808	590.6
602.219	565
602.629	578.2
603.039	574.2
603.45	603.2
603.86	569.8
604.271	584.6
604.703	577.8
605.114	574.2
605.525	579
605.935	575.4
606.346	601.6
606.757	577.8
607.168	582
607.579	568.6
607.99	586.2
608.402	579
608.813	579.6
609.224	575.6
609.636	575.4
610.047	567
610.48	576.8
610.892	591
611.303	583
611.715	579
612.127	569.2
612.539	570.6
612.95	573.2
613.362	573.2
613.774	573
614.186	575.4
614.599	576.8
615.011	584
615.423	577.8
615.835	574.8
616.248	568
616.66	580
617.073	574.4
617.485	574.8
617.898	587.6
618.311	582.2
618.723	581
619.136	605.8
619.549	588
619.962	602.2
620.375	576.8
620.788	581.8
621.201	564.8
621.614	590
622.028	577.2
622.441	592.6
622.854	585.6
623.268	578.6
623.681	580.8
624.095	573.6
624.509	589
624.922	583.6
625.336	572
625.728	583.4
626.142	585.2
626.556	605.4
626.97	588.2
627.384	579.6
627.799	582.4
628.213	591
628.627	572.8
629.041	575.6
629.456	580
629.87	579.8
630.285	593
630.699	587.4
631.093	583
631.507	586.8
631.922	587.6
632.337	590.8
632.752	571.2
633.167	574.8
633.582	580.4
633.997	575.2
634.412	582.6
634.806	582.2
635.221	565.6
635.637	586.8
636.052	568
636.468	583.2
636.883	589.4
637.299	573
637.715	573.4
638.109	581.4
638.525	572.2
638.941	588
639.357	579.8
639.773	594.4
640.189	576.6
640.584	577.4
641	585.6
641.416	575.6
641.832	569.4
642.249	568
642.665	579.4
643.06	579.2
643.477	593.4
643.894	566
644.31	575.2
644.727	580.6
645.123	576
645.54	571.8
645.957	581.6
646.374	589.8
646.77	585
647.187	601.4
647.604	584.8
648.021	560
648.439	571.2
648.835	575.8
649.252	578.6
649.67	575.4
650.088	580.2
650.484	573.2
650.902	576.2
651.32	573.6
651.738	570
652.134	570.8
652.552	593.6
652.971	581.4
653.389	574
653.786	585.8
654.204	594
654.622	566.6
655.019	577.4
655.438	584.8
655.857	575.4
656.275	582
656.673	572.4
657.091	581.6
657.51	563.8
657.908	585
658.327	588.2
658.746	558.8
659.144	577.4
659.563	574
659.982	580
660.38	569.6
660.8	571.2
661.219	584.6
661.617	571.6
662.037	577.2
662.457	592.6
662.855	569
663.275	600.2
663.695	575.6
664.094	573.6
664.514	575.6
664.934	571
665.333	582.4
665.753	564
666.152	559.6
666.572	563.2
666.993	581.8
667.392	566.2
667.812	575.6
668.212	573
668.632	586.8
669.053	564
669.453	574.4
669.874	580.8
670.273	573.2
670.694	560.2
671.116	582
671.515	579.8
671.937	564.6
672.337	569.2
672.758	574
673.158	576.8
673.58	572.2
673.98	573.2
674.402	582.8
674.824	578.2
675.224	570.4
675.646	570.4
676.047	569.8
676.469	564.4
676.869	573.8
677.292	575
677.693	565
678.115	568.8
678.516	573.2
678.939	572.2
679.34	570.4
679.762	577.6
680.164	578.6
680.586	561
680.988	572.8
681.411	585.8
681.812	561
682.236	563.4
682.637	567
683.061	569.2
683.462	572
683.864	568.2
684.288	578.4
684.69	561.8
685.114	575.6
685.516	582.8
685.94	568.4
686.342	574.6
686.766	567.8
687.168	568.2
687.571	584.2
687.995	570
688.398	568
688.822	570
689.225	591.2
689.628	582.4
690.052	567.6
690.456	582
690.88	570.4
691.284	565.8
691.687	573.4
692.112	561.2
692.515	565
692.919	575
693.344	576
693.747	573.8
694.173	564.6
694.577	574.4
694.98	567.8
695.406	570
695.81	573.6
696.214	578.2
696.64	578.2
697.044	571
697.448	579.4
697.874	566.6
698.279	570.2
698.684	562.4
699.11	566.4
699.514	571.6
699.919	568
700.324	566.4
700.75	575
701.156	570
701.561	581.8
701.987	571
702.393	572.2
702.798	578.6
703.203	565.2
703.63	566
704.036	566.8
704.442	578
704.847	566
705.274	566
705.68	571.4
706.086	575
706.492	561.8
706.92	565.8
707.326	581.6
707.732	569.2
708.139	559.4
708.545	565.6
708.973	572.2
709.38	570
709.786	565.2
710.193	586
710.6	574.8
711.028	560.8
711.435	571.6
711.842	572.6
712.249	569.8
712.656	573
713.064	569.6
713.492	563
713.9	558.8
714.307	573.2
714.715	573
715.123	572.8
715.53	574.6
715.938	577.6
716.367	567.2
716.775	562.8
717.184	557.6
717.592	569.2
718	576.6
718.408	604.6
718.816	604.4
719.225	563.6
719.633	562.4
720.042	564.4
720.472	565.8
720.881	583.4
721.29	572.4
721.699	557.8
722.108	579.6
722.517	571.6
722.926	565.6
723.335	579.8
723.744	574
724.154	565.4
724.563	571
724.973	575.2
725.382	574.4
725.792	568
726.202	563.6
726.612	584
727.022	572.6
727.432	565.6
779.813	565.6
780.223	603
780.634	567.6
781.044	563.6
781.454	571.8
781.865	585.6
782.276	561.4
782.686	578.8
783.097	566.8
783.508	566.4
783.919	569.2
784.33	581
784.741	582.6
785.152	565.8
785.563	560.2
785.974	559.6
786.386	574
786.776	571.6
787.188	570.2
787.599	564.2
788.011	565.6
788.423	565.8
788.835	566
789.247	564.8
789.659	564
790.071	565.6
790.483	609.6
790.874	564.8
791.286	577.2
791.699	562.4
792.111	569
792.524	561.4
792.937	571.2
793.349	563.8
793.741	560
794.154	560.4
794.567	583.4
794.98	572
795.393	568.2
795.785	586.4
796.198	561.2
796.612	566.4
797.026	564.8
797.439	558.8
797.831	566.6
798.245	559.4
798.659	561
799.073	561.8
799.487	562.4
799.88	569.6
800.294	565.2
800.708	570.4
801.123	567.4
801.516	577.6
801.93	553.4
802.345	559.8
802.76	569.8
803.153	580.2
803.568	574.2
803.983	576.8
804.377	571.4
804.792	559
805.207	558.4
805.601	578.8
806.016	598.4
806.432	563.2
806.826	592
807.242	581
807.658	569.8
808.052	568.8
808.468	567
808.884	564
809.279	575
809.695	582.2
810.111	589.2
810.506	571.4
810.922	580.6
811.339	567.6
811.734	571.8
812.151	559.6
812.546	557
812.963	565.6
813.38	577.2
813.776	563.4
814.193	580
814.589	563.8
815.006	565
815.402	560.8
815.82	557.2
816.237	566.8
816.633	572.8
817.051	557.8
817.448	574.6
817.866	561.8
818.262	582.8
818.68	562.4
819.077	560.6
819.495	561.2
819.892	602.4
820.311	566
820.708	563.8
821.127	557.8
821.524	569.2
821.943	568
822.34	576.2
822.759	572.6
823.157	569.2
823.576	578.8
823.974	575.2
824.393	603.8
824.791	555.8
825.189	549
825.609	560.6
826.007	560.8
826.427	555.2
826.826	561.4
827.246	561.4
827.644	557.4
828.043	572
828.463	555.2
828.862	570.8
829.261	566.4
829.682	550.4
830.081	571.6
830.502	564.6
830.901	573
831.301	576.6
831.722	552.2
832.121	563.4
832.521	557.6
832.943	562.8
833.342	563
833.742	566
834.164	565.8
834.564	563.4
834.965	564.6
835.386	566.8
835.787	563.6
836.188	565.2
836.588	563.4
837.01	565.2
837.411	562.6
837.812	569.8
838.213	565
838.636	560.6
839.037	625.6
839.438	563
839.84	572.4
840.263	572.8
840.664	568.8
841.066	567.8
841.468	563.8
841.891	558.8
842.293	580.4
842.695	565.6
843.098	570.6
843.5	559.4
843.902	569.4
844.326	581.4
844.729	561.2
845.131	581.4
845.534	564.6
845.937	577.4
846.34	573.4
846.764	553.2
847.167	568.6
847.571	561.6
847.974	562
848.377	570.4
848.781	603.4
849.184	571.6
849.588	561.6
849.992	566.8
850.396	559.6
850.821	572
851.225	571.6
851.63	561.6
852.034	580.2
852.438	565.2
852.843	636.4
853.247	556.4
853.652	566.4
854.057	586.4
854.462	574.2
854.867	569.6
855.272	600.8
855.677	570.2
856.082	558.4
856.487	556.4
856.893	572
857.298	570
