#lambda/nm	C1
208.295	549
208.67	488.6
209.045	449.4
209.419	454.8
209.794	595.4
210.169	586
210.544	706.8
210.919	596.4
211.295	584.2
211.67	594
212.045	591.8
212.421	589.4
212.796	635.4
213.172	594
213.547	588.8
213.923	591
214.299	598.4
214.675	598
215.051	598.4
215.427	603.6
215.803	615
216.179	594.4
216.555	589
216.932	595.2
217.308	595.4
217.684	605.6
218.061	607
218.438	598.4
218.814	601.8
219.191	604.8
219.568	593
219.945	592
220.322	600.2
220.699	605.8
221.076	602.4
221.453	599.8
221.83	595.2
222.208	591.4
222.585	588.8
222.962	599.6
223.34	606.4
223.717	595.6
224.095	594.4
224.473	594.6
224.851	589.8
225.229	589.8
225.607	612
225.985	593.4
226.363	597.2
226.741	601.4
227.119	600.4
227.497	610.6
227.876	592.6
228.254	604.2
228.633	602.6
229.011	597.2
229.39	602.8
229.769	599.2
230.148	605.8
230.527	615.8
230.905	595.8
231.284	596.6
231.664	598.4
232.043	608
232.422	607.2
232.801	599.2
233.181	604.6
233.56	592.8
233.94	598.4
234.319	588.8
234.699	592.4
235.079	626.4
235.458	641.8
235.838	615.8
236.218	588.4
236.598	587
236.978	591
237.358	596.4
237.738	596.4
238.119	601.2
238.499	587.2
238.88	595.4
239.26	617.2
239.641	582.4
240.021	591.4
240.402	594.6
240.783	598
241.163	596.6
241.544	602.4
241.925	598.4
242.306	620.8
242.687	599.4
243.069	606
243.45	602.6
243.831	607.2
244.212	598.2
244.594	627.2
244.975	603.8
245.357	608.2
245.739	589.6
246.12	601.2
246.502	607.4
246.884	595.4
247.266	599
247.648	600.6
248.03	610.6
248.412	593
248.794	599.8
249.176	591.4
249.559	604
249.941	588.4
250.323	587.4
250.706	597.6
251.089	597.4
251.471	600.6
251.854	596.6
252.237	602.4
252.62	609
253.002	604.6
253.385	600.4
253.769	618.6
254.152	601
254.535	598
254.918	595.6
255.301	593.2
255.685	598.8
256.068	594
256.452	612.4
256.835	605.2
257.219	597.8
257.603	604
257.986	590.2
258.37	594
258.754	586
259.138	597.2
259.522	603
259.906	598.4
260.29	597.4
260.675	589.6
261.059	599
261.443	589.4
261.828	586.4
262.212	602.8
262.597	587.4
262.981	586.4
263.366	601.4
263.751	599.4
264.136	592.6
264.521	592.6
264.906	588.2
265.291	605.2
265.676	587
266.061	594.8
266.446	613
266.831	597.6
267.217	612.2
267.602	592.2
267.987	597.2
268.373	587.4
268.759	597.6
269.144	604.2
269.53	600.2
269.916	594.2
270.302	599
270.688	601
271.074	596.8
271.46	603.8
271.846	620.6
272.232	602.4
272.618	594.8
273.004	594
273.391	611.4
273.777	606.6
274.164	598.6
274.55	609
274.937	604.2
275.324	593.4
275.71	603.4
276.097	603.6
276.484	588.2
276.871	599
277.258	606.4
277.645	591.6
278.032	592
278.419	587.8
278.807	601.8
279.194	588
279.581	591
279.969	603
280.356	598.4
280.744	601.4
281.131	622.4
281.519	605
281.907	593.2
282.295	599.6
282.682	605
283.07	600.2
283.458	606.2
283.846	605
284.235	607.6
284.623	606.8
285.011	590.4
285.399	591.8
285.788	593.6
286.176	590.4
286.565	606
286.953	600
287.342	596.6
287.731	600.2
288.119	587.4
288.508	590.2
288.897	596.8
289.286	587.8
289.675	596.8
290.064	606.8
290.453	586.8
290.821	598.4
291.21	603.4
291.599	593.4
291.989	595
292.378	602
292.768	616
293.157	603.6
293.547	606
293.936	597.8
294.326	593.4
294.716	595.8
295.106	595.6
295.496	601.6
295.886	605.2
296.276	596
296.666	591
297.056	592.6
297.446	587.4
297.836	611.4
298.227	602.4
298.617	597.6
299.008	607.6
299.398	594.2
299.789	589.4
300.179	607.2
300.57	605.4
300.961	589.2
301.352	595.2
301.742	602.8
302.133	595.2
302.524	595.2
302.915	590
303.307	583.8
303.698	607.2
304.089	601
304.48	590.2
304.872	604
305.263	599.4
305.655	590.6
306.046	601.4
306.438	600.6
306.829	593
307.221	616.8
307.613	597.8
308.005	608.8
308.397	604.2
308.789	612.4
309.181	614
309.573	615
309.965	613.6
310.357	588.6
310.749	600.8
311.142	587.4
311.534	590.4
311.926	601
312.319	597.2
312.711	593.8
313.104	606
313.497	597.4
313.889	636.2
314.282	614.6
314.675	620.2
315.068	598.2
315.461	601
315.854	620.2
316.247	608
316.64	595
317.033	599.8
317.405	606.4
317.798	599
318.192	604
318.585	587
318.979	605.4
319.372	593.6
319.766	595.6
320.16	603.2
320.553	610.2
320.947	611.4
321.341	595.4
321.735	606.8
322.129	584.8
322.523	620.2
322.917	589.8
323.311	607.2
323.705	610.4
324.099	601.4
324.494	607.8
324.888	604.6
325.282	596
325.677	607
326.071	601.8
326.466	603
326.861	601
327.255	618
327.65	605.4
328.045	605.2
328.44	600.8
328.835	597.2
329.23	601.8
329.625	621.6
330.02	606.2
330.415	616
330.81	600
331.206	610.2
331.601	594.2
331.996	603.6
332.37	619.4
332.766	587.2
333.161	610.8
333.557	593.4
333.953	596.8
334.348	798.2
334.744	596.4
335.14	595
335.536	594
335.932	606.6
336.328	601
336.724	608
337.12	594.8
337.516	604.8
337.913	608.2
338.309	606.6
338.705	598.4
339.102	605.6
339.498	595.2
339.895	616.6
340.291	595.4
340.688	602.6
341.085	602
341.481	595.2
341.878	593.4
342.275	621
342.672	582.2
343.069	592.8
343.466	580
343.842	606.8
344.239	590.4
344.636	593.8
345.033	588
345.431	596.6
345.828	601.6
346.225	591.4
346.623	622.6
347.02	597.2
347.418	596.2
347.816	603
348.213	589.8
348.611	593.4
349.009	590
349.407	606.2
349.805	590.6
350.203	591.2
350.601	603
350.999	592.8
351.397	631.4
351.795	596.2
352.193	608.6
352.57	613.2
352.969	608.4
353.367	588.8
353.766	587.8
354.164	593.4
354.563	602
354.961	599.4
355.36	581.4
355.759	595.2
356.158	590.4
356.557	587.4
356.956	581.8
357.355	579.8
357.754	595.8
358.153	591.8
358.552	614.2
358.951	596.4
359.35	604.8
359.75	590.8
360.149	582
360.527	584.4
360.926	581.8
361.326	594.2
361.726	599.8
362.125	592.2
362.525	603
362.925	589.6
363.325	598
363.724	595
364.124	591
364.524	589.8
364.924	587.8
365.324	600.6
365.725	579.8
366.125	603.8
366.525	586.4
366.904	583.4
367.304	578.6
367.705	603.4
368.105	595.8
368.506	586.8
368.906	587
369.307	595
369.708	600
370.108	583.6
370.509	599.6
370.91	584.6
371.311	592
371.712	593.8
372.113	593
372.514	578.4
372.894	592.6
373.295	581.4
373.696	603.4
374.097	593.8
374.499	623.6
374.9	590.6
375.301	586.8
375.703	599.4
376.105	588.2
376.506	599.4
376.908	597.4
377.309	583.6
377.711	594
378.113	591
378.493	593.6
378.895	582.4
379.297	599.8
379.699	587
380.102	594.4
380.504	592.2
380.906	585.6
381.308	616.2
381.71	589
382.113	602
382.515	593.6
382.918	598.6
383.299	592.4
383.701	592.6
384.104	588
384.507	575.8
384.909	583.2
385.312	577.8
385.715	586.6
386.118	593.2
386.521	578.8
386.924	597.6
387.327	582
387.709	578
388.112	575.8
388.515	593.4
388.918	595.6
389.322	598.2
389.725	586.4
390.129	615.6
390.532	587.6
390.936	587.8
391.339	585.8
391.743	595.6
392.125	586.6
392.529	598.4
392.933	603.4
393.337	590.4
393.74	585
394.144	596
394.548	582.4
394.953	590.4
395.357	593.2
395.761	590.2
396.144	588.8
396.548	583.8
396.952	592.6
397.357	592.6
397.761	585.8
398.166	595.8
398.57	587.6
398.975	577.2
399.379	592
399.763	632.4
400.168	592.2
400.572	593.2
400.977	587.2
401.382	610.8
401.787	600.4
402.192	600.8
402.597	605.2
403.002	580.2
403.386	603.8
403.791	609
404.197	589.4
404.602	586.2
405.007	589
405.413	583.6
405.818	586.2
406.224	584
406.608	587.6
407.014	574.4
407.42	602
407.825	581.4
408.231	593.8
408.637	596.8
409.043	599.6
409.449	587.6
409.834	578.2
410.24	595.6
410.646	595.4
411.052	588.4
411.458	599.6
411.865	600.6
412.271	598
412.677	589.2
413.062	598.8
413.469	583.6
413.875	608.6
414.282	606.8
414.689	588.6
415.095	592.2
415.502	590.4
415.888	592.8
416.294	577
416.701	618
417.108	588.6
417.515	599.8
417.923	585.6
418.33	601
418.715	596.2
419.123	590
419.53	593
419.937	598.2
420.345	599.8
420.752	587.4
421.16	601.6
421.546	593.2
421.953	599.4
422.361	586.2
422.769	594.2
423.177	579.8
423.585	609.2
423.992	607.8
424.379	601.6
424.787	611.8
425.195	609.6
425.603	597
426.011	606
426.419	598.2
426.806	599.2
427.214	595.6
427.623	593.8
428.031	610.4
428.44	596
428.848	601.8
429.235	602.2
429.644	591.8
430.053	596
430.461	607.8
430.87	619
431.279	599.8
431.666	592
432.075	588
432.484	601.2
432.893	593.2
433.302	614.2
433.711	624.6
434.099	603.2
434.508	585.2
434.918	584.2
435.327	594.4
435.737	599.2
436.125	595.2
436.534	595.4
436.944	588.6
437.353	598.2
437.763	611.4
438.173	589.4
438.561	607
438.971	581.2
439.381	597.6
439.791	599
440.201	574
440.589	596.4
440.999	595.6
441.409	592.4
441.819	584.8
442.23	594.4
442.619	596.8
443.029	589.4
443.439	588.6
443.85	597.8
444.26	606.4
444.649	588.6
445.06	591.4
445.471	581.6
445.881	596.2
446.292	604.6
446.682	607.6
447.092	573.6
447.503	634.6
447.914	593.2
448.325	586
448.715	589
449.126	574.6
449.537	584
449.948	592.4
450.338	591.6
450.75	598
451.161	585.4
451.572	594.2
451.984	582
452.374	565.2
452.786	588.4
453.197	593.6
453.609	595.4
453.999	573.8
454.411	575.6
454.823	588
455.235	586.6
455.647	583.2
456.037	592.6
456.449	577.6
456.862	587
457.274	586.2
457.665	586
458.077	585.2
458.489	612.6
458.902	581.6
459.293	595
459.705	583
460.118	586.8
460.53	588.4
460.921	586.2
461.334	588.6
461.747	580.2
462.16	593.8
462.551	596.4
462.964	579.6
463.377	571.2
463.79	578
464.182	588
464.595	579.8
465.008	583.8
465.421	590.8
465.813	582.4
466.226	585.4
466.64	583.8
467.053	626.6
467.445	596.8
467.859	596.8
468.272	582.2
468.686	594
469.078	591.4
469.492	584
469.906	592.4
470.298	589.2
470.712	581.6
471.126	624.6
471.54	573.2
471.933	575.8
472.347	571.2
472.761	580.8
473.175	578.6
473.568	581.4
473.982	582.4
474.397	584.6
474.79	582.8
475.204	597.2
475.619	585.6
476.033	594.4
476.426	576.8
476.841	586.8
477.256	602.4
477.649	581.6
478.064	580.2
478.479	582.6
478.872	579.2
479.287	575.6
479.702	577.2
480.118	583.2
480.511	583
480.927	585.8
481.342	583.4
481.736	586.6
482.151	576
482.566	586.4
482.96	586.8
483.376	593.2
483.792	579.8
484.186	586.4
484.602	584.6
485.017	588.2
485.412	586.4
485.827	584.2
486.243	587
486.638	613
487.054	592.2
487.47	597.2
487.865	577.2
488.281	586
488.697	577.4
489.092	578.2
489.508	576.6
489.925	591.6
490.32	575.8
490.736	594.6
491.153	589.2
491.548	582.6
491.964	595.8
492.381	570
492.776	587.4
493.193	587.2
493.61	590.8
494.006	579.8
494.422	588
494.84	583.2
495.235	588.8
495.652	584
496.069	587
496.465	578.6
496.883	584
497.3	602.8
497.696	580.4
498.113	584.8
498.509	570.8
498.927	575
499.344	577.2
499.741	579.6
500.158	584.4
500.576	599.8
500.973	591
501.39	576.4
501.787	578.2
502.205	579
502.623	576
503.02	571.6
503.438	570
503.856	573.8
504.253	578.4
504.671	584.2
505.068	577
505.486	573.4
505.905	603.4
506.302	580.6
506.72	591
507.118	567
507.536	579.6
507.955	578.4
508.352	583
508.771	587.4
509.169	576
509.587	573.2
510.006	579.2
510.404	571.8
510.823	576.6
511.221	573.8
511.64	571.2
512.038	587
512.457	578.6
512.877	578.8
513.275	570.8
513.694	578
514.092	581
514.512	582.6
514.91	582.4
515.33	584.2
515.749	580
516.148	584.4
516.568	586.6
516.966	585.6
517.386	578
517.785	575.2
518.205	575.8
518.603	581.2
519.024	573.6
519.444	582.6
519.843	589.6
520.263	590
520.662	583.8
521.082	583.6
521.481	582
521.902	579.4
522.301	581.6
522.722	588.2
523.121	578.4
523.542	578.8
523.963	584.2
524.362	581.2
524.783	578.4
525.183	583.8
525.604	577
526.003	573.2
526.425	578.6
526.824	582.2
527.246	586.4
527.646	584.2
528.067	579.8
528.467	582
528.888	583.6
529.289	582.2
529.71	586.2
530.11	567.2
530.532	576.2
530.932	576.2
531.354	567.6
531.755	610.6
532.176	590
532.577	581.2
532.999	579.6
533.4	575.8
533.822	592.2
534.223	589.4
534.645	579
535.046	575.6
535.468	584.6
535.869	592.6
536.292	577.2
536.693	601.2
537.115	580.8
537.516	579.8
537.939	581
538.34	590.2
538.742	596.8
539.165	580.4
539.566	581.2
539.989	583.6
540.391	578.2
540.814	581.4
541.216	568.4
541.639	584.4
542.041	584.2
542.464	575.6
542.866	569
543.268	570.4
543.691	573.2
544.093	581
544.517	588.6
544.919	572.2
545.343	596
545.745	566.6
546.147	579.6
546.571	568
546.974	577
547.398	577.8
547.8	590.4
548.224	572
548.627	575
549.03	579.2
549.454	572.4
549.857	566.6
550.281	566.6
550.684	572.2
551.087	582.4
551.512	579.2
551.915	581
552.34	579.6
552.743	573.8
553.146	576.2
553.571	571.8
553.975	590.2
554.399	572.6
554.803	613.4
555.207	567.4
555.632	570.8
556.036	583.2
556.461	577.6
556.865	578.8
557.268	580.2
557.694	576.2
558.098	582.2
558.502	586.6
558.927	566.4
559.332	582
559.736	570.4
560.162	577.8
560.566	577.8
560.992	578.4
561.396	579.2
561.801	574.2
562.227	580.2
562.631	575.8
563.036	575.4
563.462	590
563.867	580
564.272	572.2
564.698	584.6
565.103	562.8
565.508	591.6
565.935	578
566.34	577.2
566.745	586.8
567.172	582
567.577	594.2
567.982	580
568.409	577.2
568.815	570
569.22	574
569.626	580.8
570.053	570
570.459	583.8
570.865	586
571.292	587.4
571.698	585.8
572.104	563.8
572.531	578.4
572.937	592
573.343	580.6
573.75	579
574.177	578.4
574.583	585.8
574.99	573.2
575.396	590
575.824	579.2
576.231	591.8
576.637	577.4
577.065	601
577.472	573
577.879	567
578.286	589.2
578.714	573.8
579.121	576.2
579.528	578.6
579.935	578.4
580.364	583
580.771	567.6
581.178	566.4
581.585	580
582.014	586
582.421	569
582.829	575.6
583.236	579
583.644	570.6
584.073	570
584.481	582.2
584.889	569.6
585.296	588.6
585.726	581
586.134	575.2
586.542	576.2
586.95	582.2
587.358	568.2
587.787	580.8
588.196	591
588.604	577.8
589.012	570.4
589.421	564.6
589.851	571
590.259	583.6
590.668	572.4
591.076	608.4
591.485	570.6
591.894	578.2
592.324	586
592.733	591.8
593.142	567.4
593.551	571.4
593.96	579.8
594.369	567
594.8	567.2
595.209	573.4
595.618	564.4
596.028	573.4
596.437	572.2
596.847	575.8
597.256	577.4
597.687	581.2
598.097	578.8
598.507	567.8
598.917	577.2
599.327	583
599.736	580.2
600.146	575.2
600.556	575.6
600.988	588
601.398	574.4
601.808	584.8
602.219	568.2
602.629	572
603.039	575.2
603.45	606
603.86	571.6
604.271	588.4
604.703	569.2
605.114	576.6
605.525	575.8
605.935	582.2
606.346	585
606.757	573.8
607.168	580.6
607.579	574.2
607.99	592.6
608.402	576
608.813	582
609.224	578.2
609.636	573.2
610.047	577.8
610.48	574.2
610.892	590.2
611.303	589.8
611.715	577.6
612.127	569.8
612.539	579
612.95	581.6
613.362	574.8
613.774	567.2
614.186	579
614.599	571.8
615.011	594.2
615.423	581.8
615.835	576.8
616.248	580.6
616.66	586
617.073	574.2
617.485	580.6
617.898	592.4
618.311	577.4
618.723	586
619.136	610.8
619.549	595
619.962	600.6
620.375	584.8
620.788	586.6
621.201	582.2
621.614	585.8
622.028	580.6
622.441	585.8
622.854	590.4
623.268	573.6
623.681	583.6
624.095	586.8
624.509	597.2
624.922	589.2
625.336	573.4
625.728	591
626.142	593.8
626.556	597.4
626.97	589.4
627.384	575.2
627.799	586.2
628.213	592.2
628.627	583.2
629.041	585.4
629.456	580
629.87	581
630.285	585.2
630.699	592
631.093	586
631.507	586.4
631.922	589.8
632.337	605.4
632.752	580
633.167	580
633.582	585.8
633.997	580.2
634.412	582.8
634.806	583.2
635.221	573
635.637	593
636.052	569.8
636.468	580
636.883	592
637.299	579.8
637.715	572
638.109	572.4
638.525	566.4
638.941	583
639.357	585.8
639.773	580.4
640.189	573.2
640.584	576.4
641	578.2
641.416	565.4
641.832	584.6
642.249	577.8
642.665	580.6
643.06	581
643.477	585.4
643.894	561.8
644.31	576.4
644.727	582
645.123	574.6
645.54	575
645.957	571.4
646.374	594.4
646.77	578.2
647.187	601.8
647.604	579
648.021	568.6
648.439	575.6
648.835	583.4
649.252	574.6
649.67	573.4
650.088	571.8
650.484	575.8
650.902	579.8
651.32	583.8
651.738	571
652.134	577.4
652.552	590.8
652.971	579.2
653.389	575.6
653.786	587.2
654.204	590.6
654.622	567.6
655.019	573.4
655.438	577.8
655.857	579.8
656.275	581.2
656.673	568.4
657.091	581.4
657.51	564.8
657.908	585.2
658.327	586.4
658.746	558
659.144	577.8
659.563	587.2
659.982	576.8
660.38	565.2
660.8	569.6
661.219	582
661.617	583.4
662.037	579.4
662.457	586.2
662.855	565.2
663.275	601.2
663.695	578.8
664.094	574
664.514	576
664.934	565.4
665.333	575.2
665.753	574.6
666.152	567.6
666.572	570.6
666.993	582.6
667.392	566.6
667.812	581.2
668.212	580.4
668.632	583.2
669.053	566.4
669.453	582.8
669.874	566
670.273	576.4
670.694	560.4
671.116	578.4
671.515	580.2
671.937	572.6
672.337	572
672.758	576.4
673.158	581.8
673.58	568.2
673.98	579.4
674.402	581.8
674.824	579.4
675.224	567.6
675.646	569.6
676.047	578
676.469	579
676.869	575.4
677.292	573.8
677.693	570.4
678.115	572.6
678.516	575.8
678.939	573
679.34	568
679.762	584.4
680.164	584
680.586	567.6
680.988	580.4
681.411	590
681.812	572.2
682.236	568.2
682.637	564.6
683.061	570.2
683.462	577.8
683.864	571.2
684.288	578.6
684.69	565.4
685.114	579.6
685.516	581.6
685.94	567
686.342	570.8
686.766	565.6
687.168	574
687.571	598
687.995	576.4
688.398	566.8
688.822	564.4
689.225	589.6
689.628	596.2
690.052	568.6
690.456	581.8
690.88	572.4
691.284	568.4
691.687	577.8
692.112	565.4
692.515	561.2
692.919	572.6
693.344	581.4
693.747	574.8
694.173	577.8
694.577	588
694.98	565.6
695.406	570.4
695.81	576.4
696.214	573.6
696.64	576.4
697.044	565.8
697.448	584.2
697.874	568.2
698.279	572.2
698.684	565.2
699.11	567.4
699.514	562.2
699.919	564.4
700.324	564.4
700.75	570.6
701.156	569.6
701.561	584.2
701.987	568.6
702.393	578.6
702.798	573.2
703.203	562.2
703.63	559.8
704.036	570.8
704.442	570.8
704.847	565.8
705.274	572.2
705.68	581.6
706.086	574.2
706.492	565
706.92	573.8
707.326	577.8
707.732	574.6
708.139	562.2
708.545	560.6
708.973	571.8
709.38	570.6
709.786	557.2
710.193	586
710.6	571.2
711.028	560.6
711.435	576.4
711.842	575.8
712.249	567.8
712.656	573.4
713.064	579
713.492	563.4
713.9	571.4
714.307	568.4
714.715	573.6
715.123	568.2
715.53	574.4
715.938	583.2
716.367	573.8
716.775	572
717.184	563.4
717.592	569.8
718	573.8
718.408	603.8
718.816	615.8
719.225	573.4
719.633	569
720.042	563.6
720.472	574.8
720.881	584.8
721.29	581.4
721.699	563.6
722.108	569.8
722.517	572.2
722.926	570.2
723.335	580.6
723.744	564.4
724.154	573.6
724.563	579.8
724.973	583
725.382	570
725.792	573.4
726.202	558.6
726.612	592.2
727.022	574.8
727.432	569.6
779.813	573.6
780.223	613.2
780.634	569
781.044	563
781.454	570.8
781.865	579.8
782.276	566.2
782.686	581.6
783.097	574
783.508	568
783.919	573.2
784.33	578.8
784.741	587.2
785.152	567.2
785.563	563.6
785.974	572.2
786.386	580.6
786.776	566.4
787.188	564.2
787.599	559.2
788.011	573.6
788.423	572
788.835	561.8
789.247	558.4
789.659	568.4
790.071	563
790.483	603.6
790.874	572
791.286	569.2
791.699	569.2
792.111	569.4
792.524	573
792.937	568.2
793.349	553.8
793.741	563.8
794.154	564.2
794.567	588.6
794.98	565.4
795.393	558
795.785	576.6
796.198	558.2
796.612	562.2
797.026	559
797.439	557.2
797.831	566.8
798.245	568.2
798.659	561.4
799.073	566.8
799.487	561
799.88	561.6
800.294	566.8
800.708	570.4
801.123	572.6
801.516	586.2
801.93	562.4
802.345	552.6
802.76	564
803.153	588.2
803.568	581.6
803.983	573.6
804.377	563.6
804.792	554.4
805.207	558.6
805.601	565.2
806.016	589.4
806.432	559.8
806.826	595
807.242	578.2
807.658	570.4
808.052	562.4
808.468	564
808.884	569.6
809.279	569.6
809.695	580.6
810.111	591.8
810.506	571.4
810.922	576.6
811.339	571.6
811.734	573.6
812.151	563
812.546	569.6
812.963	562.6
813.38	571.6
813.776	561.6
814.193	582.4
814.589	566.4
815.006	568.6
815.402	566.6
815.82	564.8
816.237	571
816.633	574.4
817.051	561.2
817.448	570.2
817.866	561
818.262	587
818.68	563.6
819.077	565.4
819.495	571.2
819.892	607.8
820.311	559.2
820.708	567.4
821.127	565.2
821.524	578.8
821.943	568.6
822.34	585.6
822.759	574
823.157	569.2
823.576	586
823.974	571.6
824.393	610.2
824.791	566.6
825.189	567.2
825.609	559.6
826.007	571.2
826.427	553
826.826	566.2
827.246	574
827.644	550.2
828.043	574.6
828.463	558.6
828.862	574
829.261	573.8
829.682	565.6
830.081	578.6
830.502	562.4
830.901	564.6
831.301	580.8
831.722	551.4
832.121	561.8
832.521	562
832.943	566.6
833.342	577.4
833.742	559
834.164	570.4
834.564	563.6
834.965	562.8
835.386	565.2
835.787	566
836.188	573.6
836.588	566.6
837.01	566.2
837.411	571.8
837.812	578
838.213	580.8
838.636	565.4
839.037	630.6
839.438	567.2
839.84	562.6
840.263	574.2
840.664	571.8
841.066	570.6
841.468	574.2
841.891	566.2
842.293	575
842.695	570.6
843.098	580.4
843.5	562.8
843.902	579
844.326	561.6
844.729	574.4
845.131	578.6
845.534	565.8
845.937	573.4
846.34	577
846.764	562.2
847.167	566.6
847.571	552
847.974	559.2
848.377	569
848.781	604.8
849.184	578
849.588	566.2
849.992	560.2
850.396	561.8
850.821	575.8
851.225	568.8
851.63	561.8
852.034	582.4
852.438	573.6
852.843	631
853.247	562.2
853.652	565
854.057	580
854.462	568
854.867	565
855.272	586.6
855.677	570.4
856.082	563.6
856.487	556.6
856.893	574.8
