#lambda/nm	C1
208.295	563.8
208.67	500.8
209.045	461.6
209.419	460
209.794	596.6
210.169	576.6
210.544	674
210.919	591.8
211.295	572.2
211.67	589.4
212.045	588
212.421	582.4
212.796	617
213.172	580
213.547	578.6
213.923	581.2
214.299	575.8
214.675	583.6
215.051	586.6
215.427	588.4
215.803	600.2
216.179	588.8
216.555	581.8
216.932	594.4
217.308	583.6
217.684	586.4
218.061	592
218.438	587
218.814	583
219.191	586.4
219.568	581.4
219.945	585.8
220.322	581.2
220.699	591.6
221.076	590.6
221.453	592.4
221.83	574.8
222.208	581.8
222.585	578.2
222.962	579.6
223.34	589.2
223.717	589.6
224.095	587.6
224.473	582.8
224.851	581
225.229	579
225.607	599.8
225.985	577.8
226.363	592.6
226.741	576.8
227.119	583.4
227.497	586.6
227.876	574
228.254	591
228.633	579.8
229.011	586.6
229.39	587.8
229.769	582.6
230.148	594.4
230.527	608.6
230.905	581.8
231.284	595.4
231.664	575
232.043	587.6
232.422	586.2
232.801	573.4
233.181	591.4
233.56	579.8
233.94	585.8
234.319	567.2
234.699	578.4
235.079	612.6
235.458	605.2
235.838	597.2
236.218	573
236.598	574.4
236.978	577.8
237.358	581.4
237.738	580.8
238.119	587.8
238.499	579.8
238.88	587
239.26	594
239.641	584.6
240.021	577.6
240.402	586.8
240.783	583.8
241.163	583.6
241.544	582.4
241.925	591.8
242.306	592.2
242.687	584
243.069	594.4
243.45	588.6
243.831	581.4
244.212	591
244.594	613.2
244.975	589.6
245.357	586.4
245.739	587
246.12	581.6
246.502	591.4
246.884	587.4
247.266	583.2
247.648	594
248.03	594
248.412	591.2
248.794	585.6
249.176	574.4
249.559	586.4
249.941	569.2
250.323	578.4
250.706	578.2
251.089	586.2
251.471	586.8
251.854	579
252.237	580.8
252.62	588
253.002	577.6
253.385	587.2
253.769	596.8
254.152	577.6
254.535	584.6
254.918	576
255.301	588.4
255.685	585
256.068	573.8
256.452	597.2
256.835	597.2
257.219	581
257.603	591.8
257.986	580.8
258.37	585.8
258.754	581.8
259.138	586.6
259.522	586
259.906	583.6
260.29	589
260.675	581
261.059	586
261.443	579.2
261.828	588.2
262.212	582.8
262.597	576
262.981	578.8
263.366	594.8
263.751	583
264.136	581.4
264.521	582.6
264.906	575.2
265.291	590
265.676	570.2
266.061	589.4
266.446	600.6
266.831	582.2
267.217	594.4
267.602	583.6
267.987	587.8
268.373	583.4
268.759	592.6
269.144	588.4
269.53	578.6
269.916	587.8
270.302	579
270.688	584.2
271.074	585.2
271.46	590.8
271.846	610.2
272.232	595.6
272.618	570.8
273.004	580.4
273.391	590.2
273.777	598
274.164	580.6
274.55	598.2
274.937	589.8
275.324	577.2
275.71	598.6
276.097	593
276.484	574.6
276.871	582.8
277.258	590.6
277.645	572.6
278.032	578.8
278.419	584.2
278.807	588.6
279.194	574.6
279.581	577.2
279.969	585
280.356	575.8
280.744	576.2
281.131	605.2
281.519	585.8
281.907	576.4
282.295	584.2
282.682	593
283.07	585.2
283.458	581.4
283.846	595.6
284.235	588.6
284.623	592
285.011	578.8
285.399	585.8
285.788	579
286.176	574.2
286.565	595.8
286.953	583.2
287.342	579.6
287.731	582.2
288.119	578
288.508	586.2
288.897	584.4
289.286	578.2
289.675	583.2
290.064	592.2
290.453	585
290.821	587
291.21	596.8
291.599	582.2
291.989	588.4
292.378	589.2
292.768	598.4
293.157	584.2
293.547	595.2
293.936	584.6
294.326	576.4
294.716	588.6
295.106	582.8
295.496	596.2
295.886	586.4
296.276	592.6
296.666	578.8
297.056	581.2
297.446	571.4
297.836	597.8
298.227	589.4
298.617	581.2
299.008	593.6
299.398	578.2
299.789	576.2
300.179	576.8
300.57	596.4
300.961	580.4
301.352	588.2
301.742	585.6
302.133	577.6
302.524	580.8
302.915	583.2
303.307	572
303.698	591.4
304.089	585.4
304.48	584.4
304.872	587.8
305.263	581
305.655	575
306.046	592
306.438	585.2
306.829	572.8
307.221	596
307.613	590
308.005	592.2
308.397	589.8
308.789	598.4
309.181	607
309.573	594.6
309.965	589
310.357	583.4
310.749	590
311.142	575.6
311.534	572.8
311.926	590.8
312.319	586
312.711	573.6
313.104	597
313.497	571.6
313.889	611
314.282	593.6
314.675	597.8
315.068	589
315.461	590.6
315.854	611.6
316.247	598.8
316.64	585
317.033	587.2
317.405	588.2
317.798	588.2
318.192	585.8
318.585	583.4
318.979	592.4
319.372	582.6
319.766	581.4
320.16	595.6
320.553	591.8
320.947	600
321.341	590.8
321.735	582.8
322.129	569.8
322.523	612.6
322.917	579
323.311	589.2
323.705	586
324.099	587.8
324.494	600
324.888	592.6
325.282	584.2
325.677	596.6
326.071	587.2
326.466	596.2
326.861	589.4
327.255	587.2
327.65	594
328.045	598.2
328.44	585
328.835	589.2
329.23	584.6
329.625	606
330.02	581
330.415	606.4
330.81	590.6
331.206	586.4
331.601	574
331.996	588.2
332.37	599.2
332.766	580
333.161	605.6
333.557	576.8
333.953	586.2
334.348	878
334.744	580
335.14	585.2
335.536	580.2
335.932	597.2
336.328	585.8
336.724	585.2
337.12	578.6
337.516	587.8
337.913	582.8
338.309	594.2
338.705	584
339.102	591
339.498	582.8
339.895	595.2
340.291	580.4
340.688	592.4
341.085	584.4
341.481	577.8
341.878	590.4
342.275	596.8
342.672	574
343.069	592.4
343.466	574
343.842	592.4
344.239	582.8
344.636	583.6
345.033	577
345.431	577.8
345.828	585.4
346.225	575.2
346.623	605
347.02	581
347.418	590.2
347.816	590.4
348.213	576
348.611	587.6
349.009	576.4
349.407	589
349.805	573
350.203	569.2
350.601	586.6
350.999	581.4
351.397	626.4
351.795	583
352.193	580.8
352.57	585.4
352.969	590.2
353.367	578.6
353.766	568.8
354.164	573
354.563	582.4
354.961	580.6
355.36	576
355.759	579
356.158	574.4
356.557	581
356.956	577.2
357.355	566
357.754	594.2
358.153	581.2
358.552	601.6
358.951	581.2
359.35	587.4
359.75	582.8
360.149	571.4
360.527	579.2
360.926	570.6
361.326	581.4
361.726	580.6
362.125	570.4
362.525	601.2
362.925	576.2
363.325	579.8
363.724	578.6
364.124	574
364.524	565.4
364.924	579.4
365.324	592.6
365.725	568.4
366.125	584
366.525	581.2
366.904	573
367.304	569.8
367.705	590.2
368.105	590.2
368.506	579.8
368.906	583.8
369.307	574
369.708	582.8
370.108	571.2
370.509	577.4
370.91	574.6
371.311	576.8
371.712	579.6
372.113	580.4
372.514	573
372.894	586.4
373.295	574.6
373.696	584.4
374.097	590.2
374.499	600.8
374.9	581.8
375.301	566.8
375.703	588.2
376.105	571.8
376.506	578.6
376.908	582.8
377.309	577
377.711	582
378.113	569.2
378.493	580
378.895	573
379.297	579.2
379.699	567
380.102	580.6
380.504	573
380.906	574.4
381.308	595.4
381.71	577.6
382.113	589.2
382.515	571.2
382.918	573.6
383.299	582.4
383.701	575.2
384.104	582.6
384.507	565.4
384.909	576
385.312	570
385.715	575.2
386.118	576.8
386.521	564.6
386.924	588.6
387.327	577.4
387.709	569.2
388.112	562.2
388.515	573.8
388.918	573.6
389.322	586.8
389.725	569.8
390.129	593.8
390.532	581.8
390.936	576.8
391.339	567.2
391.743	580.4
392.125	575.6
392.529	585.4
392.933	584
393.337	573.8
393.74	572.6
394.144	582
394.548	575.4
394.953	569.6
395.357	582
395.761	573.2
396.144	571.6
396.548	572.6
396.952	572.6
397.357	573.8
397.761	572.4
398.166	574.2
398.57	576.8
398.975	564.2
399.379	571.6
399.763	616.2
400.168	572.4
400.572	572.2
400.977	579.4
401.382	587.6
401.787	578.6
402.192	585.2
402.597	590.4
403.002	566.4
403.386	584.6
403.791	580.6
404.197	568.6
404.602	574.6
405.007	573.4
405.413	570.6
405.818	579.6
406.224	570.6
406.608	571.8
407.014	570
407.42	592.4
407.825	568.2
408.231	584.2
408.637	579.6
409.043	585.8
409.449	573
409.834	571.8
410.24	574.6
410.646	584.8
411.052	580
411.458	583.2
411.865	579.8
412.271	581.8
412.677	574.4
413.062	577.6
413.469	569.6
413.875	600.2
414.282	587.8
414.689	584.2
415.095	580.4
415.502	570.8
415.888	568
416.294	567.6
416.701	615.4
417.108	566.8
417.515	585.6
417.923	574.6
418.33	594.2
418.715	583.2
419.123	571.6
419.53	576.8
419.937	569.8
420.345	589.6
420.752	579.8
421.16	580.2
421.546	576.4
421.953	581.6
422.361	570.8
422.769	579.8
423.177	573.2
423.585	605
423.992	599.8
424.379	586.8
424.787	585.6
425.195	590.6
425.603	578.2
426.011	592.8
426.419	594.8
426.806	576.6
427.214	571.8
427.623	588.6
428.031	585.4
428.44	580.8
428.848	585.4
429.235	587
429.644	581.2
430.053	586
430.461	585.6
430.87	603.8
431.279	580.2
431.666	575.6
432.075	576.2
432.484	585.4
432.893	576.2
433.302	589.6
433.711	607.6
434.099	579.2
434.508	580
434.918	571.6
435.327	588.2
435.737	579.2
436.125	582.8
436.534	581.8
436.944	581.8
437.353	590.2
437.763	592.6
438.173	570.6
438.561	584
438.971	567
439.381	576.6
439.791	574.8
440.201	562.2
440.589	574.8
440.999	578.4
441.409	573
441.819	572
442.23	577.6
442.619	582
443.029	580
443.439	577.6
443.85	583.4
444.26	585.6
444.649	584.4
445.06	575.2
445.471	565
445.881	584.2
446.292	590.8
446.682	594.6
447.092	569.6
447.503	614.2
447.914	577.6
448.325	579.8
448.715	578
449.126	568.6
449.537	580
449.948	570.4
450.338	575
450.75	582.6
451.161	574.4
451.572	581
451.984	565.4
452.374	566.8
452.786	569
453.197	581.8
453.609	582.8
453.999	574
454.411	566
454.823	583.4
455.235	583
455.647	571.8
456.037	587
456.449	562.2
456.862	575.2
457.274	568.4
457.665	571.2
458.077	576.6
458.489	594.8
458.902	574.4
459.293	575
459.705	577.8
460.118	571.8
460.53	582.8
460.921	575.4
461.334	579.8
461.747	572.4
462.16	580.8
462.551	590.4
462.964	582.6
463.377	567
463.79	573.2
464.182	587.6
464.595	578.2
465.008	581.4
465.421	577.6
465.813	574
466.226	567.2
466.64	569.8
467.053	611.6
467.445	578.8
467.859	586.2
468.272	573.8
468.686	584.2
469.078	572.4
469.492	566
469.906	574.2
470.298	584.6
470.712	566.8
471.126	610.4
471.54	569.4
471.933	566.6
472.347	564.2
472.761	570
473.175	564
473.568	575.6
473.982	567
474.397	575.4
474.79	571.8
475.204	569
475.619	570
476.033	573.2
476.426	570.4
476.841	567.6
477.256	590.4
477.649	562.6
478.064	567.8
478.479	557.4
478.872	565.4
479.287	557.6
479.702	558.2
480.118	565.8
480.511	563.2
480.927	564.2
481.342	569.6
481.736	567.4
482.151	576.2
482.566	575
482.96	568
483.376	578.4
483.792	560.4
484.186	576.4
484.602	562.6
485.017	570.6
485.412	568.4
485.827	574
486.243	567.4
486.638	591.6
487.054	581.8
487.47	582
487.865	569
488.281	566.2
488.697	566.2
489.092	566
489.508	562.8
489.925	578.6
490.32	562.8
490.736	573
491.153	580.4
491.548	576.4
491.964	583
492.381	553.8
492.776	570.8
493.193	572.8
493.61	579.2
494.006	570.8
494.422	569.4
494.84	564.2
495.235	574.4
495.652	567
496.069	571
496.465	569
496.883	568.8
497.3	585.4
497.696	561.2
498.113	580.2
498.509	551.4
498.927	565.2
499.344	557.2
499.741	566
500.158	572.8
500.576	572.6
500.973	573.6
501.39	559.8
501.787	563.6
502.205	568.2
502.623	561.2
503.02	554.8
503.438	563.4
503.856	563
504.253	570.2
504.671	572.6
505.068	564
505.486	566.6
505.905	576.4
506.302	566.2
506.72	578.4
507.118	558.4
507.536	570.8
507.955	563
508.352	568.6
508.771	567
509.169	575.2
509.587	560.4
510.006	566.6
510.404	558.4
510.823	560.8
511.221	562.2
511.64	563.6
512.038	570
512.457	564.2
512.877	563.2
513.275	568.8
513.694	560.2
514.092	569
514.512	579.4
514.91	573
515.33	563.8
515.749	572.6
516.148	577
516.568	571.6
516.966	563.6
517.386	567
517.785	564.4
518.205	560.4
518.603	559.6
519.024	560.2
519.444	570.8
519.843	574.4
520.263	569.2
520.662	573.4
521.082	567.8
521.481	565.8
521.902	571.6
522.301	565.4
522.722	562.6
523.121	569.8
523.542	561.2
523.963	572
524.362	568.8
524.783	574
525.183	568.8
525.604	568.6
526.003	560.2
526.425	561.2
526.824	572.8
527.246	572.6
527.646	570.6
528.067	569.8
528.467	565.2
528.888	579.6
529.289	562.2
529.71	568.2
530.11	558.4
530.532	561.8
530.932	565.4
531.354	557
531.755	593.2
532.176	566.6
532.577	569.2
532.999	566.4
533.4	567
533.822	572.8
534.223	567.8
534.645	564.8
535.046	569
535.468	573
535.869	576
536.292	564
536.693	588.4
537.115	562
537.516	562.2
537.939	561.6
538.34	583
538.742	573.4
539.165	568.8
539.566	563.6
539.989	561.8
540.391	565.2
540.814	563.2
541.216	569
541.639	565.2
542.041	571.6
542.464	563.8
542.866	564.2
543.268	559.2
543.691	562.2
544.093	568.6
544.517	585.6
544.919	569.2
545.343	584.8
545.745	555.4
546.147	570.6
546.571	568
546.974	556
547.398	563.2
547.8	586.4
548.224	565.4
548.627	561.2
549.03	575.8
549.454	566.2
549.857	563.8
550.281	569
550.684	565.2
551.087	571.4
551.512	573.6
551.915	568.8
552.34	565.2
552.743	556.4
553.146	575.2
553.571	561.8
553.975	576
554.399	562.8
554.803	606.4
555.207	569.4
555.632	560.6
556.036	569.2
556.461	555
556.865	563.2
557.268	564.4
557.694	564.8
558.098	572.2
558.502	566.4
558.927	559
559.332	566.8
559.736	570
560.162	566.4
560.566	557.4
560.992	582
561.396	568.6
561.801	566
562.227	573
562.631	559.8
563.036	569.8
563.462	572.2
563.867	564
564.272	556.2
564.698	569
565.103	558.6
565.508	581.8
565.935	567.6
566.34	562.8
566.745	574.6
567.172	569
567.577	587.8
567.982	575.4
568.409	572.2
568.815	557.4
569.22	564.6
569.626	571.2
570.053	560.4
570.459	569.2
570.865	568.8
571.292	570
571.698	569.8
572.104	556.4
572.531	560.4
572.937	579.6
573.343	554.4
573.75	559.4
574.177	571
574.583	571.6
574.99	559.8
575.396	570.4
575.824	562
576.231	570.6
576.637	564.2
577.065	586.6
577.472	562.6
577.879	556.8
578.286	576.6
578.714	557.8
579.121	564
579.528	571.4
579.935	572.2
580.364	559.2
580.771	547.2
581.178	559.6
581.585	567.2
582.014	568.2
582.421	555
582.829	562.8
583.236	570.8
583.644	556.8
584.073	566.2
584.481	568.2
584.889	560.6
585.296	573.6
585.726	563
586.134	558.8
586.542	560.2
586.95	586.4
587.358	558
587.787	563.8
588.196	573.8
588.604	561.4
589.012	561.6
589.421	560.4
589.851	561.2
590.259	569
590.668	548.2
591.076	592.6
591.485	553
591.894	566
592.324	572
592.733	578.6
593.142	555.6
593.551	561.2
593.96	561.6
594.369	552.2
594.8	555.4
595.209	562.6
595.618	552.8
596.028	562.2
596.437	561.4
596.847	555.6
597.256	560.2
597.687	565.6
598.097	563.8
598.507	556.4
598.917	563
599.327	567.2
599.736	564.8
600.146	572.6
600.556	566
600.988	562.4
601.398	562
601.808	575
602.219	545.2
602.629	563.2
603.039	560.6
603.45	576.4
603.86	569.8
604.271	572.6
604.703	557.4
605.114	562.4
605.525	558.4
605.935	565.4
606.346	578.8
606.757	575.2
607.168	556.8
607.579	554.4
607.99	569
608.402	565
608.813	568.6
609.224	561.6
609.636	548.4
610.047	559.2
610.48	563.2
610.892	559.6
611.303	571.8
611.715	565.6
612.127	558.8
612.539	553
612.95	561.4
613.362	558.8
613.774	553.6
614.186	563
614.599	558.8
615.011	572.8
615.423	563.4
615.835	562.4
616.248	554.8
616.66	570.8
617.073	555.4
617.485	562
617.898	568.4
618.311	562
618.723	563.2
619.136	585.4
619.549	571.4
619.962	581.4
620.375	564.8
620.788	563.8
621.201	554.8
621.614	567.4
622.028	556.8
622.441	566.4
622.854	568.8
623.268	553.8
623.681	561
624.095	574.2
624.509	575.6
624.922	563
625.336	551.6
625.728	562.2
626.142	564
626.556	572.6
626.97	562.2
627.384	555
627.799	565.4
628.213	577.6
628.627	559.2
629.041	567.8
629.456	559.4
629.87	565.4
630.285	573
630.699	570.8
631.093	561.2
631.507	569.8
631.922	562
632.337	569
632.752	551.6
633.167	561.2
633.582	558.8
633.997	559.2
634.412	563.6
634.806	562
635.221	557.8
635.637	565.4
636.052	557.8
636.468	565.6
636.883	573
637.299	560
637.715	550.4
638.109	558.6
638.525	553.8
638.941	570.2
639.357	566.6
639.773	570.8
640.189	557
640.584	556.4
641	561.8
641.416	561.2
641.832	562.2
642.249	555.2
642.665	566.4
643.06	563.8
643.477	570.2
643.894	547.8
644.31	559.4
644.727	561
645.123	552
645.54	550.4
645.957	564.6
646.374	572.2
646.77	556.4
647.187	586
647.604	560
648.021	551.8
648.439	558.2
648.835	568.8
649.252	562.8
649.67	566.2
650.088	564.2
650.484	572.6
650.902	571.2
651.32	569.8
651.738	561
652.134	570.6
652.552	573.4
652.971	569
653.389	564.8
653.786	566.2
654.204	587.2
654.622	556.6
655.019	556
655.438	564.8
655.857	569.8
656.275	569.2
656.673	558.8
657.091	564.6
657.51	559.8
657.908	562.4
658.327	574.8
658.746	551.8
659.144	556.6
659.563	572.6
659.982	559.6
660.38	553
660.8	565.2
661.219	568.6
661.617	567.6
662.037	564.2
662.457	568
662.855	549
663.275	583.8
663.695	565
664.094	559.6
664.514	566
664.934	554.8
665.333	567.2
665.753	559.2
666.152	558.8
666.572	547.8
666.993	570
667.392	556.2
667.812	559.4
668.212	556.8
668.632	568.2
669.053	555.4
669.453	565.6
669.874	557.8
670.273	563.8
670.694	551.2
671.116	567.6
671.515	562.4
671.937	555.6
672.337	557.8
672.758	556.4
673.158	560.2
673.58	552.4
673.98	556.4
674.402	568
674.824	560.8
675.224	560.8
675.646	549.2
676.047	551.8
676.469	563.2
676.869	567.2
677.292	562.6
677.693	554.2
678.115	557
678.516	563
678.939	571.2
679.34	559.4
679.762	570.6
680.164	562.6
680.586	551.4
680.988	558.4
681.411	580.2
681.812	555.6
682.236	545
682.637	554.4
683.061	543.6
683.462	561.8
683.864	557.6
684.288	562
684.69	551.2
685.114	572.2
685.516	563.4
685.94	557.2
686.342	561.2
686.766	554.4
687.168	555.2
687.571	574.6
687.995	557.2
688.398	545.8
688.822	551.8
689.225	567.8
689.628	566
690.052	561
690.456	559
690.88	556.2
691.284	550.4
691.687	563.6
692.112	554.8
692.515	557.8
692.919	561.6
693.344	557.8
693.747	557.8
694.173	559
694.577	568.2
694.98	559
695.406	554.4
695.81	556.2
696.214	557.4
696.64	558.6
697.044	551.6
697.448	559.4
697.874	559.4
698.279	553.4
698.684	551.4
699.11	560.2
699.514	559.8
699.919	560.2
700.324	544.8
700.75	559.6
701.156	559
701.561	567.4
701.987	561.4
702.393	562.2
702.798	565
703.203	560.4
703.63	555.8
704.036	557.6
704.442	560.4
704.847	548.2
705.274	564.2
705.68	563.6
706.086	564.4
706.492	552.6
706.92	561.6
707.326	561.2
707.732	556.4
708.139	545.8
708.545	554.4
708.973	549.2
709.38	554
709.786	550.6
710.193	563
710.6	563
711.028	548.4
711.435	554.2
711.842	558
712.249	562.2
712.656	557.8
713.064	572.6
713.492	551.8
713.9	553.4
714.307	560.4
714.715	562
715.123	557.2
715.53	556
715.938	564.2
716.367	557.4
716.775	558.4
717.184	549.6
717.592	557.2
718	563.6
718.408	580.8
718.816	591.2
719.225	550.6
719.633	553.8
720.042	546.8
720.472	554.4
720.881	573.6
721.29	557.2
721.699	553
722.108	553.6
722.517	555
722.926	559.6
723.335	567.8
723.744	558.8
724.154	561.4
724.563	561.8
724.973	557.4
725.382	558.4
725.792	558.4
726.202	551.8
726.612	577.6
727.022	554.8
727.432	560.4
779.813	558.8
780.223	593
780.634	557.4
781.044	559.4
781.454	555
781.865	572.6
782.276	553.6
782.686	563.4
783.097	551
783.508	556.4
783.919	559
784.33	562
784.741	567
785.152	552.4
785.563	546.6
785.974	556.2
786.386	563
786.776	557.8
787.188	556.8
787.599	555.8
788.011	560
788.423	559.2
788.835	549.6
789.247	553.8
789.659	555.2
790.071	554.2
790.483	584.4
790.874	552.4
791.286	559.4
791.699	560.6
792.111	555
792.524	559.6
792.937	558.4
793.349	543
793.741	551.4
794.154	556.2
794.567	570.6
794.98	564
795.393	549.4
795.785	566.8
796.198	546
796.612	559
797.026	555
797.439	551
797.831	551.4
798.245	544.8
798.659	553.4
799.073	553.6
799.487	550.6
799.88	553.6
800.294	557.6
800.708	561.4
801.123	558.4
801.516	568.6
801.93	545.6
802.345	552.8
802.76	554.2
803.153	571.6
803.568	566.8
803.983	559
804.377	564.2
804.792	547
805.207	549.2
805.601	552.8
806.016	581.2
806.432	555.2
806.826	581.4
807.242	570.8
807.658	557.6
808.052	555
808.468	551.4
808.884	549.8
809.279	562.6
809.695	570.2
810.111	577.6
810.506	561.4
810.922	575.2
811.339	557
811.734	560
812.151	548.8
812.546	550
812.963	548.6
813.38	554.6
813.776	555
814.193	575.6
814.589	548.8
815.006	552
815.402	549.8
815.82	560.4
816.237	554.4
816.633	558.2
817.051	549.2
817.448	558.2
817.866	542.8
818.262	571
818.68	545.6
819.077	549.4
819.495	554.2
819.892	586
820.311	549.8
820.708	553.6
821.127	557.2
821.524	559.2
821.943	552.2
822.34	563
822.759	552.8
823.157	553.4
823.576	561
823.974	560.2
824.393	587.6
824.791	552.8
825.189	547.6
825.609	549.4
826.007	552
826.427	551
826.826	547.6
827.246	551.2
827.644	536
828.043	565
828.463	552
828.862	566.4
829.261	550.4
829.682	544.8
830.081	555.6
830.502	543
830.901	558
831.301	567
831.722	548.8
832.121	554.4
832.521	551.2
832.943	561.2
833.342	555.4
833.742	544.6
834.164	552.2
834.564	544.8
834.965	555.2
835.386	549
835.787	561.8
836.188	554
836.588	551.2
837.01	551.4
837.411	551.4
837.812	560
838.213	552.6
838.636	551.4
839.037	611
839.438	551
839.84	553
840.263	551.4
840.664	560.2
841.066	554
841.468	550.6
841.891	552.8
842.293	558.6
842.695	556.8
843.098	561.8
843.5	548.6
843.902	560.8
844.326	555.4
844.729	546.8
845.131	561.4
845.534	549.8
845.937	559.8
846.34	565.4
846.764	547.2
847.167	553.2
847.571	548.2
847.974	547.6
848.377	551.8
848.781	584
849.184	564
849.588	548.4
849.992	548.2
850.396	549.6
850.821	574
851.225	562.2
851.63	546.8
852.034	561.4
852.438	551.4
852.843	579.8
853.247	549.4
853.652	548.4
854.057	571.2
854.462	560
854.867	560.2
855.272	576.8
855.677	560.8
856.082	544.8
856.487	547.2
