#lambda/nm	C1
208.295	533.2
208.67	477.8
209.045	446.4
209.419	446
209.794	609.4
210.169	593
210.544	704.4
210.919	617.4
211.295	602.2
211.67	604.8
212.045	604.4
212.421	607.4
212.796	637.2
213.172	611.6
213.547	598.8
213.923	609
214.299	602.2
214.675	606.6
215.051	617.6
215.427	612.2
215.803	619.4
216.179	608.8
216.555	603.8
216.932	619.8
217.308	615.2
217.684	611
218.061	615
218.438	613.8
218.814	600.4
219.191	607.6
219.568	604.4
219.945	604.8
220.322	613.6
220.699	615.8
221.076	611.2
221.453	622.8
221.83	603.8
222.208	598.6
222.585	600.2
222.962	621
223.34	601
223.717	613
224.095	606.4
224.473	604.4
224.851	603.4
225.229	597
225.607	621.4
225.985	597
226.363	606.2
226.741	616.4
227.119	609.4
227.497	617.4
227.876	605.8
228.254	618
228.633	612.6
229.011	606.4
229.39	609.4
229.769	600.2
230.148	610.6
230.527	628.2
230.905	607.8
231.284	609
231.664	592.6
232.043	626.4
232.422	619.4
232.801	601.4
233.181	616.2
233.56	596
233.94	612.2
234.319	589.2
234.699	604.8
235.079	656.4
235.458	644.4
235.838	628
236.218	593.8
236.598	597.8
236.978	602.4
237.358	604.4
237.738	605
238.119	620.6
238.499	595.4
238.88	611.4
239.26	620.4
239.641	597.8
240.021	599.6
240.402	606.4
240.783	604.2
241.163	601.6
241.544	609.4
241.925	600.2
242.306	615.6
242.687	605
243.069	613.4
243.45	612
243.831	591.2
244.212	594.4
244.594	637.4
244.975	613.6
245.357	606.2
245.739	599.6
246.12	607.6
246.502	624
246.884	607
247.266	599.6
247.648	603.6
248.03	625.8
248.412	613
248.794	607.2
249.176	602
249.559	611.8
249.941	600.2
250.323	598.6
250.706	598.8
251.089	610
251.471	604.8
251.854	607.2
252.237	608.4
252.62	608
253.002	603.2
253.385	604.4
253.769	616
254.152	604
254.535	616.6
254.918	591.6
255.301	603.2
255.685	601.8
256.068	603.6
256.452	625.4
256.835	610.4
257.219	613.6
257.603	615.8
257.986	597
258.37	608.2
258.754	600
259.138	614.8
259.522	622.2
259.906	606.8
260.29	603.6
260.675	609
261.059	608
261.443	604.4
261.828	612.4
262.212	600.8
262.597	599.8
262.981	601.4
263.366	618.6
263.751	611
264.136	602.2
264.521	602.2
264.906	595.8
265.291	615
265.676	604.6
266.061	612.2
266.446	620.6
266.831	608
267.217	624
267.602	605.2
267.987	605.2
268.373	600
268.759	616.6
269.144	604.6
269.53	608.6
269.916	599.6
270.302	600.8
270.688	606.8
271.074	600.6
271.46	614.8
271.846	630.2
272.232	601
272.618	601.6
273.004	606.8
273.391	615
273.777	619.2
274.164	606.6
274.55	618.4
274.937	607
275.324	594.4
275.71	613.6
276.097	610.4
276.484	602
276.871	612.2
277.258	614
277.645	593.2
278.032	602.2
278.419	600.4
278.807	610.6
279.194	601
279.581	604.6
279.969	619
280.356	618
280.744	616
281.131	632.8
281.519	617.6
281.907	601.4
282.295	610
282.682	622
283.07	610.2
283.458	613.6
283.846	621
284.235	615.6
284.623	619.2
285.011	612.8
285.399	618
285.788	613.4
286.176	602.2
286.565	617.6
286.953	610
287.342	604.4
287.731	610.6
288.119	607.2
288.508	599.8
288.897	606.2
289.286	602
289.675	602.8
290.064	619.4
290.453	606.8
290.821	598.2
291.21	619.8
291.599	612
291.989	613.4
292.378	617
292.768	620.8
293.157	615.4
293.547	618.2
293.936	603
294.326	601.2
294.716	607.6
295.106	607.6
295.496	616
295.886	618
296.276	606.8
296.666	604.2
297.056	601.4
297.446	590.8
297.836	619.8
298.227	602.6
298.617	617.2
299.008	622
299.398	610.4
299.789	599.8
300.179	612.8
300.57	614.2
300.961	607.2
301.352	607.6
301.742	621.8
302.133	607.2
302.524	600.4
302.915	602
303.307	604.2
303.698	618.4
304.089	621.2
304.48	613.8
304.872	611
305.263	606.4
305.655	604.4
306.046	611.4
306.438	615.8
306.829	608.2
307.221	624
307.613	614
308.005	619
308.397	626.6
308.789	636
309.181	635.2
309.573	620.6
309.965	616.4
310.357	613.6
310.749	621
311.142	605.2
311.534	608.6
311.926	615
312.319	607.4
312.711	600.8
313.104	620
313.497	601.4
313.889	647
314.282	620.2
314.675	629.4
315.068	615.8
315.461	610.4
315.854	643.8
316.247	617.4
316.64	609.4
317.033	610.4
317.405	610.8
317.798	612.8
318.192	616
318.585	602.8
318.979	616.2
319.372	597.8
319.766	605.6
320.16	613
320.553	615.2
320.947	626.6
321.341	606
321.735	608
322.129	596.2
322.523	626.4
322.917	604.4
323.311	618.8
323.705	623.4
324.099	610.2
324.494	623.8
324.888	614.4
325.282	605.6
325.677	628.8
326.071	616.8
326.466	627.8
326.861	615.6
327.255	620.6
327.65	621.8
328.045	622.6
328.44	606.6
328.835	612.2
329.23	615
329.625	638.8
330.02	609.4
330.415	631
330.81	610.4
331.206	606.2
331.601	603.2
331.996	615.8
332.37	632.8
332.766	596.6
333.161	630.2
333.557	614
333.953	618.4
334.348	905.8
334.744	611.8
335.14	601.2
335.536	605.2
335.932	631.6
336.328	609.8
336.724	616
337.12	615.4
337.516	619.8
337.913	612
338.309	611.8
338.705	611.8
339.102	616.2
339.498	603.8
339.895	614.8
340.291	593.8
340.688	615
341.085	599.6
341.481	598.6
341.878	615.2
342.275	627.2
342.672	604.2
343.069	602.2
343.466	593.4
343.842	620.4
344.239	598.4
344.636	604.4
345.033	594.4
345.431	600
345.828	608
346.225	597.4
346.623	630.4
347.02	607.8
347.418	609
347.816	626
348.213	601
348.611	614.6
349.009	599.2
349.407	621.8
349.805	592.4
350.203	594.6
350.601	614
350.999	599.8
351.397	662.8
351.795	605.2
352.193	610.2
352.57	614
352.969	617
353.367	588.2
353.766	603.6
354.164	605.8
354.563	615.4
354.961	601.4
355.36	601.2
355.759	597.6
356.158	595.6
356.557	594.4
356.956	594.6
357.355	596.8
357.754	610.2
358.153	607.4
358.552	625.2
358.951	607.2
359.35	616.2
359.75	601.4
360.149	598.8
360.527	596.2
360.926	592.8
361.326	610
361.726	597.8
362.125	595.2
362.525	605
362.925	601.8
363.325	603.8
363.724	605.6
364.124	596
364.524	589.8
364.924	606.8
365.324	608.4
365.725	591.2
366.125	606.6
366.525	594.6
366.904	591
367.304	587.8
367.705	615.6
368.105	606.6
368.506	594.6
368.906	599.4
369.307	598.4
369.708	605
370.108	596.2
370.509	606.4
370.91	594.4
371.311	603.2
371.712	604.6
372.113	594
372.514	592
372.894	603.8
373.295	592.2
373.696	613
374.097	606.2
374.499	628.8
374.9	604.4
375.301	588
375.703	603.4
376.105	594.6
376.506	609.4
376.908	608
377.309	599.8
377.711	600.8
378.113	603.4
378.493	600
378.895	597.4
379.297	607.4
379.699	593.8
380.102	599.8
380.504	601.4
380.906	599.2
381.308	621.4
381.71	603.8
382.113	615.2
382.515	595.8
382.918	602.8
383.299	603
383.701	607.8
384.104	608
384.507	587.2
384.909	602
385.312	595.2
385.715	592.2
386.118	595.6
386.521	593
386.924	606.4
387.327	597
387.709	587.8
388.112	589.6
388.515	594.2
388.918	592.4
389.322	601.2
389.725	596
390.129	618.2
390.532	601.4
390.936	599.6
391.339	589.4
391.743	599.4
392.125	598.8
392.529	605.6
392.933	611.8
393.337	605.2
393.74	596.8
394.144	596.8
394.548	591.4
394.953	597.8
395.357	597.2
395.761	602.4
396.144	601.2
396.548	603.4
396.952	599.6
397.357	594
397.761	591
398.166	600.8
398.57	596.2
398.975	585.6
399.379	600.4
399.763	647.4
400.168	593.4
400.572	607.6
400.977	600.6
401.382	623.4
401.787	606.2
402.192	610.4
402.597	611
403.002	582.6
403.386	612
403.791	613
404.197	597.6
404.602	603.2
405.007	602.2
405.413	604.2
405.818	601
406.224	597
406.608	594.6
407.014	588.8
407.42	620.6
407.825	596.2
408.231	599
408.637	602.6
409.043	621.6
409.449	591.2
409.834	590.2
410.24	602.8
410.646	615
411.052	603.6
411.458	609
411.865	601.8
412.271	619
412.677	603
413.062	608.8
413.469	597.8
413.875	623.6
414.282	611.6
414.689	609.8
415.095	606.4
415.502	597.8
415.888	604.4
416.294	588.2
416.701	642
417.108	600
417.515	610.6
417.923	608.2
418.33	615.4
418.715	604.8
419.123	603.4
419.53	595
419.937	600
420.345	606.8
420.752	601.8
421.16	614.6
421.546	603.4
421.953	605.6
422.361	593.6
422.769	601.2
423.177	592.4
423.585	621
423.992	621.2
424.379	615
424.787	605.8
425.195	621.8
425.603	604
426.011	615.4
426.419	616.8
426.806	603.4
427.214	605.6
427.623	611.2
428.031	621
428.44	611
428.848	613
429.235	622.8
429.644	609.8
430.053	598.4
430.461	608.4
430.87	625.2
431.279	615.8
431.666	597.6
432.075	608.6
432.484	614.6
432.893	600.4
433.302	625
433.711	637.8
434.099	602.2
434.508	596.2
434.918	599
435.327	604.8
435.737	605
436.125	599.2
436.534	606
436.944	592.4
437.353	604.4
437.763	627.4
438.173	586.4
438.561	608.6
438.971	580.8
439.381	596.4
439.791	597.6
440.201	575.4
440.589	595
440.999	606.2
441.409	598.8
441.819	591.8
442.23	608.8
442.619	604.4
443.029	599.2
443.439	602.8
443.85	608
444.26	601.2
444.649	606.8
445.06	599
445.471	596
445.881	594
446.292	615
446.682	616.2
447.092	589.6
447.503	642.6
447.914	596
448.325	600.4
448.715	586.4
449.126	594.6
449.537	600.6
449.948	599.8
450.338	597.2
450.75	609.4
451.161	594.8
451.572	605.4
451.984	592.4
452.374	580
452.786	597.8
453.197	603.2
453.609	595.6
453.999	588.2
454.411	589.4
454.823	604.4
455.235	603.4
455.647	596
456.037	608.2
456.449	583.8
456.862	603
457.274	598.2
457.665	591.4
458.077	607.2
458.489	624
458.902	596.6
459.293	586.2
459.705	594.6
460.118	588.4
460.53	602.6
460.921	598.4
461.334	600.4
461.747	593.8
462.16	604.2
462.551	612.6
462.964	608.2
463.377	582.8
463.79	591.6
464.182	600
464.595	585.8
465.008	600.6
465.421	605.4
465.813	580
466.226	592.2
466.64	586
467.053	636
467.445	602
467.859	614.6
468.272	601
468.686	605.4
469.078	593.4
469.492	588.8
469.906	594.2
470.298	599.4
470.712	592.8
471.126	640
471.54	585.6
471.933	585
472.347	594.2
472.761	592
473.175	584.6
473.568	590.4
473.982	589.4
474.397	600.2
474.79	599
475.204	609.4
475.619	588.4
476.033	599
476.426	588.4
476.841	592.4
477.256	614.4
477.649	588.8
478.064	586.2
478.479	591
478.872	588.8
479.287	577.8
479.702	594.6
480.118	592.2
480.511	588.4
480.927	593.4
481.342	586
481.736	595.4
482.151	589.2
482.566	604.2
482.96	591
483.376	603.8
483.792	586.8
484.186	597.4
484.602	591.4
485.017	600
485.412	596.2
485.827	600
486.243	595.6
486.638	610.6
487.054	607.8
487.47	602.4
487.865	590.4
488.281	595.8
488.697	596.4
489.092	596.2
489.508	585
489.925	608.4
490.32	578.6
490.736	603.2
491.153	596
491.548	595.2
491.964	602
492.381	586.8
492.776	596.4
493.193	589.8
493.61	591.4
494.006	592.8
494.422	603.4
494.84	582.4
495.235	606.2
495.652	595
496.069	596
496.465	578
496.883	584.2
497.3	615.2
497.696	593.6
498.113	589
498.509	577.4
498.927	578.6
499.344	586.2
499.741	585.4
500.158	599.6
500.576	603.4
500.973	588.2
501.39	588.2
501.787	578.8
502.205	593.2
502.623	587
503.02	583.4
503.438	594.6
503.856	594.4
504.253	594.4
504.671	587.6
505.068	587.8
505.486	587.2
505.905	614.6
506.302	600.8
506.72	594.8
507.118	587
507.536	597.6
507.955	588.4
508.352	595.2
508.771	596.4
509.169	598.4
509.587	580.2
510.006	585
510.404	589.6
510.823	589.8
511.221	596.8
511.64	581.2
512.038	607.2
512.457	581.2
512.877	590.6
513.275	592.4
513.694	584.6
514.092	592.6
514.512	590.2
514.91	597.8
515.33	591.4
515.749	584.6
516.148	594
516.568	590.8
516.966	589.4
517.386	594
517.785	588.4
518.205	589
518.603	588.4
519.024	586.4
519.444	594.6
519.843	602.6
520.263	612
520.662	590
521.082	595.2
521.481	599.8
521.902	590.8
522.301	589.2
522.722	589.2
523.121	593.4
523.542	587
523.963	590.8
524.362	587.2
524.783	593.4
525.183	588
525.604	594.2
526.003	585
526.425	586
526.824	592.8
527.246	598
527.646	597.8
528.067	593.6
528.467	593.8
528.888	598
529.289	585
529.71	590
530.11	585.4
530.532	585.4
530.932	584
531.354	582.2
531.755	625
532.176	595.6
532.577	583.6
532.999	596
533.4	587
533.822	600.2
534.223	601.8
534.645	585.2
535.046	578.6
535.468	588.6
535.869	595
536.292	579
536.693	616.2
537.115	589
537.516	577.6
537.939	581.8
538.34	602.8
538.742	600.2
539.165	584.6
539.566	587.6
539.989	584.2
540.391	587.4
540.814	578.2
541.216	588.8
541.639	582
542.041	582.4
542.464	577.2
542.866	582.8
543.268	571.8
543.691	601
544.093	590.8
544.517	609.4
544.919	581.2
545.343	607
545.745	581
546.147	588.6
546.571	588.2
546.974	582.2
547.398	593.2
547.8	603
548.224	588.8
548.627	584.8
549.03	586.2
549.454	582.8
549.857	579.4
550.281	581.8
550.684	582.6
551.087	591.4
551.512	580.2
551.915	585.2
552.34	588.8
552.743	581.2
553.146	582.8
553.571	588.2
553.975	610.2
554.399	576.4
554.803	629
555.207	582.4
555.632	581
556.036	582.8
556.461	578.4
556.865	586.8
557.268	582.2
557.694	578.2
558.098	595.4
558.502	591.2
558.927	590.6
559.332	585.8
559.736	587.6
560.162	593.4
560.566	576.6
560.992	599.6
561.396	590.2
561.801	583.4
562.227	598
562.631	581.8
563.036	584
563.462	591.6
563.867	590.8
564.272	574.8
564.698	591.8
565.103	582.4
565.508	604.4
565.935	594.4
566.34	587.2
566.745	592.4
567.172	587.4
567.577	603
567.982	593.8
568.409	592.2
568.815	580.6
569.22	593.4
569.626	589.8
570.053	576
570.459	583.4
570.865	596.4
571.292	591.4
571.698	592.4
572.104	577.6
572.531	585.8
572.937	596
573.343	590.2
573.75	584.8
574.177	592.8
574.583	593.4
574.99	583
575.396	590.8
575.824	580.6
576.231	594
576.637	581.8
577.065	609
577.472	585.8
577.879	585
578.286	599.8
578.714	577.4
579.121	588.8
579.528	586.6
579.935	596.4
580.364	583.2
580.771	574.8
581.178	580.6
581.585	587.4
582.014	595.2
582.421	586.2
582.829	584.4
583.236	592.2
583.644	584.8
584.073	586.2
584.481	584.6
584.889	588.2
585.296	584.2
585.726	583.4
586.134	579.2
586.542	581
586.95	599.8
587.358	574.8
587.787	592
588.196	591.6
588.604	587
589.012	588.8
589.421	573.8
589.851	573
590.259	587.4
590.668	582
591.076	625.6
591.485	583.8
591.894	590.8
592.324	602
592.733	593.8
593.142	575.8
593.551	583.8
593.96	590.4
594.369	575.6
594.8	584.2
595.209	582.4
595.618	574
596.028	581
596.437	584.2
596.847	589.6
597.256	586.8
597.687	584.8
598.097	587.6
598.507	575
598.917	580.4
599.327	586
599.736	586
600.146	596.8
600.556	588.2
600.988	606.2
601.398	586
601.808	591.8
602.219	572.8
602.629	590
603.039	583.6
603.45	605.8
603.86	586
604.271	599.2
604.703	592.2
605.114	573.8
605.525	590.2
605.935	591.6
606.346	605.2
606.757	592.2
607.168	583.4
607.579	579.2
607.99	601
608.402	586.6
608.813	591.8
609.224	589.8
609.636	585.6
610.047	580.8
610.48	586.4
610.892	589.2
611.303	596.2
611.715	590.6
612.127	575.2
612.539	588.2
612.95	577.4
613.362	583
613.774	575.6
614.186	579
614.599	578
615.011	595.4
615.423	578
615.835	580.6
616.248	571.8
616.66	592.4
617.073	579
617.485	585.4
617.898	587.2
618.311	588.6
618.723	580.4
619.136	603.2
619.549	604.8
619.962	607.6
620.375	580
620.788	589.4
621.201	579.6
621.614	586.2
622.028	581
622.441	580.6
622.854	596.4
623.268	572.8
623.681	590
624.095	587
624.509	591.6
624.922	585.4
625.336	573.4
625.728	582.4
626.142	594.2
626.556	600.6
626.97	591.6
627.384	581.6
627.799	578.6
628.213	593.8
628.627	588.2
629.041	582.8
629.456	571.6
629.87	586
630.285	594
630.699	581.2
631.093	576
631.507	582.2
631.922	594.2
632.337	592
632.752	576.2
633.167	581.6
633.582	588.4
633.997	573.8
634.412	578
634.806	585.4
635.221	578.6
635.637	587.6
636.052	571.4
636.468	582.4
636.883	601.2
637.299	574.4
637.715	566.4
638.109	587.6
638.525	574
638.941	592
639.357	591.2
639.773	588.6
640.189	574.8
640.584	579
641	577.4
641.416	575.2
641.832	589.2
642.249	581.2
642.665	588.6
643.06	584.2
643.477	590.2
643.894	575.2
644.31	577.2
644.727	578.4
645.123	580.2
645.54	572.4
645.957	581
646.374	593.2
646.77	581.2
647.187	605.4
647.604	579.2
648.021	567.2
648.439	573
648.835	578.8
649.252	576.6
649.67	576.8
650.088	581
650.484	582
650.902	588
651.32	586.6
651.738	578.2
652.134	590.2
652.552	599.6
652.971	580.4
653.389	586.2
653.786	591.6
654.204	599.2
654.622	577.2
655.019	580.6
655.438	581
655.857	584.2
656.275	579.8
656.673	573.4
657.091	579
657.51	570.8
657.908	592.4
658.327	591.8
658.746	571.6
659.144	581
659.563	592.2
659.982	588.4
660.38	570.6
660.8	587.4
661.219	594.2
661.617	586.6
662.037	577.6
662.457	590
662.855	562.2
663.275	603.8
663.695	585.2
664.094	582
664.514	590.4
664.934	583.6
665.333	585.6
665.753	577.6
666.152	576
666.572	571.6
666.993	591.8
667.392	581.6
667.812	576.6
668.212	582.6
668.632	589
669.053	577.6
669.453	588.8
669.874	578
670.273	583.8
670.694	582.2
671.116	594.4
671.515	583
671.937	582.8
672.337	579
672.758	579.2
673.158	589.8
673.58	578
673.98	587.4
674.402	594.6
674.824	584.6
675.224	578.4
675.646	572.2
676.047	574.6
676.469	581
676.869	591
677.292	583.6
677.693	580.6
678.115	573.6
678.516	584.6
678.939	585.4
679.34	581.8
679.762	587.6
680.164	579.2
680.586	577.6
680.988	585.6
681.411	607.2
681.812	582.8
682.236	575
682.637	571.6
683.061	569.8
683.462	574
683.864	583.6
684.288	586.6
684.69	576.8
685.114	590.6
685.516	584.6
685.94	572.8
686.342	581.4
686.766	574.2
687.168	580.2
687.571	589.8
687.995	581.6
688.398	581.2
688.822	576.8
689.225	599.6
689.628	596.2
690.052	583.2
690.456	585
690.88	575
691.284	572
691.687	589.8
692.112	571.6
692.515	571
692.919	576.6
693.344	585.2
693.747	580
694.173	576
694.577	589.6
694.98	575
695.406	576.6
695.81	587.6
696.214	586
696.64	586.4
697.044	587.4
697.448	588.8
697.874	577.2
698.279	581.6
698.684	574.8
699.11	575.8
699.514	584.6
699.919	581.4
700.324	571.4
700.75	579.4
701.156	582
701.561	588
701.987	585.8
702.393	585.8
702.798	585.6
703.203	577
703.63	579.4
704.036	576.8
704.442	587.2
704.847	570.8
705.274	587.2
705.68	585
706.086	589.8
706.492	580.8
706.92	583.4
707.326	589.8
707.732	574.6
708.139	571.6
708.545	569.6
708.973	577
709.38	582.4
709.786	572.6
710.193	597.2
710.6	579.8
711.028	576
711.435	578.8
711.842	580.8
712.249	579
712.656	574.6
713.064	586.2
713.492	572.6
713.9	578.2
714.307	584.6
714.715	571.6
715.123	588.2
715.53	582
715.938	589
716.367	583.8
716.775	581.8
717.184	567.8
717.592	578.2
718	587.2
718.408	609.8
718.816	621.2
719.225	578.2
719.633	576.8
720.042	573
720.472	574.8
720.881	592.4
721.29	582.4
721.699	577.2
722.108	574.4
722.517	579.6
722.926	582.4
723.335	593
723.744	573.6
724.154	581.8
724.563	585.2
724.973	585.4
725.382	582.4
725.792	583.2
726.202	565.8
726.612	593.4
727.022	581.8
727.432	568.8
779.813	573.8
780.223	622.6
780.634	576
781.044	569.4
781.454	573.6
781.865	586.8
782.276	568.6
782.686	588
783.097	575.4
783.508	568.6
783.919	581
784.33	585.4
784.741	580
785.152	581
785.563	570.6
785.974	571.8
786.386	581.2
786.776	571.4
787.188	572.8
787.599	573.8
788.011	577.2
788.423	574.4
788.835	567.4
789.247	568.8
789.659	569
790.071	569.4
790.483	619.2
790.874	576.2
791.286	584.2
791.699	578.4
792.111	578.4
792.524	578
792.937	573.4
793.349	564.8
793.741	562.8
794.154	566.8
794.567	587.6
794.98	572.2
795.393	565
795.785	592.6
796.198	572.2
796.612	577.6
797.026	570.8
797.439	565
797.831	575.6
798.245	565.2
798.659	582.2
799.073	572.8
799.487	573
799.88	579.8
800.294	570.8
800.708	575.8
801.123	585.4
801.516	587.6
801.93	558
802.345	565.6
802.76	571.6
803.153	585
803.568	582.6
803.983	591.2
804.377	579.4
804.792	567
805.207	564.6
805.601	577.4
806.016	612.8
806.432	569.8
806.826	600
807.242	593.8
807.658	581.8
808.052	572
808.468	573.6
808.884	571
809.279	581
809.695	586.2
810.111	601.2
810.506	578.8
810.922	585.6
811.339	575.8
811.734	585.8
812.151	580.4
812.546	571.4
812.963	569.8
813.38	583
813.776	570.8
814.193	601.6
814.589	571.4
815.006	569.8
815.402	566.8
815.82	566.8
816.237	581.6
816.633	576.6
817.051	571.8
817.448	578.4
817.866	566.4
818.262	599
818.68	565.6
819.077	578
819.495	581.6
819.892	616
820.311	573.6
820.708	576.4
821.127	573
821.524	584.4
821.943	577
822.34	601.8
822.759	574.6
823.157	584.8
823.576	589.6
823.974	582.4
824.393	599.6
824.791	574.8
825.189	562.6
825.609	574.8
826.007	582
826.427	567.4
826.826	577
827.246	585.8
827.644	575.4
828.043	592
828.463	579.8
828.862	574.4
829.261	585.8
829.682	563.8
830.081	581.4
830.502	573.6
830.901	581.2
831.301	586.2
831.722	574.8
832.121	576.8
832.521	568.4
832.943	572.2
833.342	578.8
833.742	568.2
834.164	576.4
834.564	568.4
834.965	575.2
835.386	574
835.787	572
836.188	576.8
836.588	578.4
837.01	574.6
837.411	578.4
837.812	584.8
838.213	586.6
838.636	567.2
839.037	635.4
839.438	577.8
839.84	580.6
840.263	580
840.664	581.6
841.066	575.4
841.468	580.6
841.891	571
842.293	588.8
842.695	580.6
843.098	585.6
843.5	573
843.902	582.4
844.326	585.4
844.729	581.4
845.131	580.6
845.534	576.6
845.937	586.6
846.34	594.4
846.764	570.4
847.167	582.4
847.571	571.4
847.974	575
848.377	580
848.781	622.2
849.184	588
849.588	575.6
849.992	576
850.396	588.2
850.821	586.6
851.225	578.6
851.63	565.6
852.034	588
852.438	575.8
852.843	648.4
853.247	568.8
853.652	574.2
854.057	593.4
854.462	577.2
854.867	583.2
855.272	610.2
855.677	572.8
856.082	576.6
856.487	573
856.893	578.8
857.298	572.6
