#lambda/nm	C1
208.295	533.8
208.67	482.2
209.045	447
209.419	442
209.794	605.4
210.169	589.8
210.544	707
210.919	612.4
211.295	597
211.67	603.8
212.045	601.2
212.421	595
212.796	638.2
213.172	600.8
213.547	606
213.923	599
214.299	602.2
214.675	613.2
215.051	617.2
215.427	617.2
215.803	619.2
216.179	606.8
216.555	603.6
216.932	614.6
217.308	610.2
217.684	610.6
218.061	608.8
218.438	612
218.814	603.6
219.191	611.2
219.568	598.8
219.945	602
220.322	608.6
220.699	603
221.076	614.2
221.453	609.2
221.83	600.2
222.208	604.8
222.585	605.6
222.962	612
223.34	609.8
223.717	611.2
224.095	601.6
224.473	610.6
224.851	600.4
225.229	609.6
225.607	619.4
225.985	601.8
226.363	610.6
226.741	604
227.119	606
227.497	613.6
227.876	601
228.254	608.8
228.633	617.6
229.011	611.8
229.39	623.4
229.769	614
230.148	607.4
230.527	612.8
230.905	608.4
231.284	612.2
231.664	600
232.043	620.8
232.422	608
232.801	606.8
233.181	617
233.56	593.6
233.94	610.2
234.319	593.4
234.699	599.8
235.079	644
235.458	650
235.838	623.6
236.218	603
236.598	589.6
236.978	604
237.358	603.6
237.738	601.4
238.119	613.6
238.499	602.4
238.88	606.4
239.26	620.2
239.641	599.6
240.021	608.8
240.402	602
240.783	607.6
241.163	602.8
241.544	608.8
241.925	609
242.306	624.4
242.687	609.6
243.069	613
243.45	608.2
243.831	597.4
244.212	604
244.594	641.8
244.975	620.4
245.357	612.8
245.739	601.6
246.12	611.8
246.502	622.2
246.884	608.6
247.266	604
247.648	608
248.03	623.8
248.412	612.8
248.794	610
249.176	601
249.559	612.6
249.941	604.6
250.323	596.4
250.706	599
251.089	607.2
251.471	613.8
251.854	608.6
252.237	610.6
252.62	610.6
253.002	612.2
253.385	604.8
253.769	620.6
254.152	604.4
254.535	611
254.918	604.6
255.301	600.6
255.685	599.2
256.068	599.8
256.452	626.2
256.835	618.8
257.219	616
257.603	623
257.986	603.4
258.37	618.2
258.754	600.4
259.138	614.4
259.522	627.4
259.906	602
260.29	614.2
260.675	610.6
261.059	611.8
261.443	603
261.828	613.2
262.212	612.2
262.597	594
262.981	600.6
263.366	610.8
263.751	605.2
264.136	601.6
264.521	604.2
264.906	600.4
265.291	613
265.676	605.4
266.061	609.6
266.446	618
266.831	601.2
267.217	622.4
267.602	610.4
267.987	609.8
268.373	606.4
268.759	609.8
269.144	608.6
269.53	608.8
269.916	599.4
270.302	588.8
270.688	605.4
271.074	604.2
271.46	614.6
271.846	626.6
272.232	606
272.618	604
273.004	608
273.391	615.6
273.777	626.8
274.164	612.8
274.55	624.4
274.937	613.2
275.324	596.2
275.71	616
276.097	616.8
276.484	603
276.871	605.6
277.258	611
277.645	591.6
278.032	603.6
278.419	608.4
278.807	609
279.194	608.2
279.581	606.8
279.969	618.4
280.356	609
280.744	610.6
281.131	633.4
281.519	614.2
281.907	605
282.295	597.8
282.682	615.6
283.07	610.8
283.458	623
283.846	614.8
284.235	621.4
284.623	616.6
285.011	597.8
285.399	620.8
285.788	607.2
286.176	602.4
286.565	626.6
286.953	608.4
287.342	607
287.731	601.8
288.119	601.6
288.508	599.8
288.897	612.8
289.286	589.4
289.675	609
290.064	613
290.453	606
290.821	602.8
291.21	621.2
291.599	600.4
291.989	602.8
292.378	621.6
292.768	621.8
293.157	618.8
293.547	609.2
293.936	599.8
294.326	606.8
294.716	614.4
295.106	606.8
295.496	610.6
295.886	615.8
296.276	605.2
296.666	603.4
297.056	599.8
297.446	592.6
297.836	625
298.227	600.6
298.617	611.8
299.008	620.2
299.398	602.6
299.789	606
300.179	611.4
300.57	612
300.961	601.6
301.352	609.2
301.742	615.8
302.133	608.8
302.524	604.8
302.915	613
303.307	594.8
303.698	625.8
304.089	610.2
304.48	606.4
304.872	614.6
305.263	612.8
305.655	596.8
306.046	613.8
306.438	602.6
306.829	607
307.221	622.2
307.613	608
308.005	616.8
308.397	615.6
308.789	630.2
309.181	623.6
309.573	630.8
309.965	613
310.357	606.2
310.749	621.8
311.142	598.4
311.534	610
311.926	615
312.319	611
312.711	602.4
313.104	623
313.497	601
313.889	640.2
314.282	624.4
314.675	634.4
315.068	604.6
315.461	600
315.854	634.4
316.247	604.2
316.64	604.2
317.033	608.6
317.405	613.2
317.798	602.2
318.192	619
318.585	604
318.979	607.8
319.372	590.8
319.766	614.4
320.16	616.4
320.553	622.4
320.947	621.8
321.341	602
321.735	606.8
322.129	600.8
322.523	633.4
322.917	599
323.311	620.4
323.705	604.6
324.099	604.4
324.494	611.2
324.888	621.4
325.282	602
325.677	616
326.071	613.2
326.466	621.8
326.861	611
327.255	617
327.65	621.2
328.045	630.6
328.44	611.4
328.835	607
329.23	602.4
329.625	626.6
330.02	610.8
330.415	627.6
330.81	613.8
331.206	610.4
331.601	603.2
331.996	617.6
332.37	628.2
332.766	605.8
333.161	637.2
333.557	607.2
333.953	612.4
334.348	954.8
334.744	617
335.14	598.6
335.536	600.6
335.932	611.4
336.328	609.8
336.724	617
337.12	602.8
337.516	608
337.913	606.4
338.309	615.8
338.705	607.8
339.102	618.6
339.498	600.2
339.895	616.2
340.291	602.8
340.688	610.8
341.085	596
341.481	602.2
341.878	604
342.275	629.6
342.672	597
343.069	598.2
343.466	590.6
343.842	613
344.239	608.8
344.636	618.8
345.033	600.4
345.431	596.4
345.828	606.4
346.225	605.6
346.623	637.2
347.02	604.4
347.418	611.2
347.816	619
348.213	596.6
348.611	616.6
349.009	601.2
349.407	612.6
349.805	595.8
350.203	593.6
350.601	608.8
350.999	609.4
351.397	653.8
351.795	610.8
352.193	616.8
352.57	616.8
352.969	614.6
353.367	596.6
353.766	591.8
354.164	604.2
354.563	617.4
354.961	615.4
355.36	605.6
355.759	602.4
356.158	598.6
356.557	601
356.956	591.6
357.355	589.6
357.754	602.6
358.153	605
358.552	624.2
358.951	602.8
359.35	617
359.75	599.4
360.149	593.8
360.527	591.8
360.926	599.2
361.326	611.8
361.726	599.2
362.125	597.4
362.525	613
362.925	601.6
363.325	601.8
363.724	600.8
364.124	594.8
364.524	592
364.924	599.6
365.324	603.6
365.725	584.2
366.125	599.4
366.525	589.4
366.904	594.4
367.304	580.8
367.705	613.6
368.105	612.2
368.506	602.4
368.906	604
369.307	604.2
369.708	607.8
370.108	590.6
370.509	602
370.91	591.4
371.311	596.6
371.712	601.6
372.113	602.4
372.514	588
372.894	602.2
373.295	594.8
373.696	601.8
374.097	612.2
374.499	627.4
374.9	604
375.301	597
375.703	604.8
376.105	591.6
376.506	604
376.908	604.6
377.309	603.8
377.711	603.2
378.113	601
378.493	600.4
378.895	600.6
379.297	607.2
379.699	592.8
380.102	601.8
380.504	601.6
380.906	597
381.308	618.6
381.71	600
382.113	609
382.515	593.2
382.918	603.2
383.299	604.8
383.701	612.8
384.104	611.4
384.507	573.4
384.909	598.4
385.312	593.4
385.715	595.8
386.118	601.2
386.521	587
386.924	618.8
387.327	590.8
387.709	583.4
388.112	587.4
388.515	593.8
388.918	592.8
389.322	603.2
389.725	596.2
390.129	616.2
390.532	604.6
390.936	600.4
391.339	589.4
391.743	596
392.125	594.4
392.529	602.8
392.933	615
393.337	598.4
393.74	603.6
394.144	593.8
394.548	598
394.953	595
395.357	608.4
395.761	599.4
396.144	601.4
396.548	598.4
396.952	593.6
397.357	603
397.761	598
398.166	588
398.57	598.8
398.975	599.6
399.379	598.8
399.763	649.8
400.168	593.8
400.572	597.8
400.977	595
401.382	616.8
401.787	610.4
402.192	619.2
402.597	610
403.002	590.4
403.386	603.8
403.791	614.6
404.197	598.4
404.602	601.4
405.007	591.4
405.413	594
405.818	610.6
406.224	591.2
406.608	598
407.014	599.4
407.42	612.2
407.825	603
408.231	611.6
408.637	607
409.043	611.8
409.449	597.8
409.834	595
410.24	598.8
410.646	614.8
411.052	603.6
411.458	595.2
411.865	610.4
412.271	602.8
412.677	604.2
413.062	608.4
413.469	598.6
413.875	618.8
414.282	608.2
414.689	600
415.095	609.8
415.502	595.4
415.888	600
416.294	585.2
416.701	640.8
417.108	594.2
417.515	602.2
417.923	604.4
418.33	625
418.715	607.8
419.123	591.2
419.53	599
419.937	606
420.345	617.2
420.752	600.2
421.16	611.8
421.546	607
421.953	607.2
422.361	597.6
422.769	595
423.177	596.6
423.585	627.6
423.992	625.8
424.379	614.2
424.787	611.4
425.195	615.4
425.603	597
426.011	604
426.419	617
426.806	600.6
427.214	605.6
427.623	609.4
428.031	608.8
428.44	611.2
428.848	613.8
429.235	620.8
429.644	604
430.053	609.4
430.461	614.2
430.87	628.4
431.279	615
431.666	603.2
432.075	605.2
432.484	608.8
432.893	601.6
433.302	623.6
433.711	645.8
434.099	605.4
434.508	600.4
434.918	589
435.327	598.4
435.737	606.2
436.125	605.8
436.534	610.6
436.944	616.2
437.353	602.8
437.763	616.2
438.173	601
438.561	610.8
438.971	581.4
439.381	603
439.791	605.2
440.201	588.6
440.589	608.8
440.999	605.6
441.409	608
441.819	588.6
442.23	609.6
442.619	607.4
443.029	600.6
443.439	600.4
443.85	604.4
444.26	615.8
444.649	614
445.06	604.2
445.471	589
445.881	599.6
446.292	611.2
446.682	618.6
447.092	583.4
447.503	642.4
447.914	604.2
448.325	601.4
448.715	594.4
449.126	593.8
449.537	597.2
449.948	597.8
450.338	605.4
450.75	608.2
451.161	601.6
451.572	606.6
451.984	595.8
452.374	591.4
452.786	589.8
453.197	598.8
453.609	605.4
453.999	593.4
454.411	596.4
454.823	604.4
455.235	610.4
455.647	595.6
456.037	605.2
456.449	591
456.862	599.6
457.274	598.8
457.665	591.6
458.077	611.2
458.489	625.8
458.902	598.4
459.293	597
459.705	598.2
460.118	593.6
460.53	593.2
460.921	600
461.334	597.6
461.747	590.6
462.16	610.2
462.551	607.8
462.964	603
463.377	583.2
463.79	595.4
464.182	596.8
464.595	589.4
465.008	597.6
465.421	597
465.813	592.6
466.226	593.6
466.64	582.8
467.053	625.6
467.445	601.2
467.859	611.4
468.272	593.8
468.686	604.8
469.078	592
469.492	582.6
469.906	609.8
470.298	602.4
470.712	595
471.126	638.4
471.54	591.8
471.933	584.8
472.347	594.4
472.761	593.4
473.175	590
473.568	588.8
473.982	588
474.397	592.6
474.79	596.2
475.204	599.6
475.619	595
476.033	596.4
476.426	596.2
476.841	594
477.256	620.8
477.649	585.6
478.064	586
478.479	584
478.872	583
479.287	573.8
479.702	581
480.118	585
480.511	592.8
480.927	587.2
481.342	590.6
481.736	601.6
482.151	583.4
482.566	596
482.96	589.8
483.376	591
483.792	584.6
484.186	595.4
484.602	584.4
485.017	594
485.412	585.8
485.827	602
486.243	592.8
486.638	608.2
487.054	609.4
487.47	608.6
487.865	587
488.281	591
488.697	584.8
489.092	593
489.508	587.4
489.925	598.6
490.32	585.6
490.736	600.8
491.153	599.6
491.548	598.4
491.964	603.6
492.381	584.4
492.776	589.8
493.193	588.6
493.61	603.4
494.006	597.8
494.422	601.4
494.84	584
495.235	596.6
495.652	591.4
496.069	590
496.465	586.4
496.883	585.6
497.3	622.4
497.696	594.4
498.113	596.6
498.509	583.6
498.927	576.6
499.344	585.4
499.741	592.4
500.158	601.4
500.576	596.6
500.973	589
501.39	581.6
501.787	586.4
502.205	590.2
502.623	579.4
503.02	580.8
503.438	588.8
503.856	582
504.253	594.4
504.671	589
505.068	582.6
505.486	588.4
505.905	611
506.302	591.8
506.72	600.6
507.118	583.4
507.536	587.2
507.955	589
508.352	585.2
508.771	593.8
509.169	589.4
509.587	587.4
510.006	588.6
510.404	574.6
510.823	578.4
511.221	593.8
511.64	589.6
512.038	599.2
512.457	582.2
512.877	588.2
513.275	592.8
513.694	587.6
514.092	591.4
514.512	598
514.91	601.6
515.33	597.8
515.749	588
516.148	595.6
516.568	598.8
516.966	590
517.386	589.4
517.785	590.8
518.205	586.6
518.603	588.4
519.024	583
519.444	593
519.843	599.2
520.263	602.4
520.662	600.6
521.082	596.8
521.481	595
521.902	593.2
522.301	590
522.722	596
523.121	585
523.542	589
523.963	587.8
524.362	597
524.783	594.2
525.183	589.6
525.604	589
526.003	581.4
526.425	584.6
526.824	598.2
527.246	598.2
527.646	596
528.067	591.8
528.467	595.4
528.888	592.8
529.289	586.2
529.71	592.8
530.11	588.2
530.532	592
530.932	579.8
531.354	582.6
531.755	611
532.176	599.2
532.577	588.8
532.999	594.4
533.4	591.6
533.822	596.2
534.223	590.6
534.645	589.2
535.046	586.8
535.468	592.2
535.869	603
536.292	585.2
536.693	618.2
537.115	593.2
537.516	586.4
537.939	576.6
538.34	599.8
538.742	598
539.165	588.8
539.566	593.8
539.989	575.2
540.391	585.2
540.814	579.2
541.216	590.2
541.639	580.4
542.041	597.4
542.464	587.6
542.866	577.4
543.268	582
543.691	594.8
544.093	583.6
544.517	603.6
544.919	588.4
545.343	608.2
545.745	575.6
546.147	591.8
546.571	586
546.974	576
547.398	594.2
547.8	593
548.224	582.4
548.627	584.4
549.03	595.6
549.454	587.8
549.857	578
550.281	579
550.684	584.8
551.087	599.6
551.512	592
551.915	595.2
552.34	581.6
552.743	591.4
553.146	588.4
553.571	587.4
553.975	605.8
554.399	575.2
554.803	638.4
555.207	594.2
555.632	575.4
556.036	592.6
556.461	585.2
556.865	585.2
557.268	590.8
557.694	577.8
558.098	593.8
558.502	591.4
558.927	582.4
559.332	587.4
559.736	579.6
560.162	583.8
560.566	574.4
560.992	581.2
561.396	590.2
561.801	581.8
562.227	588.4
562.631	578.4
563.036	582
563.462	592.2
563.867	584.6
564.272	572
564.698	594.8
565.103	577
565.508	606
565.935	585.4
566.34	585.6
566.745	601.8
567.172	582.8
567.577	597.4
567.982	596.8
568.409	592
568.815	583
569.22	583.4
569.626	594.6
570.053	574.2
570.459	589.8
570.865	596.6
571.292	595.6
571.698	595.4
572.104	569.6
572.531	583
572.937	596.6
573.343	589.8
573.75	588.4
574.177	589.4
574.583	595.6
574.99	589.2
575.396	591.6
575.824	583.4
576.231	592.8
576.637	580
577.065	612.8
577.472	578.8
577.879	581.6
578.286	594.2
578.714	578.4
579.121	580.6
579.528	584.4
579.935	590.6
580.364	586.4
580.771	575
581.178	585.4
581.585	582.6
582.014	601
582.421	581.8
582.829	579.8
583.236	595.2
583.644	584.4
584.073	588.4
584.481	590.4
584.889	585
585.296	591.6
585.726	584.6
586.134	582
586.542	584.6
586.95	601.8
587.358	578.2
587.787	586.8
588.196	598.6
588.604	583.4
589.012	590.8
589.421	579.6
589.851	585.6
590.259	587
590.668	583.2
591.076	620.8
591.485	575
591.894	586.8
592.324	600.4
592.733	602.8
593.142	570.8
593.551	578.6
593.96	585
594.369	571.4
594.8	577
595.209	576.4
595.618	579.4
596.028	572.6
596.437	576.2
596.847	578
597.256	581.6
597.687	591.4
598.097	579.2
598.507	575
598.917	585.6
599.327	592.4
599.736	588.8
600.146	592
600.556	590.6
600.988	599
601.398	584.6
601.808	594.2
602.219	573.2
602.629	593
603.039	589.6
603.45	606.4
603.86	589.6
604.271	601.2
604.703	583.4
605.114	579.2
605.525	577
605.935	587.4
606.346	598.2
606.757	586.8
607.168	583
607.579	583.4
607.99	591
608.402	595
608.813	589.6
609.224	576.8
609.636	579.6
610.047	579.4
610.48	576.6
610.892	593.8
611.303	599.4
611.715	584.4
612.127	580.4
612.539	582.2
612.95	590.4
613.362	576.2
613.774	577.6
614.186	574.4
614.599	580.8
615.011	585.6
615.423	583.2
615.835	582.8
616.248	578.2
616.66	587.6
617.073	579
617.485	585.2
617.898	588.8
618.311	589
618.723	579.6
619.136	615.6
619.549	594.6
619.962	603.8
620.375	583.6
620.788	597.2
621.201	582.8
621.614	589.2
622.028	578.2
622.441	582.8
622.854	591.4
623.268	580.2
623.681	589.8
624.095	583.8
624.509	591.8
624.922	589.6
625.336	577.6
625.728	584.8
626.142	590.4
626.556	600.2
626.97	594.4
627.384	578.4
627.799	580.8
628.213	593.2
628.627	581.6
629.041	582.6
629.456	586.8
629.87	590.8
630.285	588
630.699	597
631.093	589.4
631.507	592.2
631.922	585.8
632.337	603
632.752	571.6
633.167	585.2
633.582	582.4
633.997	577.2
634.412	578.2
634.806	585
635.221	580.2
635.637	593
636.052	570.2
636.468	588
636.883	604.2
637.299	582.8
637.715	574.4
638.109	579
638.525	571.2
638.941	596.8
639.357	597
639.773	598.2
640.189	577.6
640.584	577.4
641	586.6
641.416	574.8
641.832	585.4
642.249	585.2
642.665	576.2
643.06	588
643.477	591.6
643.894	573.8
644.31	578.6
644.727	583.8
645.123	593
645.54	580.2
645.957	586.4
646.374	598
646.77	578.8
647.187	606.8
647.604	583.6
648.021	569
648.439	576
648.835	582.4
649.252	581.2
649.67	585.6
650.088	584.4
650.484	585.2
650.902	589.4
651.32	590
651.738	581.2
652.134	571
652.552	603.6
652.971	585.8
653.389	577.4
653.786	598.6
654.204	599.4
654.622	579.2
655.019	590.6
655.438	584.8
655.857	577.8
656.275	583.4
656.673	573.6
657.091	588.8
657.51	567
657.908	589.2
658.327	590.4
658.746	568.4
659.144	578.8
659.563	584.4
659.982	587.4
660.38	568.4
660.8	583.8
661.219	594.6
661.617	586.8
662.037	579.4
662.457	590.2
662.855	572.2
663.275	613
663.695	581.8
664.094	587.6
664.514	578.6
664.934	580.8
665.333	593.8
665.753	579.8
666.152	568.8
666.572	574.8
666.993	583.2
667.392	582.4
667.812	577.4
668.212	578.6
668.632	596
669.053	582.4
669.453	583.6
669.874	576.8
670.273	592
670.694	579.2
671.116	597
671.515	590
671.937	586.2
672.337	582.4
672.758	578.2
673.158	589
673.58	564
673.98	583.8
674.402	588.4
674.824	576.8
675.224	570.4
675.646	567.2
676.047	578
676.469	577.2
676.869	581.4
677.292	578
677.693	574.8
678.115	583.4
678.516	587.6
678.939	584.4
679.34	576.4
679.762	591
680.164	590.8
680.586	573.8
680.988	588.8
681.411	601
681.812	581.8
682.236	575.4
682.637	572
683.061	568.4
683.462	583.4
683.864	580.4
684.288	587
684.69	573.8
685.114	598.4
685.516	593.6
685.94	581.8
686.342	590.2
686.766	574.8
687.168	575.8
687.571	601.6
687.995	585.6
688.398	567.6
688.822	578.6
689.225	595.2
689.628	595.8
690.052	578.8
690.456	587
690.88	584.8
691.284	574.2
691.687	581.4
692.112	573.2
692.515	573.2
692.919	580.8
693.344	579.4
693.747	586
694.173	573.4
694.577	591.4
694.98	580.4
695.406	579.8
695.81	580.2
696.214	580.6
696.64	582.6
697.044	582.4
697.448	593.2
697.874	575.4
698.279	589.2
698.684	574.2
699.11	579.4
699.514	574.2
699.919	572.6
700.324	575
700.75	582.8
701.156	577
701.561	587.4
701.987	583
702.393	588.8
702.798	586.6
703.203	575
703.63	579.8
704.036	576.8
704.442	588.8
704.847	573.6
705.274	577.4
705.68	585.8
706.086	586.4
706.492	572.2
706.92	582.8
707.326	593.8
707.732	570.2
708.139	576.6
708.545	583.2
708.973	575
709.38	582.8
709.786	575.8
710.193	596.2
710.6	581.6
711.028	573.4
711.435	584.6
711.842	574
712.249	579.8
712.656	576.4
713.064	592.4
713.492	572.6
713.9	579.8
714.307	579.4
714.715	586.4
715.123	570.8
715.53	586.2
715.938	587
716.367	575.2
716.775	588.6
717.184	574
717.592	580.2
718	589.2
718.408	616
718.816	619.8
719.225	584.2
719.633	579.4
720.042	573.6
720.472	579.4
720.881	596.4
721.29	588
721.699	576.6
722.108	579.6
722.517	578
722.926	579
723.335	589.8
723.744	582
724.154	579.2
724.563	581.4
724.973	579.4
725.382	577
725.792	572.6
726.202	574.4
726.612	598.2
727.022	582.8
727.432	579
779.813	578.6
780.223	623.6
780.634	577
781.044	568
781.454	580.4
781.865	587.2
782.276	570.2
782.686	584.4
783.097	583.6
783.508	581
783.919	581.2
784.33	586.8
784.741	587.4
785.152	568
785.563	571.8
785.974	567
786.386	586.6
786.776	570.2
787.188	576.2
787.599	569.6
788.011	581
788.423	575.4
788.835	574.2
789.247	575.6
789.659	569.8
790.071	570.8
790.483	613.4
790.874	584
791.286	586.2
791.699	565.8
792.111	570.6
792.524	582
792.937	577.4
793.349	565.4
793.741	570.6
794.154	575.4
794.567	588
794.98	575
795.393	570.4
795.785	588.6
796.198	576.6
796.612	581.2
797.026	575.8
797.439	564.6
797.831	568.4
798.245	562.2
798.659	580.2
799.073	576.6
799.487	563.6
799.88	566.6
800.294	580
800.708	580.8
801.123	583.6
801.516	592.4
801.93	571.4
802.345	566
802.76	577.4
803.153	590.4
803.568	584.8
803.983	582.6
804.377	577.4
804.792	563.6
805.207	562
805.601	572.4
806.016	601
806.432	572
806.826	608.2
807.242	582
807.658	572.2
808.052	575
808.468	564.6
808.884	568.8
809.279	582.2
809.695	582.4
810.111	596.4
810.506	581.6
810.922	583.4
811.339	572.2
811.734	580.6
812.151	572.6
812.546	574
812.963	576.2
813.38	581.8
813.776	580.2
814.193	597.4
814.589	575.2
815.006	573.2
815.402	575
815.82	572
816.237	574.4
816.633	586.2
817.051	572.6
817.448	580
817.866	576.8
818.262	589.4
818.68	579.8
819.077	573.8
819.495	582
819.892	607
820.311	567.6
820.708	572.4
821.127	578
821.524	588.8
821.943	575.8
822.34	588.4
822.759	569.2
823.157	576.4
823.576	591.8
823.974	573.8
824.393	611
824.791	575.2
825.189	563
825.609	574.4
826.007	580.8
826.427	558.2
826.826	575
827.246	582.8
827.644	569
828.043	583
828.463	570
828.862	585.8
829.261	581.2
829.682	570
830.081	582.6
830.502	571
830.901	579.4
831.301	590
831.722	569.2
832.121	578.8
832.521	565
832.943	573.8
833.342	570.8
833.742	571.4
834.164	576.4
834.564	575.4
834.965	578.2
835.386	564.6
835.787	570.6
836.188	568.8
836.588	576
837.01	573.8
837.411	574.6
837.812	581.2
838.213	580.8
838.636	571.4
839.037	641.2
839.438	569.6
839.84	576
840.263	583
840.664	586.4
841.066	576.6
841.468	580.2
841.891	572.6
842.293	587.8
842.695	576.2
843.098	588
843.5	569.4
843.902	574
844.326	575.2
844.729	582.4
845.131	592
845.534	573.6
845.937	583.8
846.34	590.6
846.764	571.8
847.167	575
847.571	573.6
847.974	575.8
848.377	567.2
848.781	617.4
849.184	588
849.588	575
849.992	572.4
850.396	584
850.821	584.8
851.225	578.8
851.63	578
852.034	582.2
852.438	577.8
852.843	605.2
853.247	564.8
853.652	571.8
854.057	594.2
854.462	576.2
854.867	572.8
855.272	605.4
855.677	578.4
856.082	567.2
856.487	566.2
856.893	587.4
