#lambda/nm	C1
208.295	558
208.67	494.4
209.045	459.6
209.419	459
209.794	597.2
210.169	583.4
210.544	685.2
210.919	598.2
211.295	593.6
211.67	604
212.045	592.2
212.421	583.8
212.796	624.6
213.172	589.2
213.547	588.8
213.923	586.2
214.299	582.8
214.675	595
215.051	596.8
215.427	597
215.803	607.2
216.179	594.4
216.555	589.6
216.932	592.6
217.308	594.2
217.684	594.8
218.061	598.4
218.438	591.6
218.814	589.8
219.191	596.4
219.568	591.2
219.945	592.4
220.322	598.6
220.699	590.8
221.076	591.6
221.453	598.4
221.83	589.6
222.208	586.8
222.585	587.2
222.962	586.6
223.34	597
223.717	585.4
224.095	591.6
224.473	583
224.851	590
225.229	584.8
225.607	600.8
225.985	589.6
226.363	599.2
226.741	596.8
227.119	587.8
227.497	606.2
227.876	581.4
228.254	597
228.633	588
229.011	592.8
229.39	603
229.769	587.2
230.148	593.4
230.527	616.6
230.905	591.8
231.284	584.6
231.664	588.6
232.043	599.6
232.422	595.8
232.801	586
233.181	595.6
233.56	583.6
233.94	582.8
234.319	584
234.699	592
235.079	623.2
235.458	626.8
235.838	604.8
236.218	586.6
236.598	583.2
236.978	585.6
237.358	597.2
237.738	590.6
238.119	594.6
238.499	588
238.88	591.2
239.26	605.2
239.641	583
240.021	588
240.402	593.2
240.783	594.6
241.163	587
241.544	592.8
241.925	588.8
242.306	604
242.687	593.4
243.069	587
243.45	600.4
243.831	581.4
244.212	591.2
244.594	620.6
244.975	602.4
245.357	591.6
245.739	588.8
246.12	594.4
246.502	604.2
246.884	590
247.266	589.6
247.648	592
248.03	609
248.412	595.4
248.794	591.2
249.176	587.4
249.559	594.8
249.941	581.8
250.323	581.2
250.706	580.6
251.089	585.4
251.471	596
251.854	599.4
252.237	595.4
252.62	597.8
253.002	590
253.385	596
253.769	601.8
254.152	587.4
254.535	602.6
254.918	588.2
255.301	596.2
255.685	584.6
256.068	587.2
256.452	613.8
256.835	604
257.219	597.6
257.603	606
257.986	582.4
258.37	595.8
258.754	582.2
259.138	586.6
259.522	594.8
259.906	590.6
260.29	593.2
260.675	586.4
261.059	588.4
261.443	583.6
261.828	592.4
262.212	602.2
262.597	583.4
262.981	585.6
263.366	591.4
263.751	592.6
264.136	585
264.521	593.4
264.906	586.8
265.291	606.2
265.676	584
266.061	593.6
266.446	606.2
266.831	582.4
267.217	603.6
267.602	593
267.987	594.8
268.373	585.6
268.759	596.6
269.144	597
269.53	590.4
269.916	593.8
270.302	585
270.688	595
271.074	594.2
271.46	597.4
271.846	618.2
272.232	594.6
272.618	584.6
273.004	591.6
273.391	599.6
273.777	598.8
274.164	599.4
274.55	598.6
274.937	586.6
275.324	578
275.71	599.2
276.097	598
276.484	589.2
276.871	584.4
277.258	594.8
277.645	577.2
278.032	590
278.419	595.8
278.807	585.8
279.194	585
279.581	587.2
279.969	600.4
280.356	587.6
280.744	589.4
281.131	609.4
281.519	608
281.907	586.6
282.295	591.2
282.682	596.2
283.07	599
283.458	600.6
283.846	602.8
284.235	597.6
284.623	600.8
285.011	581.4
285.399	601.4
285.788	593.6
286.176	579
286.565	606.4
286.953	588.6
287.342	586.4
287.731	588.2
288.119	589.6
288.508	586.6
288.897	601.2
289.286	575.8
289.675	588.2
290.064	600.2
290.453	586.4
290.821	588.2
291.21	603.8
291.599	587
291.989	593.4
292.378	599.8
292.768	609.4
293.157	599.4
293.547	601.6
293.936	593.2
294.326	595.8
294.716	597.4
295.106	587.6
295.496	593.4
295.886	593.4
296.276	590.8
296.666	587.4
297.056	586.4
297.446	585.4
297.836	595.8
298.227	581.2
298.617	589.4
299.008	600.4
299.398	594.4
299.789	579.6
300.179	588.8
300.57	606
300.961	589.4
301.352	591.4
301.742	595.2
302.133	591.8
302.524	591.4
302.915	593.8
303.307	577.2
303.698	600
304.089	596.2
304.48	589.2
304.872	598.8
305.263	587.8
305.655	595.2
306.046	591.8
306.438	600
306.829	586.4
307.221	601.8
307.613	594.6
308.005	588.4
308.397	602.8
308.789	608.8
309.181	618
309.573	602.2
309.965	603.8
310.357	589.2
310.749	602
311.142	581.6
311.534	583.8
311.926	603.4
312.319	592.8
312.711	594
313.104	604.6
313.497	587.4
313.889	618
314.282	602.6
314.675	615.2
315.068	589.2
315.461	591.8
315.854	617.8
316.247	605.4
316.64	593
317.033	594.4
317.405	597.8
317.798	590.6
318.192	594.4
318.585	587.8
318.979	598.2
319.372	592.4
319.766	596.8
320.16	597.2
320.553	605.6
320.947	613.8
321.341	589.8
321.735	591.6
322.129	582.6
322.523	610
322.917	591
323.311	604.8
323.705	598
324.099	598.4
324.494	616
324.888	590.8
325.282	595.6
325.677	607.6
326.071	598
326.466	594.4
326.861	590.8
327.255	611
327.65	606.8
328.045	602.8
328.44	604.2
328.835	600.6
329.23	586.8
329.625	603.6
330.02	592
330.415	604
330.81	596.4
331.206	590.4
331.601	588
331.996	591.8
332.37	612.2
332.766	578.2
333.161	619.8
333.557	591
333.953	592.4
334.348	900
334.744	591
335.14	582
335.536	591
335.932	595.6
336.328	600.8
336.724	601.8
337.12	597
337.516	594.6
337.913	591.2
338.309	605.4
338.705	594
339.102	592.8
339.498	586.2
339.895	599
340.291	588.6
340.688	602.8
341.085	591.4
341.481	592.2
341.878	585.4
342.275	600.4
342.672	584.6
343.069	586.6
343.466	578.6
343.842	603.8
344.239	591.2
344.636	592.4
345.033	576
345.431	590.4
345.828	596.2
346.225	580
346.623	616.6
347.02	590.4
347.418	594.8
347.816	600
348.213	591.2
348.611	596.4
349.009	587.6
349.407	604
349.805	582
350.203	589.2
350.601	601.6
350.999	584
351.397	630
351.795	589.6
352.193	597.4
352.57	598.8
352.969	607.2
353.367	571.4
353.766	585.4
354.164	592.4
354.563	595.8
354.961	588.6
355.36	587.6
355.759	586.4
356.158	583.4
356.557	588.6
356.956	580.2
357.355	580.2
357.754	593.6
358.153	589.2
358.552	603.4
358.951	578.8
359.35	601.6
359.75	585.6
360.149	584
360.527	572.2
360.926	584
361.326	588.8
361.726	585.6
362.125	575.2
362.525	594.2
362.925	587.2
363.325	583.8
363.724	587.2
364.124	583.6
364.524	582.8
364.924	582.8
365.324	592
365.725	574.6
366.125	593.4
366.525	593.4
366.904	585.6
367.304	575.6
367.705	602.6
368.105	596
368.506	576
368.906	587
369.307	587.2
369.708	594.8
370.108	575.8
370.509	591.8
370.91	574.6
371.311	586.6
371.712	589.6
372.113	577.6
372.514	574.4
372.894	585.8
373.295	578.2
373.696	596.4
374.097	596
374.499	611
374.9	582.8
375.301	580.8
375.703	582.6
376.105	577.6
376.506	588
376.908	590.2
377.309	586.2
377.711	586.4
378.113	584.4
378.493	587.8
378.895	579.4
379.297	592.6
379.699	576.8
380.102	582.4
380.504	583.8
380.906	583.8
381.308	605
381.71	578.8
382.113	596.2
382.515	583.8
382.918	584.2
383.299	580.8
383.701	586.4
384.104	582.4
384.507	568.8
384.909	580.2
385.312	574
385.715	576.6
386.118	585.8
386.521	571.2
386.924	595.4
387.327	578
387.709	581.8
388.112	573
388.515	584.2
388.918	585.2
389.322	592.4
389.725	572.2
390.129	601.4
390.532	585.8
390.936	572.6
391.339	580.2
391.743	587.2
392.125	585
392.529	588
392.933	597.6
393.337	585.2
393.74	578.8
394.144	577.4
394.548	580.2
394.953	575.4
395.357	583.4
395.761	579.6
396.144	590.4
396.548	579.4
396.952	584
397.357	585.8
397.761	586.4
398.166	586.4
398.57	587.6
398.975	578
399.379	583.6
399.763	635
400.168	582.4
400.572	583.8
400.977	580.2
401.382	601.4
401.787	593.8
402.192	592.8
402.597	597.2
403.002	579.4
403.386	591.4
403.791	596.4
404.197	575.6
404.602	587.4
405.007	581.6
405.413	576.4
405.818	578
406.224	577.6
406.608	578.2
407.014	575
407.42	594.2
407.825	580
408.231	588.2
408.637	586
409.043	595.2
409.449	581.2
409.834	580.2
410.24	586.6
410.646	597.8
411.052	592
411.458	587.6
411.865	584.8
412.271	590.6
412.677	585
413.062	593.8
413.469	578
413.875	603.2
414.282	593
414.689	584.8
415.095	578.2
415.502	573.8
415.888	578.8
416.294	571.8
416.701	616.6
417.108	578.6
417.515	584
417.923	580.4
418.33	600
418.715	600.4
419.123	580.8
419.53	584.2
419.937	583.2
420.345	600.2
420.752	580
421.16	596.6
421.546	583.4
421.953	597.8
422.361	578.2
422.769	582.2
423.177	582
423.585	602.4
423.992	603.6
424.379	598.8
424.787	599.8
425.195	599.4
425.603	581.6
426.011	601.8
426.419	597.8
426.806	584.2
427.214	591.8
427.623	600.2
428.031	599.4
428.44	591.6
428.848	594
429.235	593.6
429.644	591.4
430.053	581.2
430.461	601.4
430.87	599.6
431.279	598.6
431.666	579.8
432.075	589.2
432.484	598.8
432.893	584.4
433.302	601.4
433.711	616
434.099	595.4
434.508	585
434.918	571.8
435.327	592.4
435.737	581.6
436.125	593.6
436.534	586
436.944	581.8
437.353	596.4
437.763	605
438.173	580.6
438.561	593.2
438.971	567.6
439.381	583.4
439.791	586.4
440.201	571.4
440.589	590.4
440.999	594.8
441.409	589.4
441.819	570.8
442.23	593.2
442.619	592.4
443.029	586.4
443.439	584
443.85	579.4
444.26	596.6
444.649	593
445.06	589
445.471	582
445.881	584.2
446.292	599.2
446.682	597.6
447.092	570.2
447.503	620.4
447.914	585.2
448.325	581.6
448.715	582.6
449.126	576.4
449.537	580.2
449.948	580
450.338	588.6
450.75	595.6
451.161	588
451.572	587.2
451.984	576.2
452.374	560
452.786	579
453.197	585.2
453.609	588.4
453.999	565.2
454.411	572.8
454.823	591.2
455.235	583
455.647	569.8
456.037	586
456.449	566
456.862	581.2
457.274	585.8
457.665	578.8
458.077	589
458.489	607.6
458.902	587
459.293	581.2
459.705	581.6
460.118	572.4
460.53	584.2
460.921	586.6
461.334	583
461.747	578.8
462.16	588.8
462.551	595.4
462.964	585.6
463.377	570.8
463.79	581.2
464.182	591
464.595	576.8
465.008	577.6
465.421	589.2
465.813	577.4
466.226	589.6
466.64	578.2
467.053	613.8
467.445	586.8
467.859	601
468.272	570.4
468.686	588.2
469.078	578.6
469.492	573
469.906	584
470.298	587.6
470.712	571.8
471.126	614
471.54	568.6
471.933	573.4
472.347	570.8
472.761	570
473.175	574.4
473.568	577.4
473.982	569.2
474.397	573.8
474.79	577.2
475.204	587.8
475.619	573
476.033	587.8
476.426	577.6
476.841	573.2
477.256	601.2
477.649	569.8
478.064	567.8
478.479	574
478.872	572
479.287	559.2
479.702	570.6
480.118	577.2
480.511	575.6
480.927	568.8
481.342	566.6
481.736	579.2
482.151	572
482.566	594.2
482.96	576.6
483.376	581.2
483.792	568.6
484.186	581.4
484.602	570
485.017	578.6
485.412	570.6
485.827	578.2
486.243	577.2
486.638	593.8
487.054	580.6
487.47	586.2
487.865	578
488.281	589.2
488.697	571.6
489.092	576
489.508	575.2
489.925	578.2
490.32	574.2
490.736	581.8
491.153	578.2
491.548	580.6
491.964	588.8
492.381	560.2
492.776	577
493.193	576.8
493.61	580.4
494.006	574.6
494.422	582.8
494.84	571.6
495.235	582.4
495.652	582.6
496.069	578.4
496.465	564.6
496.883	571
497.3	601.4
497.696	570.4
498.113	574.4
498.509	568.6
498.927	572.8
499.344	573.8
499.741	569.2
500.158	589.2
500.576	587.4
500.973	575
501.39	567.8
501.787	563.8
502.205	579.2
502.623	579.6
503.02	566.6
503.438	572.4
503.856	572.4
504.253	579.6
504.671	579.6
505.068	569.2
505.486	574.4
505.905	593.4
506.302	581.8
506.72	587
507.118	571.2
507.536	575
507.955	577.4
508.352	581.6
508.771	584.2
509.169	587.2
509.587	568.6
510.006	573
510.404	569
510.823	575.6
511.221	575
511.64	567.4
512.038	586.8
512.457	579
512.877	573.6
513.275	570
513.694	575.8
514.092	568
514.512	577
514.91	575
515.33	573.6
515.749	568.2
516.148	578
516.568	575.6
516.966	574.4
517.386	578.4
517.785	573.4
518.205	570.6
518.603	571.6
519.024	573.6
519.444	576.8
519.843	572.8
520.263	584.4
520.662	588.2
521.082	568
521.481	579.4
521.902	570.4
522.301	578.4
522.722	579.6
523.121	573.4
523.542	576.2
523.963	573
524.362	576.8
524.783	577.6
525.183	571.2
525.604	571.8
526.003	570.2
526.425	571
526.824	574.2
527.246	576
527.646	584
528.067	581
528.467	576
528.888	578.8
529.289	570.6
529.71	569
530.11	567.6
530.532	570
530.932	570.8
531.354	572
531.755	602
532.176	580
532.577	573.4
532.999	571.2
533.4	574.2
533.822	585.8
534.223	583
534.645	576
535.046	563.4
535.468	575.6
535.869	587
536.292	563
536.693	602.8
537.115	574.2
537.516	579.4
537.939	562.8
538.34	585.4
538.742	588.6
539.165	580.4
539.566	577.6
539.989	571.4
540.391	574.6
540.814	577.4
541.216	576.8
541.639	580
542.041	576.6
542.464	570.8
542.866	566.2
543.268	569.2
543.691	571
544.093	574.6
544.517	588.2
544.919	564.2
545.343	589
545.745	563.6
546.147	575.6
546.571	564.6
546.974	570.4
547.398	570
547.8	585.6
548.224	566
548.627	564.6
549.03	574.2
549.454	574.8
549.857	556.8
550.281	566.4
550.684	565.4
551.087	574.4
551.512	575.2
551.915	576.2
552.34	572.8
552.743	562.4
553.146	579.4
553.571	569.6
553.975	588.2
554.399	562.4
554.803	608.6
555.207	568.6
555.632	565.4
556.036	572.4
556.461	568.2
556.865	567.6
557.268	573.8
557.694	571
558.098	574.8
558.502	579.8
558.927	567.8
559.332	573.4
559.736	567.2
560.162	583.8
560.566	568.6
560.992	580.2
561.396	572.2
561.801	579.6
562.227	569.8
562.631	579.2
563.036	571.2
563.462	586
563.867	572.8
564.272	567.8
564.698	575
565.103	564
565.508	586.4
565.935	572.4
566.34	569.2
566.745	578.4
567.172	566.8
567.577	582.8
567.982	575.2
568.409	580.4
568.815	562
569.22	567.6
569.626	575.6
570.053	557.6
570.459	573.2
570.865	572.8
571.292	574.8
571.698	566.6
572.104	564
572.531	563.4
572.937	580.6
573.343	572.6
573.75	568.6
574.177	572.2
574.583	583.2
574.99	572.2
575.396	576.2
575.824	563.8
576.231	578.6
576.637	558.8
577.065	588.6
577.472	566.2
577.879	565.2
578.286	581
578.714	558
579.121	563.8
579.528	571.8
579.935	582.2
580.364	571.4
580.771	558.2
581.178	559.2
581.585	577.6
582.014	577.4
582.421	572.8
582.829	568
583.236	579
583.644	562.2
584.073	574.2
584.481	569
584.889	565.4
585.296	576.8
585.726	569.2
586.134	560.4
586.542	567.4
586.95	586.8
587.358	564.2
587.787	569
588.196	581.2
588.604	569
589.012	568.8
589.421	557.2
589.851	565.8
590.259	583
590.668	568.8
591.076	598.6
591.485	565.8
591.894	572.4
592.324	576.4
592.733	573
593.142	558
593.551	568.6
593.96	565.6
594.369	560.4
594.8	564
595.209	568.8
595.618	565.8
596.028	562.6
596.437	561.6
596.847	568
597.256	572
597.687	573.6
598.097	576
598.507	562.6
598.917	575
599.327	576.2
599.736	570.6
600.146	580.4
600.556	576.8
600.988	587.6
601.398	565.2
601.808	578.4
602.219	567.2
602.629	567.4
603.039	571.6
603.45	595.2
603.86	574.8
604.271	589.8
604.703	573.8
605.114	578.8
605.525	569.2
605.935	586
606.346	596.4
606.757	575.6
607.168	573.4
607.579	575.8
607.99	586.8
608.402	575.6
608.813	584.2
609.224	563.2
609.636	566.2
610.047	566.6
610.48	576
610.892	586.6
611.303	580
611.715	573.8
612.127	575.4
612.539	573.6
612.95	577.2
613.362	573.4
613.774	577.4
614.186	577.8
614.599	572.4
615.011	583.6
615.423	584.2
615.835	574.8
616.248	569.2
616.66	583.6
617.073	572.6
617.485	578.8
617.898	585.2
618.311	582
618.723	581.8
619.136	607.2
619.549	593
619.962	612
620.375	579.2
620.788	586.2
621.201	578.8
621.614	589
622.028	585.6
622.441	585.2
622.854	589.6
623.268	575.6
623.681	587.6
624.095	585.6
624.509	592.4
624.922	588.6
625.336	576.4
625.728	581
626.142	586.6
626.556	603.2
626.97	588.4
627.384	584
627.799	595.2
628.213	602.2
628.627	594.2
629.041	582.8
629.456	587
629.87	587.6
630.285	590.4
630.699	601.2
631.093	586.4
631.507	591
631.922	586.6
632.337	596.2
632.752	586.8
633.167	591
633.582	588.2
633.997	585
634.412	581.6
634.806	587.4
635.221	574.4
635.637	597
636.052	573
636.468	589.6
636.883	598.4
637.299	580.4
637.715	576
638.109	580.8
638.525	572
638.941	588.6
639.357	582.4
639.773	583.4
640.189	585
640.584	589
641	582.6
641.416	571.6
641.832	583
642.249	578
642.665	575.4
643.06	576.6
643.477	586.4
643.894	567.4
644.31	575.8
644.727	574.6
645.123	576
645.54	570
645.957	578.8
646.374	584
646.77	575.6
647.187	601.2
647.604	572
648.021	566.4
648.439	570.8
648.835	576.8
649.252	578.6
649.67	574.2
650.088	574.4
650.484	577
650.902	576
651.32	575
651.738	572.4
652.134	570.2
652.552	590
652.971	578.2
653.389	576.2
653.786	582.2
654.204	591.8
654.622	568.2
655.019	574.4
655.438	573.6
655.857	576.8
656.275	575
656.673	567.8
657.091	579.4
657.51	562
657.908	579.2
658.327	583
658.746	565.6
659.144	569.6
659.563	582.2
659.982	575.6
660.38	563.8
660.8	575.8
661.219	582.2
661.617	578.2
662.037	573
662.457	580.2
662.855	556.4
663.275	598.4
663.695	571.2
664.094	569.4
664.514	575.8
664.934	561.4
665.333	569.4
665.753	567.2
666.152	560.2
666.572	559.2
666.993	577.8
667.392	563.4
667.812	562.6
668.212	571.6
668.632	577
669.053	567.2
669.453	572.8
669.874	575.6
670.273	575.2
670.694	559.8
671.116	576.2
671.515	576
671.937	565.2
672.337	561.2
672.758	565.6
673.158	573.6
673.58	560.2
673.98	570
674.402	577.2
674.824	562.8
675.224	554.4
675.646	562.4
676.047	564.2
676.469	571.8
676.869	575.4
677.292	574.4
677.693	556.8
678.115	570.2
678.516	570.8
678.939	576
679.34	562.6
679.762	573.2
680.164	565.8
680.586	557.6
680.988	570.4
681.411	584.8
681.812	563.6
682.236	562.6
682.637	558.2
683.061	560.6
683.462	574.4
683.864	563.6
684.288	574.8
684.69	559.4
685.114	577.6
685.516	571.2
685.94	564.8
686.342	575.4
686.766	568.2
687.168	565.2
687.571	586.2
687.995	571.4
688.398	556.2
688.822	563.8
689.225	578
689.628	585
690.052	572
690.456	564.8
690.88	571
691.284	560.4
691.687	566
692.112	552.8
692.515	557.2
692.919	568
693.344	571.8
693.747	564.4
694.173	566.2
694.577	574.2
694.98	569.2
695.406	562.8
695.81	563.8
696.214	568.4
696.64	572.6
697.044	568.8
697.448	581
697.874	569.8
698.279	573.4
698.684	564
699.11	554.2
699.514	565.8
699.919	564.6
700.324	558.8
700.75	566.2
701.156	567.2
701.561	568.2
701.987	569
702.393	572.4
702.798	584
703.203	572.6
703.63	562.6
704.036	565.6
704.442	563.4
704.847	557.6
705.274	572.2
705.68	576.4
706.086	570.4
706.492	563.4
706.92	563.4
707.326	570.2
707.732	561
708.139	554.4
708.545	565.2
708.973	561.2
709.38	572
709.786	558.2
710.193	576.2
710.6	567.2
711.028	569.2
711.435	563.8
711.842	572.8
712.249	552.4
712.656	557.8
713.064	577.6
713.492	562.2
713.9	564.8
714.307	570.6
714.715	567.2
715.123	571
715.53	566.2
715.938	573.2
716.367	562.6
716.775	567.8
717.184	559.2
717.592	573.2
718	570.6
718.408	596.2
718.816	602
719.225	568
719.633	574
720.042	560.4
720.472	568.2
720.881	587.6
721.29	565.6
721.699	561
722.108	570.8
722.517	557.8
722.926	564.6
723.335	576.6
723.744	561.8
724.154	575
724.563	574.4
724.973	566.6
725.382	566.2
725.792	562.6
726.202	558.2
726.612	577.8
727.022	564.4
727.432	562.2
779.813	563.2
780.223	602
780.634	560.6
781.044	551.8
781.454	573.8
781.865	575
782.276	566.6
782.686	575.2
783.097	560.2
783.508	565
783.919	568.6
784.33	574
784.741	570.6
785.152	555
785.563	552.2
785.974	560.2
786.386	572.6
786.776	562.6
787.188	556.8
787.599	550.6
788.011	573.2
788.423	572.6
788.835	557.2
789.247	558
789.659	556.6
790.071	564.6
790.483	595
790.874	560.8
791.286	568
791.699	563
792.111	560.2
792.524	565
792.937	556.8
793.349	558.2
793.741	553.8
794.154	556.2
794.567	574
794.98	562.2
795.393	552.2
795.785	574.6
796.198	555.8
796.612	561.6
797.026	556.6
797.439	546
797.831	552.4
798.245	555.2
798.659	560.4
799.073	556.6
799.487	552.4
799.88	557.4
800.294	556.6
800.708	562
801.123	559.8
801.516	573.8
801.93	553.2
802.345	543.4
802.76	560.2
803.153	574
803.568	569.6
803.983	573.2
804.377	564.2
804.792	550.6
805.207	555
805.601	564.4
806.016	592.8
806.432	553.6
806.826	585.6
807.242	576.6
807.658	568.2
808.052	559.8
808.468	563.4
808.884	559.8
809.279	562.2
809.695	579.4
810.111	577.2
810.506	564
810.922	575.6
811.339	551.6
811.734	570.4
812.151	555.2
812.546	558.2
812.963	561.8
813.38	564.8
813.776	560.8
814.193	578.4
814.589	552
815.006	555.8
815.402	551.2
815.82	556.6
816.237	556.4
816.633	557.8
817.051	549.4
817.448	561.4
817.866	561.6
818.262	575.8
818.68	558.2
819.077	562.6
819.495	560.8
819.892	592.6
820.311	558.2
820.708	552.6
821.127	556.8
821.524	566.8
821.943	566.4
822.34	579.4
822.759	563
823.157	556
823.576	574.8
823.974	569.8
824.393	584.2
824.791	558.4
825.189	551.8
825.609	555.2
826.007	565.8
826.427	554.2
826.826	560.4
827.246	570.8
827.644	552.6
828.043	567.4
828.463	556.6
828.862	565.2
829.261	577.6
829.682	554.4
830.081	573.4
830.502	561.6
830.901	571
831.301	569.4
831.722	552.8
832.121	562.4
832.521	559.4
832.943	554
833.342	568.8
833.742	554
834.164	560
834.564	558.6
834.965	560
835.386	564.6
835.787	560.6
836.188	563.6
836.588	561.2
837.01	561.6
837.411	560.6
837.812	566.8
838.213	571.8
838.636	560.2
839.037	619.8
839.438	559.6
839.84	558.6
840.263	572
840.664	570.2
841.066	559
841.468	560.8
841.891	556.8
842.293	566.6
842.695	563.8
843.098	577
843.5	556.6
843.902	565.6
844.326	569.4
844.729	564.6
845.131	570
845.534	567
845.937	572.8
846.34	577.8
846.764	558.6
847.167	564.8
847.571	554.8
847.974	563
848.377	560.8
848.781	596.2
849.184	570.8
849.588	555.6
849.992	555.6
850.396	564.4
850.821	568.8
851.225	566.6
851.63	558.2
852.034	567
852.438	561.6
852.843	616.4
853.247	556.4
853.652	557.8
854.057	569.4
854.462	565.4
854.867	558.4
855.272	592.6
855.677	563.6
