#lambda/nm	C1
208.295	569.2
208.67	501.4
209.045	465
209.419	466.2
209.794	591
210.169	578.8
210.544	671.2
210.919	592.2
211.295	582.8
211.67	591.6
212.045	587
212.421	581.8
212.796	625.4
213.172	577.6
213.547	578.6
213.923	583.2
214.299	578
214.675	588.2
215.051	582.8
215.427	588.4
215.803	601.2
216.179	588.6
216.555	584.6
216.932	594.6
217.308	586.6
217.684	588.2
218.061	588.8
218.438	590.4
218.814	588.8
219.191	588.2
219.568	581.6
219.945	582.2
220.322	589
220.699	581.4
221.076	584.8
221.453	585.8
221.83	577.8
222.208	578
222.585	582
222.962	581.8
223.34	582
223.717	583.4
224.095	576.8
224.473	581.2
224.851	583
225.229	579.2
225.607	596.2
225.985	577.8
226.363	578
226.741	578.2
227.119	584.8
227.497	585.4
227.876	573.8
228.254	585.6
228.633	580.4
229.011	588.4
229.39	589.2
229.769	592.2
230.148	589.8
230.527	604.2
230.905	586.4
231.284	587.8
231.664	578.6
232.043	599.2
232.422	593.6
232.801	587.6
233.181	590
233.56	591.2
233.94	582.4
234.319	576
234.699	581.8
235.079	614.8
235.458	610.6
235.838	596.6
236.218	579
236.598	573.4
236.978	577.2
237.358	583.6
237.738	581.4
238.119	589.6
238.499	569.2
238.88	579.6
239.26	598.8
239.641	576.2
240.021	586.2
240.402	585
240.783	578.6
241.163	584.2
241.544	585.2
241.925	580.2
242.306	593
242.687	580
243.069	581
243.45	586.2
243.831	577.6
244.212	580.8
244.594	613.4
244.975	589
245.357	576.8
245.739	573
246.12	582.4
246.502	600.2
246.884	577.6
247.266	580.6
247.648	587.8
248.03	598.4
248.412	591.2
248.794	588.2
249.176	575.2
249.559	595
249.941	581.2
250.323	573.4
250.706	577
251.089	585.6
251.471	587
251.854	583
252.237	574.6
252.62	586.2
253.002	592.8
253.385	587.8
253.769	591.4
254.152	585.2
254.535	591.4
254.918	584.2
255.301	578.8
255.685	582.4
256.068	578.8
256.452	606.4
256.835	588.8
257.219	584.4
257.603	592.2
257.986	578.2
258.37	579
258.754	576.4
259.138	588.6
259.522	592.4
259.906	576
260.29	580.8
260.675	577.2
261.059	576
261.443	567.4
261.828	582.4
262.212	584.8
262.597	566.4
262.981	569.8
263.366	586.2
263.751	584.8
264.136	578.2
264.521	583
264.906	575.4
265.291	588.6
265.676	578.4
266.061	587.8
266.446	594.8
266.831	579.6
267.217	601.6
267.602	583.8
267.987	580.6
268.373	578.6
268.759	589.8
269.144	595.4
269.53	584.4
269.916	580
270.302	574.2
270.688	584.4
271.074	581.8
271.46	592.2
271.846	609.8
272.232	577.4
272.618	576.2
273.004	585.8
273.391	586
273.777	595.6
274.164	582.4
274.55	598
274.937	588.8
275.324	578
275.71	587.2
276.097	585.6
276.484	574.8
276.871	582.8
277.258	584
277.645	577.2
278.032	581.4
278.419	582.8
278.807	580.6
279.194	575.4
279.581	578.2
279.969	589.8
280.356	582.2
280.744	583
281.131	589.6
281.519	588.8
281.907	573.4
282.295	583.4
282.682	596
283.07	584.8
283.458	593.8
283.846	592
284.235	594
284.623	583.2
285.011	577
285.399	583.6
285.788	582.2
286.176	569.8
286.565	590.4
286.953	569.4
287.342	576.4
287.731	572.2
288.119	573.4
288.508	578.8
288.897	576
289.286	573.6
289.675	587.2
290.064	581.2
290.453	575
290.821	583.4
291.21	587.2
291.599	583
291.989	579.8
292.378	585.6
292.768	599.6
293.157	582.8
293.547	590
293.936	583.6
294.326	580
294.716	586.6
295.106	578.6
295.496	592
295.886	595.2
296.276	575.8
296.666	582.8
297.056	577.8
297.446	582.6
297.836	596.4
298.227	576.2
298.617	587
299.008	596
299.398	582.8
299.789	579.4
300.179	590
300.57	597.6
300.961	582.2
301.352	578.6
301.742	589.2
302.133	579.4
302.524	579.6
302.915	587
303.307	577.2
303.698	585.6
304.089	588.4
304.48	583.2
304.872	587.2
305.263	573
305.655	582.8
306.046	590.6
306.438	584.4
306.829	576.2
307.221	596.4
307.613	588
308.005	586.6
308.397	589.4
308.789	596
309.181	605.6
309.573	594.4
309.965	593.2
310.357	578
310.749	593.8
311.142	579.6
311.534	578.2
311.926	587.4
312.319	585.8
312.711	577.2
313.104	594.6
313.497	584.2
313.889	612.8
314.282	594.8
314.675	600.8
315.068	580.8
315.461	579.2
315.854	602.8
316.247	586
316.64	589.4
317.033	581.2
317.405	593
317.798	582.2
318.192	583.6
318.585	569.2
318.979	590.2
319.372	570.8
319.766	582
320.16	590.8
320.553	591.6
320.947	599.2
321.341	582
321.735	584
322.129	571.8
322.523	595
322.917	573.6
323.311	585.8
323.705	584.8
324.099	592.6
324.494	597
324.888	592.8
325.282	583.6
325.677	590.2
326.071	590
326.466	591.2
326.861	574.6
327.255	586.6
327.65	588.8
328.045	595.2
328.44	585.8
328.835	581
329.23	577.2
329.625	602.4
330.02	576.6
330.415	602
330.81	578
331.206	586.2
331.601	583.6
331.996	588
332.37	603.4
332.766	571.4
333.161	600.6
333.557	577.4
333.953	581
334.348	865.6
334.744	591.8
335.14	585.4
335.536	583.2
335.932	590.8
336.328	589.6
336.724	589
337.12	577.8
337.516	594
337.913	581.4
338.309	592.2
338.705	581.6
339.102	584.2
339.498	583.8
339.895	598.8
340.291	576.6
340.688	593.4
341.085	574.6
341.481	580
341.878	583.4
342.275	594.6
342.672	575.6
343.069	575.6
343.466	573.4
343.842	593.8
344.239	577.2
344.636	582
345.033	579.8
345.431	579.8
345.828	579.2
346.225	583.2
346.623	601
347.02	587.6
347.418	590.2
347.816	594.6
348.213	578.6
348.611	599.2
349.009	575.4
349.407	593.4
349.805	573.2
350.203	575.4
350.601	587.2
350.999	574.2
351.397	627.8
351.795	584
352.193	582.6
352.57	594.2
352.969	599.6
353.367	577.8
353.766	574
354.164	581.8
354.563	588
354.961	571
355.36	576.6
355.759	572.4
356.158	565.8
356.557	574.4
356.956	574.4
357.355	565.4
357.754	579.6
358.153	583
358.552	600.4
358.951	577.4
359.35	576
359.75	578
360.149	566.8
360.527	569.8
360.926	569.2
361.326	580.6
361.726	572.8
362.125	568
362.525	577.2
362.925	580.4
363.325	583.2
363.724	578.4
364.124	574.4
364.524	574.4
364.924	574
365.324	587.8
365.725	568.2
366.125	583.2
366.525	580.2
366.904	575.6
367.304	569.4
367.705	585.8
368.105	585.4
368.506	581.2
368.906	577.6
369.307	574.4
369.708	582.4
370.108	570.4
370.509	584.8
370.91	581.8
371.311	582.8
371.712	579.2
372.113	574.6
372.514	570.2
372.894	578.4
373.295	568.8
373.696	586.6
374.097	592.6
374.499	588
374.9	578.6
375.301	572.2
375.703	576.4
376.105	569.4
376.506	583
376.908	578.2
377.309	575
377.711	581.4
378.113	574.2
378.493	577.4
378.895	570.8
379.297	588.4
379.699	564
380.102	586.4
380.504	576.6
380.906	574
381.308	599.4
381.71	575.6
382.113	580.8
382.515	573.4
382.918	577.4
383.299	576
383.701	577.2
384.104	577
384.507	558.2
384.909	572.6
385.312	563
385.715	570.4
386.118	576.4
386.521	566.6
386.924	579
387.327	573.2
387.709	560
388.112	561.2
388.515	579.2
388.918	576.2
389.322	580.8
389.725	572.2
390.129	595.4
390.532	581.2
390.936	571.2
391.339	570
391.743	581.2
392.125	574.4
392.529	580.4
392.933	589
393.337	574.8
393.74	577.6
394.144	581.4
394.548	573
394.953	570.4
395.357	572
395.761	582.6
396.144	572.6
396.548	579
396.952	580
397.357	576.8
397.761	578.4
398.166	573.8
398.57	573.4
398.975	565.8
399.379	571.6
399.763	616.6
400.168	575.8
400.572	577.2
400.977	576.6
401.382	583.8
401.787	584.2
402.192	580.8
402.597	580.8
403.002	565
403.386	596.6
403.791	587.4
404.197	571.2
404.602	572.4
405.007	576.8
405.413	573.8
405.818	571.6
406.224	573.4
406.608	575.8
407.014	575.6
407.42	583.2
407.825	568.8
408.231	585.2
408.637	578.2
409.043	585
409.449	566
409.834	570.6
410.24	580.2
410.646	585.8
411.052	585.6
411.458	583.8
411.865	582.6
412.271	585.6
412.677	580.4
413.062	583.8
413.469	572
413.875	596.4
414.282	583.8
414.689	581.8
415.095	580.6
415.502	570
415.888	574.2
416.294	572.8
416.701	613
417.108	571
417.515	584.2
417.923	570.4
418.33	594
418.715	580.2
419.123	577.2
419.53	579.2
419.937	583.2
420.345	587.4
420.752	579.6
421.16	596.8
421.546	579.6
421.953	583
422.361	568.8
422.769	569.2
423.177	569.6
423.585	593.4
423.992	588.2
424.379	586.6
424.787	578.4
425.195	597.6
425.603	581
426.011	587.8
426.419	579.6
426.806	575.4
427.214	581.8
427.623	589.2
428.031	590.4
428.44	586.6
428.848	589.6
429.235	589.4
429.644	577.8
430.053	576.6
430.461	585.4
430.87	597.2
431.279	586.6
431.666	577.4
432.075	586
432.484	582.4
432.893	576.8
433.302	591.6
433.711	613.2
434.099	577.8
434.508	581.2
434.918	567
435.327	583.8
435.737	586
436.125	581.6
436.534	584.6
436.944	581.8
437.353	590.6
437.763	592
438.173	574.6
438.561	583
438.971	563.6
439.381	573.2
439.791	580.4
440.201	568.6
440.589	576.8
440.999	576
441.409	583.2
441.819	561
442.23	589.6
442.619	583.6
443.029	581.6
443.439	574.6
443.85	578
444.26	586.2
444.649	587.6
445.06	574.6
445.471	575.6
445.881	578.8
446.292	590.2
446.682	597.2
447.092	570
447.503	626.6
447.914	575.6
448.325	576
448.715	571.8
449.126	568.4
449.537	577
449.948	574
450.338	577
450.75	569.8
451.161	575.6
451.572	583.6
451.984	568.4
452.374	570.8
452.786	579.4
453.197	578
453.609	573.2
453.999	569.8
454.411	561.6
454.823	576.6
455.235	575.8
455.647	570.8
456.037	577.6
456.449	558.8
456.862	579
457.274	573.8
457.665	571.6
458.077	573.8
458.489	604.2
458.902	574.2
459.293	573.4
459.705	577.2
460.118	572
460.53	570.8
460.921	568.4
461.334	578.2
461.747	570.2
462.16	576.6
462.551	580.8
462.964	583
463.377	565.6
463.79	567.8
464.182	572
464.595	563.8
465.008	580.4
465.421	578.4
465.813	570.8
466.226	579.4
466.64	576.8
467.053	615.8
467.445	587.2
467.859	585.8
468.272	570.4
468.686	586
469.078	568.8
469.492	565.8
469.906	574.2
470.298	581.8
470.712	566.8
471.126	611
471.54	557.8
471.933	560
472.347	565.4
472.761	562.8
473.175	566.2
473.568	565
473.982	560.4
474.397	567.4
474.79	575
475.204	573.4
475.619	564.8
476.033	572.2
476.426	571.4
476.841	569.6
477.256	584.6
477.649	566.8
478.064	564
478.479	566.4
478.872	564.8
479.287	560
479.702	558.8
480.118	567.4
480.511	564.8
480.927	561.8
481.342	567
481.736	576.8
482.151	562.2
482.566	578.2
482.96	562.8
483.376	576.8
483.792	564.6
484.186	574.4
484.602	563.6
485.017	568.6
485.412	570.2
485.827	575.6
486.243	568.4
486.638	588.2
487.054	581.2
487.47	588
487.865	564.6
488.281	566.8
488.697	561
489.092	568.8
489.508	566.2
489.925	581.4
490.32	556.8
490.736	569.6
491.153	570.6
491.548	568.4
491.964	574
492.381	558
492.776	573.6
493.193	562.8
493.61	574.8
494.006	572.2
494.422	577.6
494.84	566.8
495.235	569
495.652	566.8
496.069	568.8
496.465	562.2
496.883	566.8
497.3	587.6
497.696	564.4
498.113	570.2
498.509	551
498.927	556.8
499.344	565
499.741	564.6
500.158	569.6
500.576	573.2
500.973	565.6
501.39	557.8
501.787	553.8
502.205	565.6
502.623	567.4
503.02	558
503.438	562.6
503.856	570.4
504.253	565.6
504.671	563.4
505.068	558.4
505.486	563.4
505.905	576.6
506.302	573.4
506.72	574.8
507.118	566.4
507.536	566
507.955	561
508.352	567.8
508.771	571.6
509.169	579
509.587	563.2
510.006	569.8
510.404	554.6
510.823	566.6
511.221	570
511.64	564
512.038	573.8
512.457	570.6
512.877	572.6
513.275	567.8
513.694	567.8
514.092	571.2
514.512	573.4
514.91	580.6
515.33	580
515.749	571.6
516.148	571.8
516.568	573.4
516.966	564
517.386	565
517.785	567
518.205	563
518.603	558.6
519.024	561.4
519.444	564.2
519.843	569.6
520.263	567.6
520.662	566.8
521.082	561
521.481	565
521.902	568.8
522.301	568.8
522.722	571.6
523.121	564.2
523.542	561.8
523.963	564.4
524.362	563.4
524.783	574.4
525.183	562.8
525.604	564.8
526.003	564.8
526.425	566.6
526.824	573.6
527.246	572.4
527.646	574.6
528.067	573.4
528.467	573.6
528.888	576.6
529.289	562.4
529.71	562.6
530.11	567.6
530.532	561.4
530.932	570
531.354	553.8
531.755	594.4
532.176	575.4
532.577	566.6
532.999	566.6
533.4	566.8
533.822	580.4
534.223	579.6
534.645	571.2
535.046	566.4
535.468	567
535.869	583
536.292	559.6
536.693	589.6
537.115	568.2
537.516	562.8
537.939	563.6
538.34	584
538.742	571
539.165	571.8
539.566	571
539.989	559.2
540.391	560.4
540.814	571.4
541.216	568
541.639	563.2
542.041	572.2
542.464	569
542.866	564
543.268	561
543.691	568.4
544.093	566.6
544.517	585.6
544.919	554.6
545.343	588.8
545.745	562
546.147	569
546.571	565.4
546.974	565.2
547.398	564
547.8	585.4
548.224	568.8
548.627	555.4
549.03	573
549.454	569
549.857	558.2
550.281	564.6
550.684	562.8
551.087	568.2
551.512	570.4
551.915	565.2
552.34	567.6
552.743	562
553.146	562.6
553.571	560.2
553.975	568.4
554.399	559.4
554.803	600.8
555.207	561.4
555.632	558.4
556.036	556.6
556.461	552.8
556.865	564.4
557.268	560
557.694	569.2
558.098	571.2
558.502	566.8
558.927	561.4
559.332	566.6
559.736	569.4
560.162	564.6
560.566	559.2
560.992	561
561.396	563
561.801	562.4
562.227	559.8
562.631	560.6
563.036	564.8
563.462	567.4
563.867	571.4
564.272	559
564.698	567.6
565.103	562
565.508	581.6
565.935	569.8
566.34	564.6
566.745	572.8
567.172	563.6
567.577	586.2
567.982	579.6
568.409	570.4
568.815	555.4
569.22	559.8
569.626	563.2
570.053	550
570.459	564.8
570.865	568.4
571.292	565.2
571.698	569.6
572.104	549
572.531	566
572.937	569.2
573.343	564.4
573.75	565
574.177	569.2
574.583	564.4
574.99	560.6
575.396	568
575.824	566.4
576.231	571.6
576.637	556.6
577.065	583
577.472	556.6
577.879	563.8
578.286	577.2
578.714	545
579.121	559.4
579.528	557
579.935	571
580.364	566.2
580.771	549
581.178	560.8
581.585	565
582.014	567.8
582.421	564.6
582.829	564
583.236	567
583.644	554.2
584.073	561
584.481	564.4
584.889	565.2
585.296	565.4
585.726	561.2
586.134	564.8
586.542	561.2
586.95	574.2
587.358	553.2
587.787	570.4
588.196	573.2
588.604	555.8
589.012	556.2
589.421	555
589.851	554.6
590.259	563
590.668	557.4
591.076	594.2
591.485	558.4
591.894	563.6
592.324	576.6
592.733	575.2
593.142	555.4
593.551	556.4
593.96	591.2
594.369	558.4
594.8	547
595.209	558.6
595.618	550.2
596.028	559.2
596.437	557.8
596.847	567.4
597.256	566.4
597.687	571.4
598.097	552.4
598.507	558.2
598.917	566.6
599.327	566
599.736	561.4
600.146	565
600.556	568.8
600.988	571.2
601.398	560.6
601.808	569.8
602.219	556.6
602.629	567.2
603.039	560
603.45	581.4
603.86	558.8
604.271	570.6
604.703	561.8
605.114	565.4
605.525	565
605.935	565.6
606.346	584
606.757	571.2
607.168	555.2
607.579	556.6
607.99	568.4
608.402	564.8
608.813	566.4
609.224	551.6
609.636	552.4
610.047	562.8
610.48	565.8
610.892	571.8
611.303	570.8
611.715	561.6
612.127	556.8
612.539	566
612.95	564.8
613.362	556.8
613.774	555
614.186	559.2
614.599	554.8
615.011	559.8
615.423	560.2
615.835	557.4
616.248	553.2
616.66	563
617.073	553
617.485	560.6
617.898	562.4
618.311	561.4
618.723	561
619.136	574
619.549	568.8
619.962	580.2
620.375	556
620.788	564.6
621.201	558.6
621.614	565.6
622.028	559.4
622.441	568.4
622.854	568.8
623.268	557.4
623.681	568.8
624.095	559.2
624.509	569
624.922	566.2
625.336	554.6
625.728	560
626.142	569.2
626.556	575.2
626.97	565
627.384	563.2
627.799	564.2
628.213	571.4
628.627	560.8
629.041	559
629.456	555.8
629.87	564.6
630.285	566.2
630.699	570.6
631.093	563.6
631.507	563.4
631.922	566.8
632.337	573.2
632.752	560.6
633.167	560.2
633.582	558.2
633.997	561.2
634.412	558
634.806	558.2
635.221	556.8
635.637	570.2
636.052	558.2
636.468	560.6
636.883	571.4
637.299	559.4
637.715	547.8
638.109	562.4
638.525	560
638.941	579
639.357	561.8
639.773	572
640.189	552.8
640.584	563.2
641	554.8
641.416	549.2
641.832	558.2
642.249	554.8
642.665	560.2
643.06	563.4
643.477	572
643.894	554
644.31	556
644.727	566.2
645.123	562.8
645.54	559.6
645.957	566.6
646.374	568.2
646.77	565.8
647.187	587.2
647.604	562.6
648.021	552.2
648.439	551
648.835	562.2
649.252	554.8
649.67	564.8
650.088	558.8
650.484	557.2
650.902	564
651.32	560.8
651.738	551
652.134	560.8
652.552	570.6
652.971	559.6
653.389	558.4
653.786	566.6
654.204	577.6
654.622	558.8
655.019	557.8
655.438	564.4
655.857	560.6
656.275	561
656.673	548.8
657.091	563.8
657.51	558.8
657.908	562.8
658.327	565.6
658.746	547.2
659.144	555.6
659.563	566.4
659.982	562
660.38	557
660.8	564.2
661.219	571.8
661.617	561
662.037	556.8
662.457	569.4
662.855	547.8
663.275	584.2
663.695	555.2
664.094	559
664.514	557
664.934	553.8
665.333	558.8
665.753	551.6
666.152	547.4
666.572	553
666.993	565
667.392	550
667.812	561.6
668.212	558.6
668.632	571.8
669.053	553.4
669.453	565
669.874	558.2
670.273	563
670.694	557.8
671.116	568.2
671.515	562.8
671.937	557.2
672.337	558.2
672.758	562
673.158	563.2
673.58	553.2
673.98	563.6
674.402	566.2
674.824	556.6
675.224	555.8
675.646	556.4
676.047	549
676.469	558.8
676.869	563.2
677.292	555.6
677.693	554
678.115	557.8
678.516	558.2
678.939	556
679.34	553.4
679.762	570.6
680.164	561
680.586	547.6
680.988	547.2
681.411	587.2
681.812	556.4
682.236	555
682.637	554.8
683.061	556
683.462	560
683.864	562.6
684.288	565.2
684.69	555.8
685.114	566
685.516	562.6
685.94	552.2
686.342	564
686.766	554.6
687.168	553.8
687.571	572.6
687.995	564.2
688.398	555
688.822	558.2
689.225	577.6
689.628	574.2
690.052	554
690.456	557.2
690.88	554
691.284	546.2
691.687	562.2
692.112	547.8
692.515	553
692.919	562.8
693.344	564.2
693.747	556
694.173	554
694.577	553.2
694.98	556.6
695.406	559.6
695.81	552
696.214	564
696.64	557.4
697.044	562.6
697.448	569.2
697.874	561.8
698.279	561.4
698.684	550.4
699.11	548
699.514	556
699.919	555.2
700.324	557
700.75	556
701.156	563.6
701.561	564.6
701.987	556.8
702.393	568
702.798	563.8
703.203	558.8
703.63	558.2
704.036	553.2
704.442	563
704.847	552
705.274	558.4
705.68	559.4
706.086	575.4
706.492	554.2
706.92	550.4
707.326	563.8
707.732	553.6
708.139	555.8
708.545	554.4
708.973	554.8
709.38	556.4
709.786	538.6
710.193	565.6
710.6	560.4
711.028	562.2
711.435	556.6
711.842	562.4
712.249	550.4
712.656	551.2
713.064	561.8
713.492	548
713.9	554.8
714.307	559
714.715	562
715.123	555.4
715.53	560.6
715.938	568
716.367	554
716.775	551.6
717.184	551.8
717.592	562
718	563.2
718.408	583.2
718.816	591.4
719.225	562
719.633	560.4
720.042	550.6
720.472	558.4
720.881	571.8
721.29	561.4
721.699	545
722.108	562.6
722.517	557.6
722.926	562.6
723.335	570
723.744	552.8
724.154	561
724.563	553.4
724.973	553.6
725.382	555.6
725.792	549.4
726.202	550
726.612	574.6
727.022	561
727.432	562.8
779.813	560
780.223	592.4
780.634	554.6
781.044	557.6
781.454	547.6
781.865	572.6
782.276	551.6
782.686	563.6
783.097	557
783.508	554
783.919	554
784.33	564.8
784.741	564.6
785.152	552.6
785.563	547.8
785.974	552.2
786.386	567.2
786.776	551.4
787.188	557.2
787.599	556.8
788.011	553.6
788.423	562.4
788.835	549.6
789.247	556.2
789.659	552.8
790.071	556.4
790.483	582.2
790.874	556.2
791.286	563.2
791.699	560
792.111	556
792.524	560.6
792.937	563.4
793.349	552.6
793.741	553.2
794.154	549
794.567	574.6
794.98	559.2
795.393	551.2
795.785	568.6
796.198	540.2
796.612	552.6
797.026	549.4
797.439	538.2
797.831	546.6
798.245	544.4
798.659	547.4
799.073	546.6
799.487	553.4
799.88	547.6
800.294	547
800.708	550.6
801.123	554
801.516	567
801.93	544.6
802.345	540.8
802.76	549
803.153	563.6
803.568	568.8
803.983	564.8
804.377	568.2
804.792	546.4
805.207	539.4
805.601	550.6
806.016	581.8
806.432	546.6
806.826	586.2
807.242	564.4
807.658	554.6
808.052	555
808.468	550.8
808.884	551.8
809.279	551.6
809.695	568
810.111	573.6
810.506	556.8
810.922	566.4
811.339	556.4
811.734	561.4
812.151	557
812.546	551
812.963	552.2
813.38	556.4
813.776	555.2
814.193	566.2
814.589	545
815.006	550.2
815.402	549
815.82	550.4
816.237	556.2
816.633	551.6
817.051	551.8
817.448	555.2
817.866	549.4
818.262	576
818.68	545.4
819.077	551.8
819.495	552.6
819.892	594.6
820.311	554.2
820.708	550.8
821.127	555.6
821.524	563.6
821.943	550.8
822.34	569.4
822.759	556.8
823.157	554
823.576	566.6
823.974	563.8
824.393	588
824.791	549.2
825.189	542.4
825.609	553
826.007	556.6
826.427	540.4
826.826	553.8
827.246	553.6
827.644	539.2
828.043	567.2
828.463	553.2
828.862	571
829.261	553.8
829.682	548.4
830.081	563
830.502	548.8
830.901	554.2
831.301	569.6
831.722	544.8
832.121	558
832.521	553
832.943	550.6
833.342	550.4
833.742	549.4
834.164	547.4
834.564	551.8
834.965	552.8
835.386	550.4
835.787	558.6
836.188	557.8
836.588	556.2
837.01	553.8
837.411	548.8
837.812	548.6
838.213	557
838.636	551.2
839.037	606
839.438	555.2
839.84	551
840.263	564
840.664	557.8
841.066	551.6
841.468	550.2
841.891	550
842.293	559.2
842.695	561.2
843.098	566.6
843.5	545.8
843.902	561.2
844.326	557
844.729	557.8
845.131	566
845.534	562
845.937	558.2
846.34	564.8
846.764	551.4
847.167	561
847.571	552.2
847.974	554.4
848.377	547.8
848.781	588.4
849.184	563.2
849.588	545.6
849.992	555.8
850.396	555.8
850.821	569
851.225	554.4
851.63	548.2
852.034	564.2
852.438	557.4
852.843	575.8
853.247	536.6
853.652	540.8
854.057	572.8
854.462	549.6
854.867	556.4
855.272	585.6
855.677	554.2
856.082	540
856.487	545
856.893	557.6
