#lambda/nm	C1
208.295	558.8
208.67	496
209.045	460.2
209.419	458.6
209.794	596.8
210.169	578
210.544	678.4
210.919	593.4
211.295	580.6
211.67	593.8
212.045	599
212.421	587.6
212.796	616.8
213.172	588.8
213.547	577.2
213.923	585.2
214.299	588.2
214.675	594.2
215.051	588
215.427	595.4
215.803	601.8
216.179	596.6
216.555	587.4
216.932	593.6
217.308	593.6
217.684	597
218.061	596.8
218.438	596.4
218.814	590
219.191	595.8
219.568	587
219.945	582
220.322	593.4
220.699	589.8
221.076	591.6
221.453	595.6
221.83	582.2
222.208	578.4
222.585	582.8
222.962	597.8
223.34	584.2
223.717	595.6
224.095	580.4
224.473	592
224.851	578.8
225.229	573.2
225.607	604.2
225.985	585.4
226.363	591
226.741	586.4
227.119	581.4
227.497	605.2
227.876	570.6
228.254	596.2
228.633	589.6
229.011	584.8
229.39	587.2
229.769	594.2
230.148	590.2
230.527	602
230.905	584.4
231.284	590.8
231.664	586
232.043	594.8
232.422	590.8
232.801	583.8
233.181	587.2
233.56	585
233.94	590
234.319	581.8
234.699	585.4
235.079	629.4
235.458	620.6
235.838	600.6
236.218	587.6
236.598	580
236.978	590.2
237.358	584.8
237.738	585
238.119	596.6
238.499	575.8
238.88	588.6
239.26	607
239.641	579.8
240.021	574.8
240.402	584.6
240.783	580.6
241.163	584.4
241.544	595.4
241.925	590
242.306	593.2
242.687	585.4
243.069	588.6
243.45	601.2
243.831	582
244.212	581.2
244.594	613.6
244.975	593
245.357	589.6
245.739	584.4
246.12	594.4
246.502	600.2
246.884	592.2
247.266	585
247.648	588
248.03	608.8
248.412	589.6
248.794	595.2
249.176	591
249.559	595.6
249.941	577.8
250.323	578.2
250.706	577.4
251.089	591.4
251.471	586.6
251.854	586
252.237	588.2
252.62	592
253.002	585.4
253.385	591.4
253.769	597.2
254.152	591.8
254.535	597.4
254.918	585.6
255.301	582.8
255.685	587.8
256.068	582
256.452	599.4
256.835	599.4
257.219	589.6
257.603	597.2
257.986	578
258.37	586.4
258.754	575.4
259.138	592.2
259.522	596.8
259.906	591
260.29	593.2
260.675	583.2
261.059	584
261.443	577.2
261.828	593.4
262.212	590.8
262.597	571.8
262.981	585.2
263.366	588.2
263.751	589
264.136	582.4
264.521	587.8
264.906	578.6
265.291	595.4
265.676	585.2
266.061	599
266.446	602.2
266.831	588.8
267.217	604.6
267.602	594.4
267.987	589
268.373	585.6
268.759	594.6
269.144	591.4
269.53	589.2
269.916	587
270.302	582
270.688	593.6
271.074	587.6
271.46	599.6
271.846	611.8
272.232	587.8
272.618	584.8
273.004	586.2
273.391	595
273.777	598
274.164	592
274.55	595.4
274.937	581.2
275.324	586.4
275.71	592.6
276.097	588.4
276.484	583.6
276.871	587
277.258	591.8
277.645	581.8
278.032	586.4
278.419	584
278.807	580.2
279.194	578.2
279.581	581.8
279.969	596.4
280.356	584.8
280.744	583.6
281.131	607.2
281.519	585.6
281.907	574.8
282.295	588.6
282.682	595
283.07	586.6
283.458	589.2
283.846	599.4
284.235	593.4
284.623	592
285.011	584
285.399	593.6
285.788	577.2
286.176	580.4
286.565	602.6
286.953	579.6
287.342	586.2
287.731	577.4
288.119	573.4
288.508	583.6
288.897	585.4
289.286	575.6
289.675	581.4
290.064	587.6
290.453	582
290.821	582.8
291.21	598.8
291.599	583.4
291.989	591.8
292.378	586.8
292.768	605.6
293.157	595.2
293.547	587.4
293.936	583
294.326	583.8
294.716	588.4
295.106	587.4
295.496	597.4
295.886	599.6
296.276	591.6
296.666	581.8
297.056	585.2
297.446	579.6
297.836	607.2
298.227	582.6
298.617	595.8
299.008	598
299.398	588.8
299.789	588.6
300.179	596.4
300.57	600
300.961	589.2
301.352	583.8
301.742	588.6
302.133	579.4
302.524	585.6
302.915	585.2
303.307	581.8
303.698	595.8
304.089	590
304.48	585.6
304.872	585.6
305.263	584.8
305.655	587.8
306.046	585.6
306.438	592.6
306.829	592.2
307.221	597
307.613	597.4
308.005	594.4
308.397	595
308.789	602.6
309.181	605
309.573	600
309.965	602
310.357	582.8
310.749	601.8
311.142	580.8
311.534	584.8
311.926	592.8
312.319	587.2
312.711	588.6
313.104	597.4
313.497	584
313.889	617.4
314.282	600.6
314.675	615
315.068	586.4
315.461	600.4
315.854	616.2
316.247	596.2
316.64	595.2
317.033	584.2
317.405	592.6
317.798	588.4
318.192	589.4
318.585	586.8
318.979	591.6
319.372	586.6
319.766	587.6
320.16	594.6
320.553	590.4
320.947	602.8
321.341	581
321.735	580.8
322.129	577.8
322.523	609
322.917	580.2
323.311	599.4
323.705	589
324.099	600.2
324.494	603.2
324.888	595.4
325.282	585.6
325.677	600
326.071	591
326.466	597.2
326.861	590.8
327.255	592.2
327.65	598.8
328.045	605.2
328.44	595
328.835	589
329.23	586.6
329.625	608.8
330.02	577
330.415	606.2
330.81	592.6
331.206	596.4
331.601	584.2
331.996	603
332.37	605.4
332.766	572.2
333.161	599.2
333.557	585.2
333.953	585.2
334.348	886.2
334.744	588.4
335.14	588.8
335.536	578.2
335.932	602.8
336.328	584.2
336.724	597
337.12	581
337.516	586.8
337.913	583.8
338.309	589.8
338.705	591.8
339.102	595.8
339.498	581
339.895	597.2
340.291	586.4
340.688	598.2
341.085	586.4
341.481	590.4
341.878	579.4
342.275	605.2
342.672	585.4
343.069	585.6
343.466	580.8
343.842	598.2
344.239	584
344.636	585.2
345.033	579
345.431	582.8
345.828	584
346.225	585.4
346.623	610
347.02	585.6
347.418	596.6
347.816	599
348.213	578.8
348.611	589.8
349.009	575.4
349.407	595.4
349.805	575.2
350.203	574.2
350.601	598.8
350.999	592.4
351.397	624
351.795	580
352.193	592.4
352.57	589.2
352.969	592.2
353.367	580.6
353.766	571.2
354.164	580
354.563	587.8
354.961	579.2
355.36	580.6
355.759	580.4
356.158	577.8
356.557	578.4
356.956	583.6
357.355	572.2
357.754	586.4
358.153	591
358.552	598.8
358.951	587.6
359.35	591.4
359.75	580.8
360.149	580.4
360.527	571.8
360.926	581
361.326	585.2
361.726	582.6
362.125	571.2
362.525	593.2
362.925	577.4
363.325	578
363.724	576.2
364.124	573.6
364.524	580.8
364.924	587
365.324	586.6
365.725	580.6
366.125	590.4
366.525	580.2
366.904	571.2
367.304	575.4
367.705	591
368.105	595.8
368.506	575.4
368.906	581.2
369.307	581.4
369.708	581.6
370.108	578
370.509	598.4
370.91	573.4
371.311	587.6
371.712	579.8
372.113	581.4
372.514	569.8
372.894	579.4
373.295	583.2
373.696	590.8
374.097	589.6
374.499	600.8
374.9	585.2
375.301	574
375.703	582.6
376.105	575.8
376.506	587.8
376.908	588
377.309	583
377.711	577.4
378.113	585
378.493	572
378.895	570
379.297	590
379.699	561
380.102	579.2
380.504	571
380.906	573.6
381.308	600
381.71	580.8
382.113	585.8
382.515	575.2
382.918	579.6
383.299	586.2
383.701	585.4
384.104	578.4
384.507	570.6
384.909	584.6
385.312	564.8
385.715	569.6
386.118	570.8
386.521	572
386.924	592.8
387.327	580.2
387.709	573.2
388.112	567.2
388.515	573
388.918	578.4
389.322	582.6
389.725	580.2
390.129	605.8
390.532	588
390.936	575
391.339	567.8
391.743	581.4
392.125	575.4
392.529	583.2
392.933	590.2
393.337	575
393.74	582.8
394.144	581.8
394.548	577.2
394.953	576
395.357	579.6
395.761	578.4
396.144	586.4
396.548	582
396.952	588.2
397.357	581
397.761	573.4
398.166	573
398.57	578.8
398.975	571.2
399.379	579
399.763	615.2
400.168	584
400.572	583.2
400.977	569.6
401.382	590.8
401.787	585.8
402.192	591.4
402.597	593.8
403.002	573.8
403.386	585.2
403.791	590.2
404.197	567.2
404.602	577.8
405.007	578.2
405.413	584.4
405.818	577.6
406.224	573.2
406.608	579.6
407.014	571.4
407.42	596.6
407.825	580
408.231	580.6
408.637	585.8
409.043	596.4
409.449	574.8
409.834	574
410.24	581.4
410.646	588.8
411.052	585.6
411.458	581.6
411.865	590.8
412.271	588.2
412.677	586.6
413.062	578.4
413.469	578.2
413.875	603.4
414.282	590.8
414.689	585.4
415.095	581.4
415.502	574.4
415.888	582.6
416.294	571.4
416.701	613.2
417.108	576.2
417.515	582
417.923	575.6
418.33	594.6
418.715	583
419.123	579.2
419.53	578.6
419.937	588.4
420.345	592
420.752	579.2
421.16	593.4
421.546	577
421.953	589.4
422.361	570.8
422.769	583.2
423.177	570
423.585	594.6
423.992	598.4
424.379	590.8
424.787	589
425.195	595.8
425.603	581.2
426.011	593.6
426.419	596.8
426.806	592.8
427.214	583
427.623	589.4
428.031	593.8
428.44	589.2
428.848	599.6
429.235	593.2
429.644	583.8
430.053	581.4
430.461	586.6
430.87	606.4
431.279	588.8
431.666	582
432.075	583
432.484	582.2
432.893	584
433.302	598.2
433.711	606.4
434.099	585.2
434.508	585.2
434.918	569.2
435.327	587.2
435.737	582.6
436.125	578.4
436.534	585.6
436.944	586.2
437.353	586
437.763	598
438.173	585.2
438.561	585.4
438.971	576.6
439.381	577
439.791	575.2
440.201	565.2
440.589	580.8
440.999	593
441.409	578.6
441.819	578.6
442.23	584.2
442.619	582.8
443.029	582.8
443.439	582.6
443.85	582.2
444.26	589
444.649	587.6
445.06	577.8
445.471	576.8
445.881	585
446.292	589.8
446.682	603.4
447.092	568.6
447.503	617.6
447.914	580.2
448.325	579.2
448.715	574.8
449.126	570.6
449.537	573
449.948	576.6
450.338	579.8
450.75	586.4
451.161	578.4
451.572	585.2
451.984	578.6
452.374	554.6
452.786	580
453.197	581.4
453.609	582.2
453.999	562.8
454.411	574.6
454.823	585.4
455.235	580.2
455.647	576.2
456.037	578
456.449	569.6
456.862	575.2
457.274	580.2
457.665	568.6
458.077	583.6
458.489	599.4
458.902	568.8
459.293	580
459.705	581.2
460.118	574
460.53	583.2
460.921	576.8
461.334	580.4
461.747	579.8
462.16	593.6
462.551	593.4
462.964	579.4
463.377	568.4
463.79	572.4
464.182	580.4
464.595	576.6
465.008	575.2
465.421	574.8
465.813	575.4
466.226	579.6
466.64	578.2
467.053	611.2
467.445	580.6
467.859	592.4
468.272	575.8
468.686	579.6
469.078	566.4
469.492	568
469.906	575.4
470.298	580
470.712	571.8
471.126	612.6
471.54	565
471.933	572.2
472.347	574
472.761	571.8
473.175	564.4
473.568	568.8
473.982	567.6
474.397	575.8
474.79	572
475.204	582.6
475.619	572.4
476.033	579
476.426	571
476.841	570.8
477.256	587.2
477.649	563.6
478.064	570.6
478.479	575.8
478.872	562.4
479.287	558.8
479.702	563.2
480.118	567.2
480.511	571.2
480.927	573.4
481.342	570.2
481.736	570.2
482.151	568.8
482.566	578.6
482.96	571.2
483.376	575.6
483.792	563.4
484.186	570.8
484.602	576.6
485.017	574
485.412	572.2
485.827	572.6
486.243	573.6
486.638	586
487.054	575.2
487.47	588.2
487.865	573
488.281	565.2
488.697	574.6
489.092	577
489.508	568.2
489.925	578
490.32	567.4
490.736	581.4
491.153	572.8
491.548	576.2
491.964	576.2
492.381	560
492.776	572.8
493.193	575.8
493.61	578.2
494.006	576.2
494.422	581.6
494.84	569.2
495.235	577.4
495.652	578.2
496.069	575
496.465	568.2
496.883	570
497.3	598.8
497.696	563
498.113	573.8
498.509	569.4
498.927	554.4
499.344	562.8
499.741	554.2
500.158	573
500.576	579.4
500.973	572.2
501.39	571.4
501.787	565.8
502.205	570.6
502.623	563.8
503.02	563.6
503.438	569.4
503.856	570.4
504.253	580.2
504.671	569.8
505.068	568.4
505.486	571.4
505.905	584.2
506.302	574
506.72	584.4
507.118	560
507.536	573.8
507.955	576.6
508.352	573.8
508.771	569.4
509.169	577.4
509.587	565.2
510.006	572.4
510.404	566.8
510.823	566.6
511.221	565.4
511.64	567.4
512.038	574.8
512.457	571.4
512.877	568
513.275	565.2
513.694	571.6
514.092	566.6
514.512	576.4
514.91	574.8
515.33	566.2
515.749	575.4
516.148	572.8
516.568	572.2
516.966	568
517.386	573.8
517.785	563.8
518.205	568.6
518.603	562.2
519.024	561.8
519.444	565.8
519.843	578.6
520.263	576
520.662	573.6
521.082	566.4
521.481	563.6
521.902	572.2
522.301	571.2
522.722	576.6
523.121	572.8
523.542	575.2
523.963	570
524.362	576.8
524.783	567.8
525.183	560.4
525.604	576.2
526.003	566.2
526.425	566.6
526.824	572.4
527.246	571.8
527.646	580
528.067	571.4
528.467	574.4
528.888	580.6
529.289	579.2
529.71	572.6
530.11	560.2
530.532	564.4
530.932	559.6
531.354	560.4
531.755	590.2
532.176	575.8
532.577	566.4
532.999	569.2
533.4	564.8
533.822	578.4
534.223	569.8
534.645	572.8
535.046	561.4
535.468	571.8
535.869	580.2
536.292	567.6
536.693	600.8
537.115	569.8
537.516	572.4
537.939	567.2
538.34	579.6
538.742	577.6
539.165	573
539.566	564.8
539.989	563.4
540.391	573.8
540.814	571.2
541.216	580.6
541.639	576.4
542.041	571.6
542.464	567.4
542.866	563.2
543.268	558.2
543.691	565.6
544.093	576
544.517	583.8
544.919	563.8
545.343	585
545.745	563.4
546.147	564.2
546.571	555.8
546.974	563.8
547.398	574.2
547.8	581.2
548.224	563.8
548.627	566.6
549.03	569.6
549.454	571
549.857	562.6
550.281	561.4
550.684	561.2
551.087	585.8
551.512	572.8
551.915	573.4
552.34	570
552.743	573.8
553.146	567.8
553.571	563.6
553.975	580.2
554.399	562.8
554.803	603.8
555.207	568.4
555.632	567.8
556.036	576
556.461	564.2
556.865	566.4
557.268	568.4
557.694	567.8
558.098	572.8
558.502	575
558.927	563
559.332	573.6
559.736	572.4
560.162	578.8
560.566	572.8
560.992	581.2
561.396	572
561.801	570.6
562.227	572.6
562.631	570.6
563.036	565.2
563.462	576
563.867	568.6
564.272	559.6
564.698	573.6
565.103	562.2
565.508	584.8
565.935	568.8
566.34	569.6
566.745	581.6
567.172	571
567.577	580.8
567.982	581.6
568.409	573
568.815	567.8
569.22	566
569.626	572
570.053	559.6
570.459	574.2
570.865	570
571.292	569.4
571.698	569
572.104	554.6
572.531	564.2
572.937	575.8
573.343	573.6
573.75	563.6
574.177	561.8
574.583	576.6
574.99	564.4
575.396	566.8
575.824	569.6
576.231	576.6
576.637	561.2
577.065	583.6
577.472	563.8
577.879	565
578.286	571.4
578.714	558
579.121	560.8
579.528	571
579.935	575.2
580.364	563
580.771	559.2
581.178	565.8
581.585	563.2
582.014	571
582.421	562.8
582.829	562.8
583.236	570.8
583.644	567
584.073	563.2
584.481	560.8
584.889	566
585.296	571.8
585.726	569
586.134	563.6
586.542	564
586.95	582
587.358	568
587.787	566.6
588.196	578.6
588.604	566.6
589.012	565
589.421	558
589.851	567
590.259	567.4
590.668	568.6
591.076	602
591.485	557.2
591.894	570.2
592.324	574.6
592.733	576.4
593.142	554.8
593.551	564
593.96	560.2
594.369	565.8
594.8	561.2
595.209	556.8
595.618	557.2
596.028	558.8
596.437	555.8
596.847	563
597.256	565.4
597.687	565
598.097	563.4
598.507	556
598.917	565.6
599.327	564.2
599.736	570.4
600.146	575
600.556	561.8
600.988	577.8
601.398	560.8
601.808	582.8
602.219	557.2
602.629	562.6
603.039	568
603.45	591.2
603.86	570
604.271	581.2
604.703	566.6
605.114	568.8
605.525	569.4
605.935	569.4
606.346	582.6
606.757	570
607.168	574.4
607.579	563.4
607.99	569.4
608.402	562.4
608.813	568.6
609.224	555.4
609.636	558.2
610.047	567.2
610.48	569.6
610.892	576.2
611.303	583.6
611.715	563.6
612.127	551.4
612.539	559
612.95	561
613.362	560.2
613.774	555.8
614.186	557.2
614.599	562.6
615.011	570.4
615.423	560.8
615.835	565.6
616.248	564
616.66	563.6
617.073	558.8
617.485	567.2
617.898	571
618.311	565
618.723	563.6
619.136	586.4
619.549	571.8
619.962	581.8
620.375	568.8
620.788	565.4
621.201	559
621.614	580.4
622.028	563.6
622.441	568.6
622.854	578
623.268	561.6
623.681	572.4
624.095	568.8
624.509	572.2
624.922	566.8
625.336	563.2
625.728	563.4
626.142	576.2
626.556	584.6
626.97	569
627.384	562
627.799	571.6
628.213	578.6
628.627	558.8
629.041	566.6
629.456	561.6
629.87	567
630.285	572
630.699	573.2
631.093	563.4
631.507	565.2
631.922	569
632.337	571.8
632.752	553.8
633.167	574.6
633.582	555.4
633.997	562
634.412	558.8
634.806	564.6
635.221	556
635.637	577.6
636.052	553.6
636.468	561
636.883	576.2
637.299	569.8
637.715	554.4
638.109	563.8
638.525	554.2
638.941	571.8
639.357	571.6
639.773	571.6
640.189	563.6
640.584	557.2
641	566.6
641.416	556
641.832	570.6
642.249	557.4
642.665	558
643.06	560
643.477	571.8
643.894	555.6
644.31	561.8
644.727	566.4
645.123	558.6
645.54	556.2
645.957	567.2
646.374	578
646.77	572.8
647.187	587.8
647.604	563.6
648.021	551.8
648.439	562.2
648.835	561.6
649.252	564.6
649.67	559.6
650.088	569.4
650.484	568.4
650.902	573
651.32	580
651.738	563.2
652.134	568.2
652.552	582
652.971	568.2
653.389	571.8
653.786	566.8
654.204	582.2
654.622	560.2
655.019	560
655.438	564
655.857	570.4
656.275	563
656.673	558.2
657.091	570.4
657.51	561.6
657.908	568.6
658.327	568.8
658.746	554.2
659.144	568.6
659.563	573.6
659.982	565.6
660.38	561.2
660.8	569.2
661.219	574.8
661.617	566.6
662.037	561
662.457	572.8
662.855	551.2
663.275	585.6
663.695	569
664.094	559
664.514	564.4
664.934	557.2
665.333	568.2
665.753	564.8
666.152	558.6
666.572	561.6
666.993	569.8
667.392	554.6
667.812	554.2
668.212	552
668.632	563.2
669.053	560.2
669.453	565.2
669.874	565.2
670.273	560.2
670.694	552.2
671.116	566.6
671.515	565.6
671.937	557
672.337	550.4
672.758	561.8
673.158	567.4
673.58	556
673.98	560.6
674.402	568.6
674.824	557.8
675.224	558.8
675.646	560.4
676.047	559
676.469	566
676.869	573.8
677.292	558.6
677.693	561.4
678.115	555
678.516	566.2
678.939	564.6
679.34	562.6
679.762	570
680.164	567.8
680.586	558.2
680.988	565
681.411	576.8
681.812	562.4
682.236	553.4
682.637	555.6
683.061	554
683.462	562.8
683.864	554
684.288	575.6
684.69	551.4
685.114	570
685.516	576.2
685.94	563.2
686.342	570.6
686.766	564
687.168	559
687.571	584.6
687.995	562.2
688.398	554
688.822	561.6
689.225	573
689.628	572.8
690.052	564.8
690.456	578
690.88	564.2
691.284	551.4
691.687	560
692.112	551
692.515	555.2
692.919	564.6
693.344	566.8
693.747	564.4
694.173	556.4
694.577	565.6
694.98	562
695.406	563.4
695.81	559
696.214	565.4
696.64	565
697.044	564.6
697.448	567.6
697.874	556.4
698.279	563.4
698.684	566.8
699.11	562
699.514	557.4
699.919	558.6
700.324	553
700.75	566.4
701.156	567
701.561	569
701.987	565.8
702.393	571.2
702.798	574.6
703.203	561.6
703.63	559.8
704.036	559.6
704.442	567.8
704.847	563
705.274	558
705.68	564.2
706.086	565.6
706.492	560.8
706.92	557.4
707.326	577.6
707.732	553.6
708.139	559.8
708.545	548.2
708.973	555.8
709.38	562.2
709.786	552.4
710.193	569.6
710.6	562
711.028	567.2
711.435	559.4
711.842	557
712.249	553.6
712.656	561
713.064	566
713.492	552
713.9	558
714.307	560.6
714.715	560.8
715.123	560.4
715.53	564.2
715.938	570
716.367	562
716.775	560.2
717.184	552.4
717.592	558.8
718	566.4
718.408	588.6
718.816	594.8
719.225	560.6
719.633	563.8
720.042	559.2
720.472	563.6
720.881	585
721.29	564.6
721.699	557.6
722.108	569
722.517	562.4
722.926	552.8
723.335	567
723.744	556.6
724.154	562.6
724.563	564.6
724.973	560.4
725.382	557.8
725.792	562
726.202	558.4
726.612	570.4
727.022	554.2
727.432	561.4
779.813	553.4
780.223	591.2
780.634	557.2
781.044	555.2
781.454	552.4
781.865	564.6
782.276	554
782.686	563.6
783.097	554.2
783.508	551.4
783.919	565.6
784.33	563.8
784.741	564
785.152	555.4
785.563	556.6
785.974	552.4
786.386	565.4
786.776	556.4
787.188	554.6
787.599	554.4
788.011	566.2
788.423	556.6
788.835	555.6
789.247	548.2
789.659	558.8
790.071	559.6
790.483	590.6
790.874	561.8
791.286	566
791.699	557.4
792.111	554.6
792.524	556.6
792.937	551.8
793.349	553
793.741	552.4
794.154	560.4
794.567	585.8
794.98	553
795.393	547.4
795.785	578.4
796.198	562.2
796.612	567
797.026	558.4
797.439	545.6
797.831	562.4
798.245	552.8
798.659	563
799.073	552
799.487	554.2
799.88	558.6
800.294	567.2
800.708	571.4
801.123	559.6
801.516	570.6
801.93	556
802.345	546.6
802.76	558.8
803.153	572
803.568	568.4
803.983	565.4
804.377	562
804.792	546.6
805.207	542.4
805.601	560
806.016	577.8
806.432	555.6
806.826	587.6
807.242	573.8
807.658	564.2
808.052	555.4
808.468	553.2
808.884	556.6
809.279	555.4
809.695	577
810.111	578.6
810.506	566.6
810.922	570.4
811.339	563.4
811.734	562.4
812.151	558.4
812.546	563.6
812.963	553.8
813.38	562.8
813.776	557
814.193	572.8
814.589	553.4
815.006	553.2
815.402	548.4
815.82	552.6
816.237	553.8
816.633	559.4
817.051	548.4
817.448	555
817.866	547.4
818.262	576
818.68	550.8
819.077	552
819.495	549.6
819.892	588.6
820.311	548.8
820.708	555.8
821.127	553
821.524	565.2
821.943	555
822.34	568.8
822.759	569.4
823.157	557
823.576	572.2
823.974	567.4
824.393	589.4
824.791	553.8
825.189	551
825.609	551
826.007	555.2
826.427	550
826.826	553.4
827.246	561.8
827.644	553
828.043	566.6
828.463	559
828.862	567.6
829.261	565
829.682	552
830.081	565.2
830.502	553.4
830.901	560.4
831.301	572.4
831.722	549.8
832.121	556.2
832.521	549.8
832.943	550.6
833.342	556.2
833.742	548.6
834.164	554.4
834.564	550.8
834.965	559.6
835.386	551.6
835.787	562.4
836.188	559.6
836.588	555.6
837.01	551.2
837.411	558
837.812	561.6
838.213	561.2
838.636	555.2
839.037	612.6
839.438	548.8
839.84	556
840.263	552.6
840.664	564.2
841.066	554
841.468	557.6
841.891	549.6
842.293	565
842.695	567.2
843.098	561.6
843.5	551.2
843.902	565.2
844.326	560
844.729	556.6
845.131	568.2
845.534	559.6
845.937	571.4
846.34	573
846.764	547.6
847.167	563.2
847.571	552
847.974	554.6
848.377	553.6
848.781	584
849.184	562.8
849.588	552.2
849.992	547.6
850.396	562.6
850.821	570.8
851.225	560.4
851.63	559
852.034	563.2
852.438	554
852.843	625.4
853.247	551.4
853.652	552
854.057	573.8
854.462	562.4
854.867	572.4
855.272	583.4
855.677	555.6
856.082	541.8
856.487	544.6
