#lambda/nm	C1
208.295	567.8
208.67	499.2
209.045	472.8
209.419	463.8
209.794	589
210.169	575.2
210.544	668
210.919	590.8
211.295	577.6
211.67	587.2
212.045	578
212.421	579.4
212.796	608.6
213.172	568.8
213.547	580.6
213.923	582
214.299	582.8
214.675	588.4
215.051	589.4
215.427	597.8
215.803	597.8
216.179	588.4
216.555	585.4
216.932	585.6
217.308	581.2
217.684	589
218.061	583.2
218.438	588.6
218.814	585.2
219.191	587.8
219.568	579
219.945	578.4
220.322	584.8
220.699	578.8
221.076	594.6
221.453	583
221.83	576
222.208	577.2
222.585	580.2
222.962	588.2
223.34	581.4
223.717	583.4
224.095	583.6
224.473	581.8
224.851	575
225.229	570
225.607	594.6
225.985	569.2
226.363	585.2
226.741	575.6
227.119	582.2
227.497	583.2
227.876	576
228.254	588.4
228.633	587
229.011	578
229.39	585.8
229.769	579.6
230.148	585
230.527	591.4
230.905	580.4
231.284	579.8
231.664	578.4
232.043	584.2
232.422	592.2
232.801	580.2
233.181	583.4
233.56	570.2
233.94	582.2
234.319	567
234.699	580.4
235.079	612
235.458	611.6
235.838	596
236.218	575
236.598	568.4
236.978	579.4
237.358	572.2
237.738	575.8
238.119	585.8
238.499	570
238.88	580.4
239.26	589.4
239.641	563.8
240.021	581
240.402	574.2
240.783	573.4
241.163	577.6
241.544	586.6
241.925	579.2
242.306	588.6
242.687	579.4
243.069	580.2
243.45	586.6
243.831	577.6
244.212	586.2
244.594	612.2
244.975	586.2
245.357	578
245.739	574.4
246.12	589.2
246.502	596.2
246.884	578
247.266	579.2
247.648	583.4
248.03	591.6
248.412	573.8
248.794	584.8
249.176	579.4
249.559	578.2
249.941	580.4
250.323	572.2
250.706	577.4
251.089	583
251.471	579.6
251.854	577.6
252.237	574.2
252.62	588.8
253.002	576.8
253.385	581
253.769	582.2
254.152	575
254.535	576.8
254.918	580.8
255.301	578.4
255.685	579.6
256.068	576.8
256.452	599.6
256.835	587.8
257.219	582.6
257.603	588.6
257.986	573.6
258.37	584.6
258.754	570.4
259.138	583.6
259.522	589
259.906	580.2
260.29	585
260.675	578.8
261.059	581.6
261.443	577.2
261.828	584.6
262.212	587.4
262.597	571.8
262.981	571
263.366	578
263.751	579
264.136	581.2
264.521	577.4
264.906	573.8
265.291	588.6
265.676	574
266.061	589
266.446	592.6
266.831	579.6
267.217	590
267.602	583.2
267.987	582.4
268.373	583.2
268.759	590.8
269.144	591.2
269.53	584.2
269.916	578
270.302	578.8
270.688	584.8
271.074	578.4
271.46	585.2
271.846	608.2
272.232	579.8
272.618	577
273.004	577
273.391	587
273.777	592
274.164	586.8
274.55	592.4
274.937	582.6
275.324	577.2
275.71	587
276.097	585.4
276.484	577.8
276.871	582.6
277.258	579.4
277.645	565.2
278.032	579.4
278.419	583.8
278.807	584.4
279.194	579.4
279.581	570.4
279.969	589.2
280.356	582.6
280.744	579.6
281.131	604
281.519	585.8
281.907	580.8
282.295	580.8
282.682	585.2
283.07	577.6
283.458	589
283.846	593
284.235	594.6
284.623	589
285.011	569
285.399	584.2
285.788	575.4
286.176	569.6
286.565	588.2
286.953	580.2
287.342	573
287.731	572
288.119	577
288.508	578.6
288.897	574.8
289.286	569.4
289.675	577.2
290.064	580.4
290.453	573
290.821	580.2
291.21	587.2
291.599	578.2
291.989	577.4
292.378	590.8
292.768	589.6
293.157	586
293.547	584.4
293.936	576
294.326	585
294.716	576.2
295.106	573.6
295.496	583.2
295.886	590
296.276	579.8
296.666	577.8
297.056	570.6
297.446	571.2
297.836	589.4
298.227	579
298.617	582.2
299.008	596.2
299.398	579
299.789	581.6
300.179	586.4
300.57	582.8
300.961	569.8
301.352	581
301.742	579.6
302.133	577.8
302.524	580
302.915	586
303.307	575.8
303.698	590.2
304.089	585.2
304.48	584.8
304.872	583.8
305.263	582.4
305.655	575
306.046	583
306.438	585.8
306.829	572.4
307.221	588.4
307.613	585.2
308.005	587.4
308.397	588.8
308.789	595.4
309.181	606.4
309.573	592.6
309.965	596.8
310.357	577.4
310.749	590
311.142	575.6
311.534	579.4
311.926	589.2
312.319	584.6
312.711	575.6
313.104	594.8
313.497	586.2
313.889	609
314.282	588.6
314.675	595.4
315.068	580.8
315.461	581.2
315.854	608.4
316.247	587.2
316.64	584.8
317.033	584
317.405	582.8
317.798	584.4
318.192	583.2
318.585	569.6
318.979	591.6
319.372	580.8
319.766	582
320.16	585.4
320.553	591
320.947	595.4
321.341	581.6
321.735	574.6
322.129	571.6
322.523	590.2
322.917	577.4
323.311	592.4
323.705	578.6
324.099	584.6
324.494	591.2
324.888	589.4
325.282	578.8
325.677	581.2
326.071	579.6
326.466	600.8
326.861	579
327.255	587.8
327.65	594.4
328.045	592.2
328.44	572.4
328.835	578
329.23	577.4
329.625	599
330.02	568
330.415	590.8
330.81	582.6
331.206	583.2
331.601	575.6
331.996	580.6
332.37	587
332.766	571
333.161	598.6
333.557	579.4
333.953	577.4
334.348	857.4
334.744	579.8
335.14	574.8
335.536	580.4
335.932	584.6
336.328	584
336.724	584
337.12	577.4
337.516	582.2
337.913	573.8
338.309	592.6
338.705	585.4
339.102	581.8
339.498	571.4
339.895	588
340.291	576.2
340.688	585.2
341.085	578.6
341.481	577.6
341.878	576.6
342.275	600
342.672	576.4
343.069	571.2
343.466	570
343.842	591.2
344.239	569.6
344.636	577
345.033	571.6
345.431	575
345.828	583
346.225	574
346.623	602.2
347.02	579.6
347.418	589.6
347.816	593
348.213	577.2
348.611	584.4
349.009	582.6
349.407	595.8
349.805	570
350.203	564.6
350.601	592.6
350.999	568
351.397	623.2
351.795	576.4
352.193	587.4
352.57	581.4
352.969	587
353.367	567.2
353.766	567.4
354.164	573.6
354.563	584.6
354.961	574.2
355.36	575.6
355.759	578.6
356.158	568.2
356.557	571.6
356.956	573.2
357.355	568.8
357.754	576.8
358.153	588.8
358.552	590.2
358.951	583.6
359.35	585
359.75	568.2
360.149	573.2
360.527	569.4
360.926	573.8
361.326	579.8
361.726	573.8
362.125	575.6
362.525	583.8
362.925	571.2
363.325	569
363.724	578.8
364.124	573
364.524	572.8
364.924	573.4
365.324	582.2
365.725	559.4
366.125	581.4
366.525	576.6
366.904	575.8
367.304	567.2
367.705	590.4
368.105	586.8
368.506	575
368.906	569.4
369.307	578.2
369.708	574.6
370.108	556.8
370.509	589.2
370.91	574.6
371.311	583.4
371.712	583.4
372.113	570.8
372.514	569.6
372.894	572.2
373.295	568.8
373.696	579
374.097	583.4
374.499	594
374.9	572
375.301	576.8
375.703	573
376.105	561
376.506	573.6
376.908	584
377.309	575.4
377.711	579.8
378.113	569
378.493	579.6
378.895	574.2
379.297	579.6
379.699	561.6
380.102	580.8
380.504	575
380.906	572.8
381.308	592.6
381.71	575.8
382.113	586.2
382.515	578.8
382.918	583.8
383.299	574.2
383.701	590.6
384.104	573
384.507	564.4
384.909	569.4
385.312	564.6
385.715	560.4
386.118	569.4
386.521	560.2
386.924	578.6
387.327	568.8
387.709	563.2
388.112	557.6
388.515	567
388.918	564.8
389.322	568.4
389.725	559
390.129	584.6
390.532	572.4
390.936	566
391.339	568.8
391.743	569.8
392.125	567
392.529	581.8
392.933	585.4
393.337	572.6
393.74	573.2
394.144	570.8
394.548	569.2
394.953	570.4
395.357	577.2
395.761	574.4
396.144	567.6
396.548	565.6
396.952	568
397.357	574.6
397.761	563.8
398.166	566
398.57	571
398.975	565.8
399.379	574.6
399.763	614.6
400.168	569.4
400.572	577.8
400.977	577.4
401.382	583.8
401.787	583
402.192	584.2
402.597	576.8
403.002	558
403.386	577.4
403.791	586.6
404.197	570.2
404.602	574.2
405.007	573.8
405.413	576.6
405.818	576.2
406.224	566.4
406.608	573
407.014	570.8
407.42	583.8
407.825	567.2
408.231	575.4
408.637	567.2
409.043	592.8
409.449	569.6
409.834	573.8
410.24	568.4
410.646	580.8
411.052	581.6
411.458	580
411.865	571.2
412.271	578.2
412.677	574.8
413.062	581.6
413.469	568.8
413.875	600
414.282	588.6
414.689	577.2
415.095	574.6
415.502	574.2
415.888	571
416.294	566.6
416.701	607
417.108	567.8
417.515	575.8
417.923	567.2
418.33	590.6
418.715	578.2
419.123	572.8
419.53	571.6
419.937	574.8
420.345	580.8
420.752	574.2
421.16	580.2
421.546	576.4
421.953	577.8
422.361	569
422.769	575.2
423.177	568.6
423.585	588.4
423.992	588.2
424.379	575.6
424.787	579.6
425.195	584
425.603	571.6
426.011	580
426.419	587.8
426.806	568.2
427.214	573.8
427.623	579
428.031	593.4
428.44	578
428.848	580.4
429.235	583.4
429.644	576.4
430.053	572.6
430.461	582.6
430.87	593.4
431.279	583
431.666	565.6
432.075	574.6
432.484	582.4
432.893	573.4
433.302	588.6
433.711	598.8
434.099	576
434.508	576.4
434.918	571.6
435.327	583.6
435.737	568.4
436.125	575.2
436.534	578.6
436.944	575.4
437.353	572
437.763	584.6
438.173	563.6
438.561	581.2
438.971	556
439.381	567.6
439.791	571.4
440.201	554.4
440.589	573.6
440.999	577.8
441.409	572.2
441.819	565.8
442.23	579.2
442.619	580.2
443.029	577.8
443.439	567.8
443.85	577.6
444.26	581.8
444.649	571.8
445.06	572
445.471	567.2
445.881	572.2
446.292	584.4
446.682	590
447.092	557.8
447.503	619.6
447.914	572.2
448.325	567.2
448.715	579.6
449.126	573.4
449.537	570.2
449.948	570.8
450.338	572
450.75	577.2
451.161	572.4
451.572	578
451.984	565.2
452.374	557.4
452.786	569
453.197	565.2
453.609	571.4
453.999	560
454.411	565
454.823	577.4
455.235	567
455.647	568
456.037	571.4
456.449	559.6
456.862	564.8
457.274	569.6
457.665	561
458.077	569
458.489	590.8
458.902	569.2
459.293	574.2
459.705	569
460.118	571.4
460.53	570.2
460.921	566.6
461.334	573.4
461.747	574
462.16	578
462.551	578.4
462.964	578.4
463.377	557.2
463.79	576.2
464.182	569.2
464.595	560
465.008	574
465.421	572.4
465.813	568.2
466.226	570.4
466.64	567.2
467.053	606.8
467.445	576.4
467.859	577.2
468.272	572.8
468.686	583.8
469.078	567.6
469.492	555.2
469.906	572.4
470.298	574.6
470.712	571.8
471.126	605.2
471.54	557.8
471.933	566.4
472.347	567.8
472.761	566.2
473.175	561
473.568	565.2
473.982	564.2
474.397	562.4
474.79	571.2
475.204	568.6
475.619	561
476.033	573
476.426	557.8
476.841	565.4
477.256	589.2
477.649	562
478.064	561.6
478.479	561
478.872	566
479.287	552.2
479.702	554.4
480.118	572
480.511	564.4
480.927	567.2
481.342	563.4
481.736	571.6
482.151	558
482.566	564.8
482.96	565
483.376	571
483.792	557.8
484.186	564
484.602	556.8
485.017	564
485.412	563
485.827	567.2
486.243	572.6
486.638	578.8
487.054	572.4
487.47	575
487.865	567.8
488.281	562
488.697	563.2
489.092	562
489.508	557.8
489.925	576.6
490.32	556.2
490.736	565
491.153	568.4
491.548	565
491.964	576
492.381	555.8
492.776	567.4
493.193	569
493.61	572.8
494.006	570.2
494.422	567.6
494.84	556
495.235	571.2
495.652	566.8
496.069	563.2
496.465	563
496.883	557.4
497.3	583.8
497.696	566.4
498.113	576.2
498.509	561
498.927	556.6
499.344	565.8
499.741	557.8
500.158	568.4
500.576	571.4
500.973	565.6
501.39	566.4
501.787	561.2
502.205	569.4
502.623	562.8
503.02	557
503.438	560.2
503.856	561.4
504.253	564.2
504.671	571.4
505.068	557.4
505.486	568
505.905	578.8
506.302	565.2
506.72	565.6
507.118	552.8
507.536	560.2
507.955	566
508.352	573.8
508.771	569.2
509.169	571
509.587	561.2
510.006	568.4
510.404	555
510.823	560.4
511.221	564
511.64	561.2
512.038	570.6
512.457	569.8
512.877	563.6
513.275	564.8
513.694	559
514.092	558
514.512	568
514.91	571.8
515.33	564.4
515.749	568.8
516.148	569.2
516.568	569.6
516.966	561.6
517.386	561.2
517.785	566.2
518.205	563.2
518.603	559.4
519.024	558.6
519.444	563
519.843	569.2
520.263	572.8
520.662	561.2
521.082	558
521.481	553.2
521.902	559.8
522.301	559.4
522.722	561.4
523.121	566.6
523.542	559.2
523.963	559.4
524.362	562.8
524.783	562.4
525.183	558.6
525.604	563.8
526.003	554.6
526.425	559.8
526.824	570.8
527.246	555.2
527.646	573.2
528.067	560
528.467	567.6
528.888	570.2
529.289	559
529.71	560.8
530.11	561.2
530.532	568.2
530.932	552
531.354	552
531.755	580.2
532.176	566.8
532.577	561.8
532.999	566
533.4	553.6
533.822	568.8
534.223	571.6
534.645	569.8
535.046	559.6
535.468	560.2
535.869	570.2
536.292	565.2
536.693	593
537.115	566.4
537.516	564.2
537.939	563
538.34	581
538.742	573.2
539.165	559.2
539.566	562.4
539.989	554.4
540.391	559
540.814	559.4
541.216	574.4
541.639	553
542.041	564
542.464	556
542.866	559.4
543.268	556.2
543.691	565.2
544.093	569.4
544.517	569
544.919	555.2
545.343	578
545.745	554.4
546.147	562.2
546.571	557.2
546.974	556.6
547.398	564.2
547.8	573.2
548.224	562.2
548.627	553.6
549.03	565.2
549.454	556.8
549.857	556
550.281	560.8
550.684	554.4
551.087	568.2
551.512	562.8
551.915	562.8
552.34	564.6
552.743	563
553.146	560.2
553.571	556.2
553.975	577.6
554.399	553.2
554.803	592.2
555.207	564.4
555.632	562.8
556.036	558.8
556.461	555.8
556.865	561.6
557.268	558.6
557.694	567
558.098	572
558.502	570.8
558.927	557
559.332	563.4
559.736	563.6
560.162	569
560.566	561.2
560.992	568
561.396	564.4
561.801	563.2
562.227	564.4
562.631	562.2
563.036	563.6
563.462	568.6
563.867	562.2
564.272	555
564.698	563.6
565.103	558.8
565.508	572.8
565.935	567.6
566.34	556
566.745	571.6
567.172	563
567.577	573.8
567.982	567.6
568.409	569.4
568.815	556.2
569.22	565
569.626	570
570.053	556.2
570.459	561.6
570.865	572
571.292	565.4
571.698	561.6
572.104	557.2
572.531	559.2
572.937	571.6
573.343	557.2
573.75	555.8
574.177	565.4
574.583	567.4
574.99	559.4
575.396	566.2
575.824	560.2
576.231	570.6
576.637	565
577.065	575.4
577.472	554.4
577.879	562.6
578.286	570.4
578.714	554.4
579.121	556.2
579.528	558.6
579.935	568.2
580.364	563.2
580.771	541
581.178	552.2
581.585	553.2
582.014	570
582.421	551.2
582.829	552.8
583.236	559.8
583.644	553.4
584.073	554.2
584.481	564.2
584.889	552.6
585.296	563.8
585.726	559.2
586.134	556
586.542	552
586.95	564.4
587.358	546.4
587.787	565.6
588.196	568.6
588.604	555.4
589.012	559.2
589.421	550
589.851	553.2
590.259	561.2
590.668	559.8
591.076	599.2
591.485	560.2
591.894	560.4
592.324	562.4
592.733	571.2
593.142	547
593.551	557.4
593.96	562.8
594.369	559.2
594.8	553
595.209	559.8
595.618	552.2
596.028	554.2
596.437	553.4
596.847	564.8
597.256	565
597.687	559.6
598.097	553.4
598.507	556.6
598.917	556.4
599.327	559.4
599.736	567.8
600.146	567.2
600.556	560
600.988	568.2
601.398	565.4
601.808	568.6
602.219	547.6
602.629	557.2
603.039	564.6
603.45	584.4
603.86	559.2
604.271	575.2
604.703	564.4
605.114	555.2
605.525	561.4
605.935	563.6
606.346	575.2
606.757	559.4
607.168	559
607.579	558.4
607.99	566.2
608.402	555.8
608.813	562.2
609.224	556
609.636	547.8
610.047	562.4
610.48	564
610.892	566.2
611.303	568.4
611.715	557.4
612.127	551.8
612.539	555.6
612.95	558.6
613.362	548.8
613.774	554.4
614.186	555.6
614.599	558.6
615.011	564
615.423	559.6
615.835	551.8
616.248	548
616.66	565.2
617.073	547.2
617.485	553.8
617.898	559
618.311	554.4
618.723	554.4
619.136	573.2
619.549	568
619.962	570
620.375	550.8
620.788	558.6
621.201	546.4
621.614	559.8
622.028	551
622.441	557.6
622.854	567.2
623.268	556.2
623.681	566.4
624.095	560.2
624.509	568.6
624.922	560.2
625.336	550.6
625.728	553.4
626.142	564.2
626.556	578.6
626.97	561.2
627.384	550.2
627.799	554.8
628.213	567.8
628.627	559.4
629.041	558
629.456	558.2
629.87	562.2
630.285	563.8
630.699	560.2
631.093	561
631.507	566.4
631.922	559.4
632.337	560.2
632.752	551.8
633.167	557.4
633.582	560.2
633.997	553
634.412	554.8
634.806	561.6
635.221	550.2
635.637	567.8
636.052	551
636.468	556.8
636.883	573.8
637.299	557.8
637.715	548
638.109	559.2
638.525	554.4
638.941	560.2
639.357	554
639.773	571.8
640.189	551.2
640.584	555.6
641	560.8
641.416	549
641.832	559.6
642.249	552.2
642.665	560.2
643.06	566.4
643.477	571.6
643.894	543.6
644.31	553.6
644.727	558.4
645.123	560.6
645.54	551.2
645.957	558.6
646.374	570
646.77	562.2
647.187	585
647.604	555.8
648.021	547.4
648.439	550.6
648.835	558.4
649.252	556.6
649.67	549.8
650.088	553.6
650.484	557.6
650.902	563.6
651.32	568.4
651.738	555
652.134	555.8
652.552	574.2
652.971	559.2
653.389	558.6
653.786	564.6
654.204	574
654.622	555.6
655.019	560.8
655.438	565.8
655.857	559.2
656.275	560.2
656.673	559.6
657.091	562.8
657.51	555.6
657.908	565
658.327	571.6
658.746	547.2
659.144	564.2
659.563	569.8
659.982	560.8
660.38	549.8
660.8	552.4
661.219	568.6
661.617	565
662.037	558
662.457	567.8
662.855	546.6
663.275	573
663.695	559
664.094	551.6
664.514	554.6
664.934	556
665.333	570
665.753	561.2
666.152	547.4
666.572	547.2
666.993	568.6
667.392	548.6
667.812	555.6
668.212	556.6
668.632	567.4
669.053	556
669.453	554.6
669.874	558.2
670.273	558.6
670.694	550.8
671.116	568.8
671.515	558.2
671.937	551
672.337	555.2
672.758	552.8
673.158	564.6
673.58	544.4
673.98	559
674.402	568.4
674.824	559.4
675.224	557.2
675.646	553.6
676.047	557.4
676.469	559
676.869	549.6
677.292	552
677.693	547.6
678.115	541.6
678.516	553.6
678.939	558
679.34	555.4
679.762	563.8
680.164	555.8
680.586	545.6
680.988	555.8
681.411	571
681.812	552.6
682.236	550.4
682.637	553.2
683.061	547.4
683.462	558.4
683.864	561.8
684.288	557.8
684.69	546.8
685.114	563.2
685.516	565.4
685.94	541
686.342	567.4
686.766	549.6
687.168	548.4
687.571	560.8
687.995	557.6
688.398	549.4
688.822	550.2
689.225	573.6
689.628	574.8
690.052	556.2
690.456	564.2
690.88	557.4
691.284	546
691.687	557.2
692.112	546.4
692.515	547
692.919	554.4
693.344	559.4
693.747	555
694.173	544.8
694.577	563.6
694.98	551.2
695.406	556.6
695.81	554.4
696.214	557.8
696.64	557.6
697.044	554.4
697.448	558.8
697.874	547.8
698.279	560.6
698.684	551
699.11	552.6
699.514	554.6
699.919	546.6
700.324	550
700.75	560.2
701.156	564
701.561	562.8
701.987	555.4
702.393	562.8
702.798	568.4
703.203	558.6
703.63	556.8
704.036	553
704.442	561.6
704.847	552.6
705.274	553.4
705.68	555.8
706.086	560.8
706.492	547.4
706.92	555
707.326	556.4
707.732	550
708.139	560.2
708.545	548.8
708.973	550.2
709.38	555.6
709.786	542.8
710.193	566.6
710.6	563.8
711.028	545.8
711.435	554.2
711.842	560.4
712.249	550
712.656	552.2
713.064	559.2
713.492	542.8
713.9	543.8
714.307	551.8
714.715	551
715.123	557.6
715.53	560.6
715.938	557.2
716.367	555.2
716.775	550.2
717.184	543.6
717.592	550.8
718	545.8
718.408	585
718.816	587.2
719.225	545.4
719.633	560
720.042	549.6
720.472	553.6
720.881	568.6
721.29	556.8
721.699	549
722.108	558.6
722.517	553
722.926	555
723.335	557
723.744	549.4
724.154	550.8
724.563	553.4
724.973	557.2
725.382	559.4
725.792	546.8
726.202	550.2
726.612	567.6
727.022	547.4
727.432	554.6
779.813	546.2
780.223	589.6
780.634	558
781.044	544.8
781.454	553
781.865	568
782.276	544
782.686	563.2
783.097	548.4
783.508	554.4
783.919	560.6
784.33	565.6
784.741	560.6
785.152	551
785.563	538.4
785.974	538
786.386	561.4
786.776	550.6
787.188	550.6
787.599	550.8
788.011	556.8
788.423	557
788.835	549.4
789.247	550.2
789.659	556.2
790.071	549.6
790.483	580.4
790.874	556
791.286	560.4
791.699	555.4
792.111	548.2
792.524	550.4
792.937	554.2
793.349	552.2
793.741	550.4
794.154	549.8
794.567	560.4
794.98	553
795.393	542.8
795.785	556.2
796.198	556.8
796.612	556.8
797.026	551.8
797.439	535.8
797.831	549.6
798.245	546.6
798.659	552
799.073	549.6
799.487	552.2
799.88	548.2
800.294	552.2
800.708	558.2
801.123	555
801.516	569.8
801.93	549.2
802.345	544.6
802.76	550.6
803.153	562.2
803.568	568.6
803.983	556.4
804.377	557
804.792	546.2
805.207	544.4
805.601	554.2
806.016	574.4
806.432	546.8
806.826	575.8
807.242	561
807.658	551.8
808.052	547.4
808.468	544
808.884	545.2
809.279	553.8
809.695	556.2
810.111	565.2
810.506	558.2
810.922	575.2
811.339	553.4
811.734	560.8
812.151	551.4
812.546	557
812.963	550.8
813.38	553.6
813.776	550.2
814.193	571.4
814.589	548.4
815.006	546.4
815.402	550
815.82	546.4
816.237	549.2
816.633	559.8
817.051	545
817.448	554
817.866	546.4
818.262	565.4
818.68	547.8
819.077	551.6
819.495	549.8
819.892	579
820.311	543.6
820.708	554
821.127	552
821.524	564
821.943	556
822.34	565.4
822.759	550
823.157	546.2
823.576	565
823.974	548.6
824.393	590.6
824.791	544.2
825.189	540
825.609	539.2
826.007	548.6
826.427	543.8
826.826	544
827.246	547
827.644	542.4
828.043	557.8
828.463	551.6
828.862	552.2
829.261	554
829.682	539.4
830.081	554.2
830.502	552.4
830.901	550.2
831.301	561
831.722	538.6
832.121	555.8
832.521	548.6
832.943	555.4
833.342	542
833.742	541.4
834.164	552.8
834.564	548
834.965	546
835.386	545.8
835.787	549.4
836.188	551.2
836.588	546.6
837.01	554
837.411	549.8
837.812	557.2
838.213	551
838.636	546.2
839.037	603.6
839.438	561
839.84	551.8
840.263	554.4
840.664	555.8
841.066	548.4
841.468	552.2
841.891	553
842.293	550
842.695	558.8
843.098	551
843.5	547.8
843.902	554.8
844.326	549.2
844.729	548.2
845.131	565.8
845.534	551.4
845.937	554
846.34	561
846.764	543.2
847.167	554.8
847.571	538.2
847.974	550.8
848.377	548.2
848.781	587
849.184	563.4
849.588	545.6
849.992	555.4
850.396	550
850.821	569.8
851.225	556.8
851.63	543.8
852.034	568.4
852.438	552.6
852.843	607.6
853.247	541.4
853.652	544.2
854.057	564.4
854.462	545.4
854.867	552.6
855.272	574.2
855.677	561.8
856.082	547.8
856.487	545
856.893	548
