#lambda/nm	C1
208.295	564.2
208.67	505.2
209.045	463.6
209.419	459.2
209.794	593.4
210.169	582
210.544	672
210.919	596.2
211.295	580.6
211.67	588.4
212.045	584.6
212.421	580.2
212.796	615.6
213.172	576.4
213.547	575.4
213.923	586.2
214.299	578.6
214.675	581.2
215.051	587
215.427	594
215.803	601.4
216.179	595.6
216.555	581
216.932	593.8
217.308	587.4
217.684	588.6
218.061	595
218.438	585.2
218.814	584.6
219.191	590.8
219.568	576.6
219.945	588.2
220.322	585.4
220.699	590.8
221.076	589.8
221.453	586.8
221.83	580.2
222.208	579
222.585	589.4
222.962	579.8
223.34	584.8
223.717	585.4
224.095	583
224.473	576.2
224.851	578.2
225.229	574.8
225.607	599.6
225.985	574.2
226.363	578.8
226.741	582.6
227.119	573.8
227.497	591.2
227.876	573.8
228.254	588.8
228.633	588
229.011	582.2
229.39	587.6
229.769	581.2
230.148	593
230.527	595.6
230.905	580.8
231.284	586.4
231.664	587.2
232.043	587.4
232.422	589.4
232.801	579.8
233.181	585
233.56	579.4
233.94	589.8
234.319	573.6
234.699	581.4
235.079	615
235.458	612
235.838	594.2
236.218	581
236.598	579.8
236.978	577
237.358	580.6
237.738	583.8
238.119	584.6
238.499	577.4
238.88	582.4
239.26	590.8
239.641	579.8
240.021	578.8
240.402	585
240.783	581
241.163	581.4
241.544	584
241.925	589.2
242.306	597.8
242.687	593.2
243.069	591.2
243.45	597.6
243.831	589.2
244.212	583.6
244.594	610.8
244.975	590.6
245.357	586.4
245.739	583
246.12	589
246.502	594.8
246.884	580.2
247.266	579.4
247.648	587.8
248.03	598.4
248.412	586.6
248.794	592.2
249.176	582
249.559	593.6
249.941	574.4
250.323	577.8
250.706	578.8
251.089	586.2
251.471	590.2
251.854	579
252.237	582.6
252.62	594.4
253.002	586.2
253.385	586
253.769	593.6
254.152	585
254.535	589
254.918	573
255.301	582.6
255.685	584.2
256.068	574
256.452	612
256.835	592.4
257.219	595.6
257.603	601.2
257.986	580.2
258.37	588.8
258.754	575
259.138	592.6
259.522	591.6
259.906	579.6
260.29	581.2
260.675	590.6
261.059	579.4
261.443	569.2
261.828	584.8
262.212	589.2
262.597	574
262.981	579
263.366	579.8
263.751	583.2
264.136	579.4
264.521	581.2
264.906	583.4
265.291	592.8
265.676	575.2
266.061	587.4
266.446	593.4
266.831	585
267.217	587
267.602	582.8
267.987	582.4
268.373	578.8
268.759	583.2
269.144	586.6
269.53	578
269.916	573.6
270.302	576.8
270.688	579.6
271.074	585.8
271.46	592.2
271.846	600.2
272.232	581.8
272.618	572
273.004	581.6
273.391	592.4
273.777	599.4
274.164	583.4
274.55	595.4
274.937	581.6
275.324	581.8
275.71	585.6
276.097	579.6
276.484	574
276.871	587.6
277.258	585.4
277.645	576.4
278.032	576
278.419	585.4
278.807	583.6
279.194	569.6
279.581	576.6
279.969	582.8
280.356	582.4
280.744	575.6
281.131	608.4
281.519	589.6
281.907	583
282.295	579.4
282.682	594.4
283.07	584.4
283.458	600.4
283.846	596.4
284.235	593.8
284.623	594.6
285.011	583.8
285.399	584.2
285.788	593.4
286.176	581.6
286.565	590.8
286.953	581
287.342	576.6
287.731	572.2
288.119	577.8
288.508	578.8
288.897	584.6
289.286	579
289.675	583.8
290.064	588.4
290.453	571.4
290.821	579.2
291.21	594.6
291.599	584.8
291.989	582.6
292.378	589.8
292.768	596.8
293.157	582
293.547	590.4
293.936	585.4
294.326	577
294.716	583.4
295.106	578.6
295.496	584.2
295.886	586.8
296.276	577.4
296.666	579.6
297.056	578.6
297.446	570.2
297.836	593.6
298.227	584.4
298.617	578.4
299.008	596.2
299.398	586.2
299.789	582.6
300.179	587
300.57	592.6
300.961	582.2
301.352	587.6
301.742	588.8
302.133	580.8
302.524	582
302.915	590
303.307	576.8
303.698	593.4
304.089	593
304.48	583
304.872	594.2
305.263	584.2
305.655	576.6
306.046	596.8
306.438	583.6
306.829	578.6
307.221	593.6
307.613	584.4
308.005	597.2
308.397	585.8
308.789	600.6
309.181	599.6
309.573	593
309.965	594
310.357	577.2
310.749	590.6
311.142	583.6
311.534	577.2
311.926	584.4
312.319	586.4
312.711	580.2
313.104	598
313.497	583.6
313.889	604.8
314.282	589.2
314.675	599.6
315.068	590.2
315.461	583.8
315.854	603.2
316.247	589.8
316.64	583.4
317.033	584
317.405	587.8
317.798	581.8
318.192	588.6
318.585	576.4
318.979	582.2
319.372	579
319.766	583.6
320.16	592.2
320.553	586.8
320.947	604.6
321.341	584.4
321.735	583.8
322.129	580.8
322.523	602.6
322.917	579.8
323.311	603.2
323.705	582.4
324.099	583
324.494	591.2
324.888	583.2
325.282	574
325.677	591.8
326.071	595.4
326.466	595
326.861	584
327.255	589
327.65	596.6
328.045	591.4
328.44	582
328.835	578.4
329.23	575.8
329.625	603.6
330.02	571.4
330.415	598
330.81	588.4
331.206	589
331.601	575.6
331.996	590
332.37	592
332.766	576.2
333.161	595.4
333.557	580.4
333.953	580
334.348	867.4
334.744	581.8
335.14	581.6
335.536	577.2
335.932	596.4
336.328	581.4
336.724	586.2
337.12	583.2
337.516	587.6
337.913	584.4
338.309	594.4
338.705	582.4
339.102	595.4
339.498	580.8
339.895	590.4
340.291	582.6
340.688	588.2
341.085	576.6
341.481	576.8
341.878	586.8
342.275	593.2
342.672	581.4
343.069	578.2
343.466	573.4
343.842	595
344.239	570.6
344.636	587.6
345.033	578.8
345.431	573.4
345.828	590.8
346.225	578.2
346.623	613.8
347.02	585.4
347.418	597.2
347.816	604.6
348.213	577.2
348.611	581
349.009	579.6
349.407	594
349.805	572.8
350.203	569.8
350.601	588.8
350.999	581.8
351.397	624.2
351.795	581
352.193	589.6
352.57	586.8
352.969	587
353.367	574.2
353.766	580.4
354.164	576.6
354.563	590.8
354.961	587.4
355.36	585.6
355.759	589
356.158	570.8
356.557	574.8
356.956	572.2
357.355	572
357.754	581.6
358.153	588
358.552	600.2
358.951	585
359.35	596.2
359.75	571.4
360.149	566
360.527	566.4
360.926	571.8
361.326	575.2
361.726	578.8
362.125	567.4
362.525	585.6
362.925	575.8
363.325	574.8
363.724	580
364.124	581.6
364.524	570
364.924	578
365.324	584.4
365.725	567.4
366.125	577.6
366.525	575.6
366.904	566
367.304	559.6
367.705	588
368.105	589.8
368.506	579.8
368.906	571.6
369.307	572
369.708	580.2
370.108	570.4
370.509	580.6
370.91	569
371.311	577.8
371.712	578
372.113	571
372.514	563.6
372.894	575.2
373.295	570.2
373.696	584.6
374.097	585
374.499	595.8
374.9	575.6
375.301	575.6
375.703	582.2
376.105	574.2
376.506	574.8
376.908	575.2
377.309	579.6
377.711	579.6
378.113	572.4
378.493	584.4
378.895	565.4
379.297	581.6
379.699	570.4
380.102	583.2
380.504	571
380.906	571
381.308	597.2
381.71	584.8
382.113	581.2
382.515	574.4
382.918	591.6
383.299	573.8
383.701	592.4
384.104	574.4
384.507	569
384.909	572.2
385.312	565.6
385.715	575.6
386.118	570.2
386.521	566.8
386.924	590.4
387.327	572.6
387.709	573.6
388.112	563.2
388.515	574
388.918	581
389.322	579.8
389.725	573
390.129	590.8
390.532	578.4
390.936	578.6
391.339	566.4
391.743	581.6
392.125	576.6
392.529	581.4
392.933	589.6
393.337	566.2
393.74	579.4
394.144	574.6
394.548	577.6
394.953	564.8
395.357	586.6
395.761	571.8
396.144	571.2
396.548	575
396.952	571.4
397.357	573.4
397.761	567.8
398.166	569.4
398.57	576.2
398.975	568.8
399.379	572.8
399.763	622.2
400.168	572.6
400.572	568.2
400.977	573.4
401.382	595.6
401.787	588.6
402.192	590
402.597	587
403.002	572.8
403.386	581
403.791	588.4
404.197	575.4
404.602	573.8
405.007	577.2
405.413	571.4
405.818	581
406.224	565.2
406.608	568.6
407.014	565.4
407.42	586.2
407.825	564.2
408.231	581.2
408.637	581.6
409.043	587.8
409.449	566.8
409.834	572
410.24	577.6
410.646	590
411.052	584.4
411.458	572.4
411.865	581.8
412.271	589.8
412.677	578.2
413.062	586.8
413.469	574
413.875	599.6
414.282	589.2
414.689	582.2
415.095	589
415.502	575.8
415.888	579.2
416.294	566.2
416.701	615.2
417.108	570.6
417.515	585
417.923	577.2
418.33	593.8
418.715	590.6
419.123	578.6
419.53	567
419.937	575.2
420.345	587.6
420.752	567.6
421.16	589.4
421.546	570.2
421.953	581.2
422.361	563.8
422.769	567.2
423.177	576.6
423.585	590.6
423.992	588.2
424.379	587.8
424.787	582.8
425.195	592.4
425.603	577.4
426.011	581.4
426.419	593.6
426.806	583.2
427.214	582.4
427.623	581.6
428.031	590.6
428.44	578.6
428.848	590.2
429.235	595
429.644	592.4
430.053	584.6
430.461	592.2
430.87	596.2
431.279	586.4
431.666	578.2
432.075	571
432.484	586.4
432.893	574.4
433.302	585.4
433.711	612.4
434.099	583.6
434.508	576
434.918	574
435.327	582.6
435.737	575.6
436.125	582.6
436.534	581
436.944	576.8
437.353	580.2
437.763	591.4
438.173	572.6
438.561	589.4
438.971	569.6
439.381	573
439.791	578.6
440.201	564.6
440.589	579.2
440.999	582.4
441.409	577.8
441.819	568.8
442.23	583
442.619	591.4
443.029	566.8
443.439	578
443.85	586.8
444.26	590
444.649	580.6
445.06	578.2
445.471	580.8
445.881	576.2
446.292	588.4
446.682	593
447.092	566.4
447.503	613.4
447.914	579
448.325	583
448.715	569.4
449.126	573
449.537	579
449.948	577
450.338	576.2
450.75	577.8
451.161	572.4
451.572	584.8
451.984	560.6
452.374	570.6
452.786	574.2
453.197	577.8
453.609	579.6
453.999	574.8
454.411	560.8
454.823	583.6
455.235	572.2
455.647	575.4
456.037	588.4
456.449	561.8
456.862	572
457.274	575
457.665	561
458.077	580.4
458.489	597.4
458.902	577.6
459.293	579.8
459.705	577.8
460.118	566
460.53	574.4
460.921	570.8
461.334	576.6
461.747	571.2
462.16	582.8
462.551	584.2
462.964	579
463.377	561
463.79	572.4
464.182	584
464.595	560.6
465.008	574.6
465.421	575.8
465.813	571.2
466.226	577.2
466.64	565
467.053	599
467.445	580.6
467.859	585.6
468.272	574
468.686	586.2
469.078	574.6
469.492	565
469.906	573.4
470.298	575.6
470.712	565.8
471.126	608.8
471.54	563.8
471.933	559
472.347	568.4
472.761	568.4
473.175	564.2
473.568	557.8
473.982	559.8
474.397	572.4
474.79	567
475.204	577.2
475.619	566.6
476.033	572.4
476.426	572
476.841	571.6
477.256	592.4
477.649	559.2
478.064	561.6
478.479	566
478.872	563.4
479.287	556.6
479.702	563
480.118	567.6
480.511	567.8
480.927	563.4
481.342	566.6
481.736	567.8
482.151	566.4
482.566	575
482.96	571.4
483.376	577.6
483.792	573.4
484.186	576
484.602	564.2
485.017	564.4
485.412	571.6
485.827	577.2
486.243	570
486.638	584.4
487.054	575.4
487.47	578
487.865	564.4
488.281	562.4
488.697	560
489.092	567.2
489.508	566.2
489.925	575
490.32	565.8
490.736	576.4
491.153	571.8
491.548	572.6
491.964	572.6
492.381	565
492.776	559.2
493.193	565.2
493.61	577.4
494.006	563.8
494.422	567.2
494.84	561
495.235	573.2
495.652	564
496.069	568.4
496.465	563.6
496.883	563.4
497.3	591.4
497.696	566
498.113	570
498.509	557.4
498.927	560.6
499.344	564.8
499.741	566.8
500.158	572.2
500.576	575.6
500.973	567.8
501.39	559.6
501.787	561.8
502.205	559
502.623	564.4
503.02	559
503.438	563.4
503.856	562.2
504.253	567.2
504.671	561.4
505.068	560
505.486	568.4
505.905	583.2
506.302	562.8
506.72	576.4
507.118	568
507.536	567.2
507.955	565.4
508.352	570.4
508.771	570.4
509.169	579
509.587	567.4
510.006	576.6
510.404	563.6
510.823	567.2
511.221	563.4
511.64	570.4
512.038	586.4
512.457	568.8
512.877	576.2
513.275	566.6
513.694	563.8
514.092	564.6
514.512	563.2
514.91	570.8
515.33	569.6
515.749	571.6
516.148	565.2
516.568	573.8
516.966	570.2
517.386	563
517.785	571
518.205	567.4
518.603	557.2
519.024	560.8
519.444	570.6
519.843	574.8
520.263	577.4
520.662	566.8
521.082	569.4
521.481	568.6
521.902	568.4
522.301	570
522.722	561.8
523.121	560
523.542	557
523.963	565.6
524.362	566
524.783	563.6
525.183	566.2
525.604	575
526.003	563.8
526.425	561.4
526.824	565.2
527.246	574
527.646	570.6
528.067	570.6
528.467	570.2
528.888	569.8
529.289	572
529.71	573.6
530.11	559
530.532	569.2
530.932	557.2
531.354	562
531.755	591.8
532.176	575
532.577	567.4
532.999	564.2
533.4	565
533.822	568.6
534.223	575.8
534.645	562.8
535.046	566.4
535.468	564.8
535.869	584.8
536.292	569
536.693	592.6
537.115	570.2
537.516	560.4
537.939	555.4
538.34	582.8
538.742	573.2
539.165	568.6
539.566	569.4
539.989	557.6
540.391	563.8
540.814	570.6
541.216	561.2
541.639	573.6
542.041	574.6
542.464	567.2
542.866	560.4
543.268	562.8
543.691	571.6
544.093	568.2
544.517	585.4
544.919	560.8
545.343	577.6
545.745	556.6
546.147	572.4
546.571	573.2
546.974	565.4
547.398	565.4
547.8	577.8
548.224	565.8
548.627	556
549.03	574
549.454	560.2
549.857	558
550.281	562.4
550.684	559.8
551.087	568.4
551.512	566.8
551.915	567.6
552.34	558.2
552.743	567.2
553.146	570
553.571	560
553.975	580.4
554.399	561.8
554.803	604.6
555.207	559
555.632	558.6
556.036	573.6
556.461	558.4
556.865	569.4
557.268	560
557.694	565.8
558.098	568.8
558.502	573.8
558.927	562.4
559.332	564.8
559.736	562.8
560.162	565.4
560.566	564.4
560.992	561.4
561.396	565
561.801	562.6
562.227	565.4
562.631	565
563.036	560.8
563.462	562.8
563.867	560.4
564.272	553.6
564.698	568.6
565.103	552.2
565.508	579.8
565.935	563.2
566.34	560.2
566.745	578.6
567.172	557.6
567.577	579.4
567.982	571.8
568.409	566
568.815	561.4
569.22	565.2
569.626	576
570.053	555
570.459	563.8
570.865	565.8
571.292	571.4
571.698	566.4
572.104	558.6
572.531	564.4
572.937	566.2
573.343	563.2
573.75	561
574.177	566.8
574.583	566.8
574.99	565.6
575.396	572.4
575.824	565
576.231	568
576.637	564.2
577.065	582.8
577.472	562.4
577.879	557.4
578.286	576.6
578.714	558.6
579.121	560.4
579.528	563.6
579.935	564.6
580.364	573.4
580.771	553.8
581.178	551.4
581.585	564
582.014	573
582.421	553
582.829	558.4
583.236	574.2
583.644	560.6
584.073	561.6
584.481	565.8
584.889	561
585.296	575.8
585.726	560
586.134	561.4
586.542	560.4
586.95	579.4
587.358	552.8
587.787	563.4
588.196	569.6
588.604	558
589.012	568
589.421	551.6
589.851	555
590.259	564
590.668	555.4
591.076	591.4
591.485	558.2
591.894	561.4
592.324	574.8
592.733	568.4
593.142	554.4
593.551	559
593.96	565
594.369	560.2
594.8	557.2
595.209	567.4
595.618	553.6
596.028	560
596.437	555.6
596.847	561
597.256	559.8
597.687	560.2
598.097	562
598.507	553.8
598.917	565.6
599.327	563.6
599.736	556.4
600.146	573.6
600.556	559.6
600.988	569
601.398	560.4
601.808	562.2
602.219	559.4
602.629	563.8
603.039	560.6
603.45	579.8
603.86	570.8
604.271	565.6
604.703	565.8
605.114	566.8
605.525	567.4
605.935	566.4
606.346	582.2
606.757	564.2
607.168	561.8
607.579	553.6
607.99	572.4
608.402	560.4
608.813	567
609.224	565.4
609.636	559.6
610.047	568.6
610.48	562.4
610.892	566.8
611.303	566.8
611.715	561.4
612.127	562
612.539	565
612.95	566.2
613.362	553.6
613.774	552.8
614.186	555.6
614.599	557.2
615.011	567.6
615.423	562.2
615.835	554.6
616.248	547
616.66	564.4
617.073	554.8
617.485	554.4
617.898	567.6
618.311	558.6
618.723	559.4
619.136	583.6
619.549	570.2
619.962	573.6
620.375	560.6
620.788	562
621.201	562.6
621.614	565.6
622.028	559.6
622.441	566.4
622.854	572
623.268	555.8
623.681	564
624.095	564.4
624.509	575.4
624.922	563.2
625.336	551.2
625.728	571.4
626.142	569.6
626.556	573.4
626.97	570
627.384	561.2
627.799	563.4
628.213	574
628.627	553.4
629.041	559.8
629.456	559.2
629.87	557.6
630.285	570
630.699	577.2
631.093	561.2
631.507	570.6
631.922	566
632.337	575.6
632.752	555.8
633.167	561.4
633.582	561.2
633.997	555.6
634.412	560.8
634.806	560.6
635.221	555.8
635.637	573.8
636.052	553.8
636.468	563.4
636.883	573
637.299	559.8
637.715	552.8
638.109	560
638.525	548.6
638.941	571.6
639.357	562.8
639.773	566.6
640.189	555
640.584	561.8
641	564.4
641.416	551.2
641.832	556.4
642.249	562
642.665	559.2
643.06	569.6
643.477	573.2
643.894	552.2
644.31	567.6
644.727	561
645.123	562.4
645.54	553.8
645.957	558.8
646.374	565.6
646.77	560.6
647.187	580.4
647.604	563.8
648.021	551
648.439	556.4
648.835	561.2
649.252	561.6
649.67	562.4
650.088	565.2
650.484	565.2
650.902	570.4
651.32	576
651.738	559
652.134	561.2
652.552	578.6
652.971	575.2
653.389	556.6
653.786	579
654.204	572.8
654.622	558.8
655.019	562.4
655.438	557
655.857	557.6
656.275	557.6
656.673	556.4
657.091	561
657.51	547.6
657.908	562.8
658.327	566.2
658.746	546.6
659.144	555.4
659.563	565.4
659.982	561.6
660.38	543.8
660.8	557
661.219	563
661.617	558
662.037	557.6
662.457	566
662.855	547.4
663.275	588.6
663.695	557.8
664.094	550.2
664.514	562.8
664.934	561.2
665.333	557.4
665.753	553
666.152	546.6
666.572	552.2
666.993	566.8
667.392	560
667.812	549
668.212	562.2
668.632	563.8
669.053	553.4
669.453	564
669.874	566.6
670.273	563.6
670.694	551.2
671.116	568.8
671.515	565
671.937	570.4
672.337	557.4
672.758	560.4
673.158	558.2
673.58	562.6
673.98	564
674.402	565
674.824	556.6
675.224	555.6
675.646	556.6
676.047	556.2
676.469	562.2
676.869	565.8
677.292	560.4
677.693	556
678.115	556.8
678.516	558.6
678.939	559.2
679.34	556.8
679.762	568.2
680.164	557.8
680.586	549.8
680.988	558.8
681.411	582.8
681.812	564
682.236	553.4
682.637	553.2
683.061	556.2
683.462	561
683.864	557
684.288	556
684.69	543.8
685.114	565.6
685.516	560.6
685.94	551.4
686.342	564.6
686.766	546.2
687.168	559.4
687.571	572.4
687.995	561.6
688.398	554.4
688.822	557.6
689.225	574.6
689.628	578.8
690.052	556.4
690.456	564.2
690.88	559
691.284	549.8
691.687	560.2
692.112	554.6
692.515	549
692.919	561
693.344	562.4
693.747	559
694.173	555.4
694.577	565.2
694.98	553
695.406	556.8
695.81	557.6
696.214	563.4
696.64	567.4
697.044	561.6
697.448	565.6
697.874	553.8
698.279	551.4
698.684	542.6
699.11	551.6
699.514	551.6
699.919	556
700.324	549.4
700.75	555
701.156	554.8
701.561	553.4
701.987	569
702.393	556.8
702.798	563.4
703.203	559.4
703.63	560.2
704.036	554.2
704.442	557.4
704.847	547.8
705.274	558.4
705.68	562.2
706.086	565
706.492	543.6
706.92	556.4
707.326	563.8
707.732	556
708.139	547.8
708.545	560.4
708.973	552.6
709.38	551.4
709.786	554
710.193	567.6
710.6	561.8
711.028	556.4
711.435	554.4
711.842	555.2
712.249	553.2
712.656	555.4
713.064	564.4
713.492	550.8
713.9	556.4
714.307	557.6
714.715	564.2
715.123	561.6
715.53	558
715.938	566.6
716.367	549
716.775	556
717.184	546
717.592	560.2
718	566.6
718.408	579.2
718.816	588.4
719.225	557.8
719.633	562.6
720.042	549.8
720.472	549.4
720.881	572.6
721.29	562.2
721.699	553.8
722.108	555.8
722.517	560.6
722.926	559.2
723.335	565.4
723.744	565.2
724.154	564.4
724.563	560
724.973	566.2
725.382	553.4
725.792	557.2
726.202	547.2
726.612	575.6
727.022	553.4
727.432	550.6
779.813	561.6
780.223	591
780.634	559.4
781.044	548.6
781.454	556
781.865	563.8
782.276	549.4
782.686	556.8
783.097	556.2
783.508	555.6
783.919	556
784.33	570.2
784.741	563.2
785.152	551.6
785.563	542.4
785.974	551
786.386	562.6
786.776	560.6
787.188	552.6
787.599	554.2
788.011	561.6
788.423	562
788.835	561.2
789.247	548.6
789.659	557.4
790.071	554.8
790.483	587.2
790.874	558.6
791.286	562.2
791.699	556.4
792.111	555
792.524	561
792.937	549.4
793.349	547.8
793.741	547.2
794.154	549.8
794.567	572.6
794.98	557
795.393	544.4
795.785	565.4
796.198	551
796.612	559.6
797.026	551
797.439	543.6
797.831	558.6
798.245	547.4
798.659	551.8
799.073	552.2
799.487	552.4
799.88	555.4
800.294	554
800.708	563.6
801.123	556.2
801.516	570.4
801.93	548.2
802.345	542.8
802.76	553.6
803.153	567.2
803.568	556.2
803.983	560.6
804.377	554.4
804.792	546.8
805.207	553.4
805.601	545
806.016	581.4
806.432	540.8
806.826	571.2
807.242	562.8
807.658	558.8
808.052	544.8
808.468	544.4
808.884	550.8
809.279	553.6
809.695	565.2
810.111	568
810.506	559.6
810.922	564
811.339	547.6
811.734	559.2
812.151	552.4
812.546	554
812.963	553.8
813.38	558.2
813.776	561
814.193	573
814.589	547.8
815.006	553.2
815.402	548
815.82	556.4
816.237	548.8
816.633	553.4
817.051	543.6
817.448	559.4
817.866	543.6
818.262	571
818.68	551.6
819.077	550.6
819.495	550.8
819.892	590.6
820.311	553.4
820.708	553.4
821.127	551.2
821.524	564.2
821.943	559.6
822.34	574.8
822.759	560.8
823.157	557.8
823.576	567.4
823.974	559.4
824.393	589.8
824.791	555
825.189	551.4
825.609	557.8
826.007	556.2
826.427	547.6
826.826	556
827.246	554
827.644	547.8
828.043	562.4
828.463	552
828.862	556
829.261	564.6
829.682	543.4
830.081	557.8
830.502	543.4
830.901	559.4
831.301	560.4
831.722	543.8
832.121	556.4
832.521	551.6
832.943	549
833.342	557.8
833.742	547
834.164	551.4
834.564	549.8
834.965	558
835.386	548.6
835.787	546.8
836.188	552.6
836.588	554.4
837.01	548.2
837.411	543.6
837.812	561.6
838.213	550
838.636	552
839.037	609.4
839.438	556.8
839.84	555.8
840.263	565
840.664	557.6
841.066	547.2
841.468	548.2
841.891	550.6
842.293	565.2
842.695	560.8
843.098	562
843.5	555
843.902	554.2
844.326	555.2
844.729	552.4
845.131	557.2
845.534	545
845.937	559
846.34	565.2
846.764	546.4
847.167	556.4
847.571	552.6
847.974	556.6
848.377	553.8
848.781	592.6
849.184	567.2
849.588	563
849.992	558.6
850.396	557.4
850.821	572.8
851.225	554.6
851.63	550.8
852.034	565.8
852.438	545
852.843	571.6
853.247	557.6
853.652	551.6
854.057	566.4
854.462	551.2
854.867	556.8
855.272	585.2
855.677	561
