#lambda/nm	C1
208.295	540.2
208.67	485.2
209.045	444.6
209.419	447
209.794	607.2
210.169	592.2
210.544	705.2
210.919	615.2
211.295	583.8
211.67	600.2
212.045	601.2
212.421	598
212.796	635.2
213.172	601.2
213.547	601
213.923	602
214.299	589.2
214.675	597
215.051	604
215.427	614.4
215.803	614.2
216.179	599.6
216.555	596.6
216.932	611.8
217.308	605.6
217.684	599
218.061	603
218.438	613.4
218.814	594.8
219.191	617.4
219.568	588.6
219.945	597
220.322	607
220.699	604.6
221.076	602.2
221.453	600.8
221.83	598.4
222.208	594.2
222.585	597.6
222.962	605.4
223.34	603.8
223.717	601
224.095	605
224.473	607.4
224.851	597.2
225.229	592.6
225.607	613.6
225.985	594
226.363	596
226.741	610
227.119	605.4
227.497	612.8
227.876	594.2
228.254	607
228.633	612.6
229.011	592.6
229.39	610.4
229.769	601.2
230.148	600.4
230.527	616.8
230.905	597.6
231.284	607.8
231.664	598.6
232.043	612
232.422	613.2
232.801	599.6
233.181	612
233.56	612.4
233.94	596.4
234.319	591.6
234.699	598.8
235.079	650.2
235.458	635.6
235.838	609.2
236.218	594.2
236.598	584.2
236.978	598.2
237.358	601
237.738	594.4
238.119	607.8
238.499	591.2
238.88	603
239.26	611.8
239.641	588.6
240.021	598.8
240.402	595.2
240.783	604.4
241.163	606.6
241.544	602
241.925	603.8
242.306	611.4
242.687	595.4
243.069	605.8
243.45	601.8
243.831	595.4
244.212	597.8
244.594	638.8
244.975	607.4
245.357	598
245.739	596.6
246.12	601.4
246.502	611
246.884	593.2
247.266	598.2
247.648	595.8
248.03	615
248.412	602
248.794	604.8
249.176	593.2
249.559	607.2
249.941	597
250.323	594.6
250.706	598.6
251.089	603.4
251.471	606.2
251.854	605.4
252.237	602.6
252.62	612.2
253.002	603.4
253.385	603.6
253.769	615
254.152	597.4
254.535	615
254.918	593
255.301	601.8
255.685	597
256.068	588.8
256.452	626.8
256.835	604.8
257.219	606.6
257.603	606.6
257.986	593.4
258.37	605.2
258.754	591.2
259.138	603.6
259.522	614.6
259.906	599.8
260.29	594.8
260.675	598.8
261.059	601.4
261.443	590.8
261.828	603.6
262.212	602.8
262.597	588.4
262.981	590.8
263.366	605
263.751	601.4
264.136	591.2
264.521	598.4
264.906	591
265.291	614
265.676	600.2
266.061	612.2
266.446	616
266.831	606.8
267.217	619.6
267.602	600.8
267.987	603.6
268.373	587
268.759	606.6
269.144	611.2
269.53	602.4
269.916	606.2
270.302	595.2
270.688	605.8
271.074	601.6
271.46	613
271.846	632.2
272.232	599.2
272.618	598.2
273.004	599.6
273.391	611.6
273.777	607
274.164	604.8
274.55	613.6
274.937	612.6
275.324	598.6
275.71	605.6
276.097	603
276.484	591.6
276.871	601
277.258	607.2
277.645	594
278.032	601.8
278.419	600.2
278.807	608.8
279.194	595.6
279.581	592.4
279.969	601.6
280.356	601.8
280.744	601.2
281.131	626.8
281.519	610.4
281.907	594.8
282.295	599.2
282.682	611.6
283.07	604.4
283.458	605.8
283.846	613.2
284.235	609.2
284.623	608.2
285.011	590
285.399	611
285.788	608.2
286.176	587.8
286.565	608.2
286.953	597
287.342	601.4
287.731	594.6
288.119	594.8
288.508	597
288.897	595
289.286	590.8
289.675	608.4
290.064	608.2
290.453	598.6
290.821	598
291.21	619.4
291.599	599.8
291.989	601.6
292.378	608.2
292.768	616
293.157	606
293.547	613.2
293.936	596.4
294.326	595.4
294.716	603.2
295.106	606.2
295.496	610.8
295.886	607.4
296.276	602.2
296.666	595.8
297.056	601.4
297.446	596
297.836	623.4
298.227	599.4
298.617	601.2
299.008	619.6
299.398	598.4
299.789	596
300.179	608
300.57	613.6
300.961	598.2
301.352	599.8
301.742	610.4
302.133	606.6
302.524	603.4
302.915	604.4
303.307	595.6
303.698	605.2
304.089	608.6
304.48	604.8
304.872	598.4
305.263	600.6
305.655	591.4
306.046	611.4
306.438	603.4
306.829	599.8
307.221	612.4
307.613	603.4
308.005	609.6
308.397	610.4
308.789	612.8
309.181	623.4
309.573	620.4
309.965	614.4
310.357	605
310.749	611
311.142	597.8
311.534	605
311.926	610.6
312.319	598.2
312.711	608
313.104	607
313.497	609.6
313.889	633
314.282	616.6
314.675	617.2
315.068	603.2
315.461	614
315.854	624.6
316.247	603.2
316.64	606.4
317.033	600.2
317.405	613
317.798	595.2
318.192	601.4
318.585	596.8
318.979	604.6
319.372	597
319.766	603.2
320.16	615.8
320.553	613.2
320.947	618.6
321.341	601.4
321.735	592.8
322.129	588.6
322.523	622
322.917	592.2
323.311	608.8
323.705	600.6
324.099	609.2
324.494	616.6
324.888	615
325.282	596.6
325.677	609.8
326.071	611
326.466	608.6
326.861	605.8
327.255	602
327.65	616.6
328.045	619.8
328.44	607.6
328.835	599.6
329.23	597.4
329.625	625.2
330.02	600.2
330.415	628
330.81	604
331.206	604.4
331.601	596.2
331.996	606
332.37	617.2
332.766	596.4
333.161	628.4
333.557	602
333.953	602.4
334.348	925.2
334.744	605
335.14	592.4
335.536	594.4
335.932	618.4
336.328	606
336.724	607.6
337.12	601.8
337.516	603.6
337.913	598.4
338.309	601.2
338.705	599.8
339.102	609.6
339.498	601.2
339.895	606.8
340.291	604.2
340.688	608
341.085	588.6
341.481	597
341.878	601.4
342.275	615.8
342.672	596
343.069	588
343.466	586.6
343.842	604.4
344.239	593.6
344.636	597.2
345.033	591.6
345.431	591.4
345.828	598.4
346.225	591.8
346.623	631.6
347.02	607.2
347.418	607.4
347.816	610.2
348.213	588.8
348.611	610
349.009	597.4
349.407	611
349.805	584.6
350.203	591.4
350.601	606.6
350.999	597.8
351.397	651.2
351.795	601.2
352.193	616.6
352.57	603.8
352.969	612.2
353.367	587.6
353.766	588
354.164	606.6
354.563	605.8
354.961	606.8
355.36	597
355.759	599.4
356.158	581.2
356.557	594.2
356.956	590.6
357.355	584.4
357.754	599.4
358.153	601.4
358.552	613.8
358.951	594.6
359.35	605.2
359.75	589.6
360.149	589.4
360.527	587.2
360.926	589
361.326	600.6
361.726	600
362.125	577
362.525	596.8
362.925	593
363.325	594.6
363.724	608.2
364.124	589
364.524	586.8
364.924	593.2
365.324	607.6
365.725	587.2
366.125	606.2
366.525	600.2
366.904	586.8
367.304	573.6
367.705	606
368.105	607.6
368.506	599.6
368.906	594.4
369.307	597
369.708	598.8
370.108	593.4
370.509	597.8
370.91	593.2
371.311	592.8
371.712	596.4
372.113	592.2
372.514	590.8
372.894	597.2
373.295	592.8
373.696	606.6
374.097	599.2
374.499	616.4
374.9	597.6
375.301	593.4
375.703	597.4
376.105	587
376.506	600.4
376.908	603.2
377.309	600.2
377.711	597.4
378.113	586.6
378.493	586.2
378.895	583.6
379.297	607.2
379.699	586.2
380.102	594.4
380.504	596
380.906	589.8
381.308	620.4
381.71	593.8
382.113	605.8
382.515	593.2
382.918	596
383.299	599.6
383.701	600
384.104	597.4
384.507	575.2
384.909	587
385.312	583.4
385.715	577.8
386.118	589.2
386.521	586.8
386.924	603.2
387.327	585.8
387.709	586
388.112	578.6
388.515	595.2
388.918	587.4
389.322	597.2
389.725	587
390.129	615.6
390.532	594.6
390.936	596.4
391.339	583.2
391.743	593.4
392.125	579.6
392.529	595.8
392.933	601.2
393.337	597.8
393.74	589.8
394.144	605.4
394.548	581
394.953	584.6
395.357	592.8
395.761	589
396.144	597
396.548	590.8
396.952	596.8
397.357	591.4
397.761	591.8
398.166	588.4
398.57	593.8
398.975	586.2
399.379	588.8
399.763	624.4
400.168	590.4
400.572	596.2
400.977	594.6
401.382	604.4
401.787	596.8
402.192	603.8
402.597	610.2
403.002	582.8
403.386	603.8
403.791	603.6
404.197	590.8
404.602	595
405.007	598.6
405.413	592
405.818	589.2
406.224	584.4
406.608	590
407.014	589.4
407.42	606.4
407.825	592
408.231	604
408.637	595.6
409.043	601.4
409.449	596.6
409.834	590.2
410.24	606.8
410.646	600.4
411.052	598.2
411.458	594.6
411.865	601
412.271	595.8
412.677	599.8
413.062	602.8
413.469	592.8
413.875	616.6
414.282	599.4
414.689	599.6
415.095	597.8
415.502	592.6
415.888	596.6
416.294	581.2
416.701	635.2
417.108	590.4
417.515	599.8
417.923	591.4
418.33	609.6
418.715	605.6
419.123	593.8
419.53	589.6
419.937	600.4
420.345	607.2
420.752	597.4
421.16	612.8
421.546	594.6
421.953	608.4
422.361	595
422.769	591.8
423.177	585
423.585	614.4
423.992	618.2
424.379	610.4
424.787	597.2
425.195	610.2
425.603	604.6
426.011	606
426.419	609.8
426.806	600
427.214	594.4
427.623	613.4
428.031	612.2
428.44	602.8
428.848	608.2
429.235	606
429.644	600.8
430.053	593.4
430.461	609.4
430.87	628
431.279	606.6
431.666	593.6
432.075	597
432.484	603
432.893	590
433.302	612.2
433.711	626
434.099	600.2
434.508	586.2
434.918	591.4
435.327	597.6
435.737	597.4
436.125	594.6
436.534	602.8
436.944	595.4
437.353	603
437.763	614.2
438.173	592
438.561	602
438.971	581
439.381	593
439.791	596.8
440.201	573.4
440.589	596.2
440.999	593.4
441.409	600.8
441.819	587.4
442.23	595.8
442.619	598.2
443.029	591.6
443.439	591.2
443.85	601.6
444.26	611
444.649	599.6
445.06	595.6
445.471	593.6
445.881	598.6
446.292	612.6
446.682	616.2
447.092	585
447.503	641
447.914	599.8
448.325	587.4
448.715	592.2
449.126	583
449.537	593.6
449.948	589.4
450.338	598.4
450.75	597.2
451.161	597.2
451.572	598
451.984	592.2
452.374	582.6
452.786	592.4
453.197	592.6
453.609	607.4
453.999	580.6
454.411	583.4
454.823	599.6
455.235	594.2
455.647	595
456.037	595.6
456.449	580
456.862	589
457.274	589.6
457.665	580.2
458.077	602.4
458.489	617
458.902	589.2
459.293	589
459.705	589.4
460.118	590
460.53	600
460.921	595.4
461.334	598
461.747	589.6
462.16	607
462.551	598
462.964	594.8
463.377	574.4
463.79	587.2
464.182	598.4
464.595	583.4
465.008	593
465.421	586
465.813	589.2
466.226	595.8
466.64	590.2
467.053	629.8
467.445	598.4
467.859	594.2
468.272	596
468.686	609
469.078	589.8
469.492	580
469.906	589.8
470.298	601.6
470.712	586.6
471.126	629.8
471.54	581.6
471.933	585
472.347	586.4
472.761	583.8
473.175	576.6
473.568	585.2
473.982	580.4
474.397	587.6
474.79	592.8
475.204	595.2
475.619	582
476.033	588.2
476.426	586.6
476.841	589.4
477.256	607.6
477.649	585.4
478.064	578
478.479	576.2
478.872	579.4
479.287	577
479.702	586.4
480.118	583.2
480.511	581.6
480.927	585
481.342	579
481.736	589.6
482.151	583.2
482.566	596
482.96	593.8
483.376	589.6
483.792	578.2
484.186	594.2
484.602	585.6
485.017	588
485.412	586.2
485.827	589.2
486.243	584.8
486.638	609
487.054	589
487.47	594.6
487.865	581.2
488.281	588.6
488.697	582.8
489.092	584.6
489.508	574.6
489.925	594.8
490.32	574
490.736	591.2
491.153	583.4
491.548	586.6
491.964	595.2
492.381	582
492.776	580
493.193	584.4
493.61	591.4
494.006	594.2
494.422	588.8
494.84	580.6
495.235	598.8
495.652	592.2
496.069	588.8
496.465	582
496.883	579
497.3	604
497.696	576
498.113	584.2
498.509	575.2
498.927	590.4
499.344	592.4
499.741	580.8
500.158	587.8
500.576	597
500.973	585.8
501.39	582.6
501.787	579.6
502.205	582.4
502.623	577.4
503.02	577
503.438	576.2
503.856	579.8
504.253	587.6
504.671	581.8
505.068	572.2
505.486	583.2
505.905	595.6
506.302	588.8
506.72	597.6
507.118	578.6
507.536	577.2
507.955	580
508.352	589.4
508.771	589.8
509.169	603
509.587	577.6
510.006	583.6
510.404	576.8
510.823	583.6
511.221	581
511.64	589
512.038	593.2
512.457	583.8
512.877	590
513.275	583.6
513.694	580.8
514.092	580.4
514.512	592.6
514.91	589.6
515.33	583.6
515.749	584
516.148	588
516.568	584.6
516.966	588.2
517.386	584.2
517.785	580
518.205	585.2
518.603	581.8
519.024	584.2
519.444	582.4
519.843	586.8
520.263	589.2
520.662	586.6
521.082	586.8
521.481	582.8
521.902	584.8
522.301	585.6
522.722	581.6
523.121	579.8
523.542	580.4
523.963	585.2
524.362	586.8
524.783	581.8
525.183	579.6
525.604	600.6
526.003	585
526.425	586.8
526.824	584.2
527.246	585.2
527.646	591.8
528.067	589.2
528.467	579
528.888	583.8
529.289	574.6
529.71	577.6
530.11	575.6
530.532	577.6
530.932	573
531.354	566.2
531.755	612
532.176	592.2
532.577	584.2
532.999	582.2
533.4	574
533.822	587.2
534.223	581.6
534.645	586.8
535.046	581
535.468	572.2
535.869	592
536.292	580.4
536.693	607.4
537.115	587.8
537.516	583.4
537.939	576.8
538.34	595
538.742	586.4
539.165	586.2
539.566	589
539.989	577.8
540.391	575.4
540.814	578.8
541.216	591.4
541.639	585.6
542.041	591
542.464	577.6
542.866	574.2
543.268	574.6
543.691	581
544.093	578.2
544.517	606
544.919	581.4
545.343	599.4
545.745	579.4
546.147	595.8
546.571	582
546.974	581.8
547.398	590.8
547.8	603.2
548.224	583.2
548.627	573.2
549.03	592.4
549.454	578.8
549.857	575.2
550.281	572.8
550.684	572.8
551.087	591.4
551.512	578.4
551.915	589.6
552.34	578.8
552.743	578.2
553.146	581.8
553.571	576.8
553.975	589.2
554.399	575.4
554.803	621.4
555.207	583.2
555.632	576.8
556.036	584.8
556.461	578.2
556.865	580
557.268	577.6
557.694	575
558.098	589.8
558.502	583.6
558.927	581.8
559.332	586.2
559.736	580.6
560.162	588.2
560.566	581
560.992	581.8
561.396	580.8
561.801	585.2
562.227	596
562.631	585.8
563.036	583.8
563.462	595.6
563.867	587.4
564.272	572.6
564.698	590.8
565.103	575.6
565.508	593.8
565.935	590.6
566.34	577.4
566.745	582.2
567.172	577.8
567.577	604.2
567.982	586.4
568.409	589
568.815	576
569.22	582.6
569.626	593.6
570.053	568
570.459	578.2
570.865	586
571.292	581.8
571.698	586.4
572.104	570.6
572.531	576
572.937	586.4
573.343	577.4
573.75	577.6
574.177	580.6
574.583	583
574.99	582.8
575.396	586
575.824	582.4
576.231	588.4
576.637	579.2
577.065	597.6
577.472	578
577.879	577.4
578.286	593.4
578.714	569.8
579.121	586
579.528	584.6
579.935	590.4
580.364	577.8
580.771	568.6
581.178	569.4
581.585	589.2
582.014	585.4
582.421	583.8
582.829	575.6
583.236	584.8
583.644	576.2
584.073	580.8
584.481	578.2
584.889	575.2
585.296	591.8
585.726	580.8
586.134	579.2
586.542	565.4
586.95	592.4
587.358	571
587.787	584.6
588.196	595.6
588.604	577.2
589.012	580.4
589.421	578.8
589.851	570
590.259	582.8
590.668	578
591.076	610.4
591.485	567
591.894	577
592.324	586
592.733	588.2
593.142	577
593.551	578.6
593.96	575.8
594.369	569.6
594.8	568.2
595.209	576.2
595.618	564
596.028	571.4
596.437	568.4
596.847	574.2
597.256	580.4
597.687	582.6
598.097	572.4
598.507	570.2
598.917	578
599.327	587.4
599.736	577.8
600.146	594.8
600.556	577.6
600.988	587
601.398	574.2
601.808	589
602.219	565.2
602.629	578.4
603.039	579.6
603.45	599
603.86	580.6
604.271	583.6
604.703	578.8
605.114	583
605.525	588
605.935	586.8
606.346	598.4
606.757	582
607.168	583.8
607.579	587
607.99	586
608.402	585.8
608.813	584.8
609.224	578
609.636	572.8
610.047	579.4
610.48	577
610.892	588
611.303	590
611.715	571
612.127	572
612.539	583.2
612.95	575.4
613.362	572.6
613.774	569.8
614.186	575.8
614.599	570.6
615.011	593
615.423	587.6
615.835	578
616.248	575.6
616.66	588.2
617.073	566
617.485	582.4
617.898	589.8
618.311	578.4
618.723	574.6
619.136	605.8
619.549	592
619.962	601.2
620.375	576.2
620.788	585
621.201	572.6
621.614	591
622.028	572.6
622.441	577.4
622.854	597
623.268	576.2
623.681	585.4
624.095	578.6
624.509	583.6
624.922	585
625.336	573
625.728	584.6
626.142	594.4
626.556	586.8
626.97	596
627.384	582.6
627.799	579.2
628.213	582.6
628.627	576.6
629.041	568.4
629.456	576
629.87	585
630.285	589
630.699	584
631.093	571.2
631.507	580.6
631.922	581.4
632.337	593.4
632.752	570.8
633.167	572.2
633.582	575.8
633.997	569
634.412	573.4
634.806	581
635.221	567.6
635.637	589.8
636.052	567.2
636.468	580.2
636.883	602.8
637.299	574.8
637.715	566.2
638.109	575
638.525	565.4
638.941	584.2
639.357	578
639.773	589
640.189	578.2
640.584	586.6
641	585.2
641.416	564
641.832	572.4
642.249	574.4
642.665	578.6
643.06	578
643.477	589.4
643.894	567.4
644.31	575.2
644.727	580.8
645.123	581.2
645.54	567.6
645.957	578.6
646.374	581.4
646.77	577.6
647.187	609.6
647.604	577.8
648.021	563.2
648.439	573.6
648.835	581.8
649.252	581.8
649.67	574
650.088	575.6
650.484	573.2
650.902	586.8
651.32	581.6
651.738	572.8
652.134	574.2
652.552	591
652.971	584.4
653.389	582.6
653.786	588
654.204	591.8
654.622	569.8
655.019	576.4
655.438	577.2
655.857	577.8
656.275	580.6
656.673	570.6
657.091	576.8
657.51	569.6
657.908	581.4
658.327	591.2
658.746	566.6
659.144	574.2
659.563	585
659.982	580.2
660.38	572
660.8	580.2
661.219	586.8
661.617	570.2
662.037	580.8
662.457	582.4
662.855	572
663.275	607.6
663.695	574.6
664.094	572.6
664.514	574.6
664.934	571.6
665.333	585.4
665.753	571.8
666.152	567.8
666.572	571.6
666.993	591.2
667.392	575.6
667.812	579.2
668.212	580
668.632	577.8
669.053	567.8
669.453	577.4
669.874	581.4
670.273	566.8
670.694	575.6
671.116	586
671.515	583.6
671.937	577.2
672.337	566.8
672.758	579.8
673.158	579.4
673.58	570.4
673.98	582
674.402	591
674.824	577.4
675.224	575
675.646	579.8
676.047	571.8
676.469	567.6
676.869	586.2
677.292	579.2
677.693	576.2
678.115	572.4
678.516	589.2
678.939	573
679.34	568.6
679.762	585.4
680.164	582.2
680.586	574.4
680.988	575.6
681.411	597.4
681.812	567.6
682.236	562.8
682.637	567.2
683.061	562.8
683.462	578.4
683.864	574
684.288	581.2
684.69	561
685.114	581.6
685.516	574.8
685.94	569.2
686.342	581.4
686.766	570.4
687.168	575
687.571	593.6
687.995	569.6
688.398	561.4
688.822	567
689.225	587.4
689.628	589.8
690.052	574.6
690.456	577.2
690.88	577.6
691.284	559
691.687	578
692.112	568.8
692.515	563.6
692.919	564.8
693.344	571.2
693.747	571.2
694.173	577
694.577	584.4
694.98	578.6
695.406	573.4
695.81	575.2
696.214	578.4
696.64	587.2
697.044	574.2
697.448	578
697.874	570
698.279	567.8
698.684	565.2
699.11	569.8
699.514	580.2
699.919	570.2
700.324	570.4
700.75	574.4
701.156	575.4
701.561	582.4
701.987	568.4
702.393	586
702.798	584.2
703.203	583.2
703.63	575.6
704.036	572.6
704.442	577.2
704.847	570.4
705.274	579.4
705.68	576.8
706.086	576.8
706.492	572
706.92	575.2
707.326	581.8
707.732	567.6
708.139	564.6
708.545	569.8
708.973	572
709.38	575.8
709.786	565.8
710.193	580.2
710.6	572.8
711.028	564.4
711.435	573.8
711.842	579.2
712.249	582.6
712.656	570.4
713.064	587.4
713.492	561.4
713.9	572.6
714.307	579.8
714.715	572
715.123	577.6
715.53	582.8
715.938	583.2
716.367	582.2
716.775	573.2
717.184	576.2
717.592	565.4
718	582.2
718.408	609
718.816	607.4
719.225	579.4
719.633	580.8
720.042	570.6
720.472	572.4
720.881	596.8
721.29	584.6
721.699	566.4
722.108	578.4
722.517	575.2
722.926	566.4
723.335	583.4
723.744	571.6
724.154	573.4
724.563	575.6
724.973	577
725.382	562.6
725.792	573.2
726.202	558.2
726.612	587.6
727.022	571.6
727.432	574.4
779.813	568.6
780.223	617.2
780.634	568.4
781.044	579.6
781.454	571.6
781.865	584.4
782.276	560
782.686	585.4
783.097	572.2
783.508	570.6
783.919	579.8
784.33	581
784.741	583.4
785.152	569
785.563	559.8
785.974	571.4
786.386	585.6
786.776	572.8
787.188	571.6
787.599	560
788.011	576.2
788.423	579.2
788.835	569.6
789.247	569.8
789.659	566.2
790.071	572.8
790.483	608.2
790.874	567
791.286	584.2
791.699	561.4
792.111	580.6
792.524	574.4
792.937	568.6
793.349	561.6
793.741	568.8
794.154	572
794.567	580
794.98	561.4
795.393	564
795.785	584.8
796.198	570.2
796.612	570
797.026	565.2
797.439	560.2
797.831	573
798.245	565.4
798.659	568.8
799.073	573.8
799.487	564
799.88	562.6
800.294	566.8
800.708	578
801.123	564.4
801.516	579.6
801.93	567
802.345	564.8
802.76	570.6
803.153	587.4
803.568	584.8
803.983	575.2
804.377	579.2
804.792	566.8
805.207	568
805.601	573.4
806.016	604.4
806.432	570.8
806.826	600.4
807.242	577.2
807.658	585.2
808.052	566
808.468	568.8
808.884	572.4
809.279	574.6
809.695	580.6
810.111	594.2
810.506	576
810.922	580.2
811.339	568.6
811.734	578
812.151	572.4
812.546	571
812.963	572.4
813.38	575.2
813.776	575.6
814.193	587
814.589	576.6
815.006	571.2
815.402	570.2
815.82	574.2
816.237	573.8
816.633	575.2
817.051	567.2
817.448	566.6
817.866	561.8
818.262	579.8
818.68	567.4
819.077	566.6
819.495	567.4
819.892	605.8
820.311	563
820.708	572.6
821.127	563.8
821.524	580.8
821.943	575.8
822.34	583.4
822.759	575.4
823.157	572.2
823.576	589.6
823.974	576.8
824.393	592
824.791	566.6
825.189	568.4
825.609	567.8
826.007	571.8
826.427	561.4
826.826	564.6
827.246	581.2
827.644	560
828.043	578.2
828.463	565.6
828.862	581
829.261	572.8
829.682	567.2
830.081	565.2
830.502	563.8
830.901	576
831.301	588.8
831.722	560.4
832.121	567.2
832.521	575.6
832.943	574.6
833.342	572.4
833.742	560
834.164	563.2
834.564	569.8
834.965	574.2
835.386	567.8
835.787	557.2
836.188	570.6
836.588	570.2
837.01	573.2
837.411	566
837.812	579.6
838.213	579.4
838.636	565.2
839.037	638.6
839.438	575.2
839.84	569.2
840.263	579.8
840.664	572.2
841.066	567.4
841.468	571.2
841.891	557.8
842.293	571.4
842.695	577.2
843.098	576
843.5	569.4
843.902	569
844.326	573.6
844.729	571.2
845.131	585.6
845.534	569
845.937	580.4
846.34	582.4
846.764	562.6
847.167	577.2
847.571	565
847.974	567.4
848.377	566.2
848.781	607.2
849.184	582.2
849.588	568.2
849.992	563.6
850.396	568.8
850.821	588.6
851.225	577.8
851.63	564.8
852.034	586.2
852.438	567.4
852.843	587.8
853.247	561
853.652	566.8
854.057	583.4
854.462	567.8
854.867	572.8
855.272	596
855.677	568.2
856.082	567.8
856.487	564
