#lambda/nm	C1
208.295	560.6
208.67	495.6
209.045	458.8
209.419	456.8
209.794	598.8
210.169	581.2
210.544	681.8
210.919	597.2
211.295	584.4
211.67	593.8
212.045	587.2
212.421	583.6
212.796	620.4
213.172	583.6
213.547	591.4
213.923	590.6
214.299	585.8
214.675	597.2
215.051	597.4
215.427	604.6
215.803	607.4
216.179	600.4
216.555	587
216.932	595.8
217.308	591.8
217.684	590
218.061	597
218.438	600
218.814	587.8
219.191	595.4
219.568	585.4
219.945	588.6
220.322	597.6
220.699	602.6
221.076	593.6
221.453	591
221.83	583.2
222.208	578
222.585	591
222.962	586
223.34	594.6
223.717	590.8
224.095	594
224.473	588.4
224.851	591.4
225.229	593.2
225.607	605.4
225.985	580.6
226.363	589
226.741	588.8
227.119	588.4
227.497	602.8
227.876	571.6
228.254	589.6
228.633	587.4
229.011	595
229.39	593
229.769	587.6
230.148	597.6
230.527	608.4
230.905	590.2
231.284	583.4
231.664	580.8
232.043	598.2
232.422	592.6
232.801	582.2
233.181	589.2
233.56	580
233.94	579.2
234.319	577.2
234.699	587.6
235.079	618.6
235.458	619.4
235.838	594
236.218	595.4
236.598	580.8
236.978	588
237.358	583.8
237.738	584.2
238.119	594.8
238.499	585.4
238.88	588.6
239.26	599.4
239.641	580
240.021	585.8
240.402	586
240.783	582.8
241.163	588.2
241.544	587.4
241.925	589.8
242.306	604.2
242.687	595.6
243.069	594.4
243.45	599
243.831	589.2
244.212	593
244.594	632.4
244.975	596.2
245.357	601.4
245.739	586.2
246.12	592.2
246.502	598.8
246.884	593
247.266	583.8
247.648	591.8
248.03	610.4
248.412	594.2
248.794	595.2
249.176	583.6
249.559	601.8
249.941	591.4
250.323	576.8
250.706	583
251.089	593.4
251.471	590.8
251.854	593.6
252.237	584.6
252.62	595.6
253.002	589.6
253.385	580.6
253.769	607
254.152	586.2
254.535	594.8
254.918	575.4
255.301	588.2
255.685	593.2
256.068	585.4
256.452	614.2
256.835	598
257.219	597
257.603	597.2
257.986	586
258.37	598.8
258.754	586.2
259.138	592.2
259.522	599.2
259.906	583.4
260.29	596.6
260.675	585.2
261.059	579.8
261.443	586
261.828	598
262.212	588.2
262.597	587
262.981	591.8
263.366	587.2
263.751	588.8
264.136	586.4
264.521	587.6
264.906	582.6
265.291	601.4
265.676	586
266.061	591
266.446	606.8
266.831	588.2
267.217	604.8
267.602	585.6
267.987	590.2
268.373	585.2
268.759	597
269.144	588.4
269.53	590
269.916	596.2
270.302	583.4
270.688	592.8
271.074	597.4
271.46	604.6
271.846	611.4
272.232	595.2
272.618	592.8
273.004	582.4
273.391	601.6
273.777	600.8
274.164	595.8
274.55	596.2
274.937	592.2
275.324	587.6
275.71	593.2
276.097	592
276.484	578.6
276.871	587.2
277.258	591.6
277.645	584.2
278.032	589.2
278.419	586.6
278.807	595.2
279.194	583
279.581	595.6
279.969	586.8
280.356	597.4
280.744	593.6
281.131	612.8
281.519	599.6
281.907	583
282.295	584.6
282.682	598.8
283.07	594.2
283.458	607.2
283.846	595.6
284.235	599.8
284.623	597
285.011	581.2
285.399	589
285.788	592.6
286.176	582.6
286.565	599.8
286.953	587
287.342	583.6
287.731	587
288.119	584.4
288.508	579
288.897	591
289.286	582
289.675	591.4
290.064	599.8
290.453	584
290.821	596.6
291.21	603.2
291.599	589.8
291.989	581.8
292.378	593.6
292.768	607.6
293.157	591.8
293.547	590.8
293.936	579.2
294.326	591.4
294.716	587.6
295.106	587.8
295.496	591.6
295.886	594.6
296.276	588.8
296.666	581.8
297.056	586.8
297.446	580
297.836	595.6
298.227	590.8
298.617	596.2
299.008	591.8
299.398	589
299.789	592.4
300.179	590
300.57	602.6
300.961	582.8
301.352	587.4
301.742	594.8
302.133	587.6
302.524	583.8
302.915	587.8
303.307	583.6
303.698	601.4
304.089	597.4
304.48	585.8
304.872	594.4
305.263	592.2
305.655	585.8
306.046	594.6
306.438	596.4
306.829	587.4
307.221	601
307.613	593.6
308.005	598.4
308.397	605.2
308.789	602.6
309.181	602.8
309.573	608
309.965	596.8
310.357	586.2
310.749	601.2
311.142	583.8
311.534	593.4
311.926	599.6
312.319	597.6
312.711	581.6
313.104	599.2
313.497	591
313.889	626.4
314.282	609
314.675	605.2
315.068	591.2
315.461	594.2
315.854	618.6
316.247	600.2
316.64	594.2
317.033	586.6
317.405	599.2
317.798	584.8
318.192	587.8
318.585	585.2
318.979	586.2
319.372	585.2
319.766	586.2
320.16	593.8
320.553	588.8
320.947	599.6
321.341	585.8
321.735	583.6
322.129	568.4
322.523	613
322.917	590.8
323.311	599.8
323.705	586.6
324.099	599.4
324.494	609.6
324.888	598.2
325.282	590.8
325.677	607.8
326.071	602.2
326.466	602
326.861	594.2
327.255	604.6
327.65	594.8
328.045	601.6
328.44	589.4
328.835	593.2
329.23	585.4
329.625	606.6
330.02	578.6
330.415	603.6
330.81	590
331.206	584.8
331.601	586.8
331.996	598.8
332.37	601.2
332.766	585.8
333.161	604.4
333.557	584.4
333.953	588.6
334.348	894.6
334.744	591.8
335.14	586
335.536	587.8
335.932	598
336.328	594.4
336.724	598.8
337.12	592.4
337.516	596.6
337.913	587
338.309	601.4
338.705	594
339.102	598.8
339.498	578.8
339.895	603.8
340.291	590.2
340.688	599.6
341.085	577.2
341.481	587.6
341.878	586.6
342.275	603.4
342.672	584.8
343.069	582.6
343.466	577.6
343.842	600.4
344.239	586
344.636	593.2
345.033	585.2
345.431	579.8
345.828	592
346.225	581
346.623	618.4
347.02	592.4
347.418	595.4
347.816	602.4
348.213	582.6
348.611	588.4
349.009	582.2
349.407	591.2
349.805	583
350.203	580.2
350.601	589.4
350.999	588.8
351.397	638.6
351.795	590
352.193	592.6
352.57	594.8
352.969	604.8
353.367	576.8
353.766	581.6
354.164	589.4
354.563	584.2
354.961	588
355.36	581.6
355.759	591.6
356.158	582.6
356.557	585.8
356.956	580.8
357.355	578
357.754	588
358.153	592.4
358.552	604.6
358.951	579.2
359.35	594.4
359.75	585.4
360.149	576.4
360.527	571.4
360.926	583.2
361.326	581.6
361.726	582
362.125	577
362.525	589.4
362.925	589.8
363.325	585.8
363.724	585.6
364.124	583.4
364.524	574
364.924	580.6
365.324	592.2
365.725	570.6
366.125	586
366.525	579.8
366.904	584
367.304	564.2
367.705	596.2
368.105	594
368.506	580.8
368.906	583
369.307	585.2
369.708	595.8
370.108	571.2
370.509	592.2
370.91	580
371.311	586
371.712	591
372.113	581.6
372.514	571.8
372.894	588.2
373.295	573.4
373.696	590.4
374.097	595
374.499	604.8
374.9	587.8
375.301	582.2
375.703	584.2
376.105	578.4
376.506	589
376.908	591.8
377.309	592
377.711	582
378.113	576.6
378.493	587.2
378.895	578.2
379.297	596.8
379.699	578.4
380.102	581.4
380.504	585.6
380.906	576.8
381.308	609.2
381.71	578.8
382.113	581
382.515	585.2
382.918	581.8
383.299	583.2
383.701	587.4
384.104	587.8
384.507	573.2
384.909	577.4
385.312	580.6
385.715	575.4
386.118	576.2
386.521	573.6
386.924	589.2
387.327	583
387.709	576.2
388.112	568
388.515	577
388.918	578.8
389.322	586.4
389.725	578.4
390.129	603.4
390.532	585
390.936	576.4
391.339	579
391.743	594.2
392.125	577.4
392.529	595.4
392.933	586.8
393.337	578.6
393.74	584.6
394.144	582.8
394.548	579
394.953	582.6
395.357	585.8
395.761	575.6
396.144	580.6
396.548	586.8
396.952	582.6
397.357	583
397.761	570.8
398.166	577.2
398.57	578.6
398.975	571
399.379	586
399.763	618.8
400.168	580.8
400.572	576.6
400.977	589
401.382	591.6
401.787	585.8
402.192	600.6
402.597	589.6
403.002	573.6
403.386	594.4
403.791	597.2
404.197	573.8
404.602	579.4
405.007	582.2
405.413	580.8
405.818	584.2
406.224	581.4
406.608	575.6
407.014	571
407.42	592.8
407.825	579.8
408.231	602
408.637	584.6
409.043	596.4
409.449	584.2
409.834	574.6
410.24	584.2
410.646	591.2
411.052	597.8
411.458	584.4
411.865	600.6
412.271	587.8
412.677	589.2
413.062	589.4
413.469	569.8
413.875	602
414.282	594.6
414.689	588
415.095	585.4
415.502	575.8
415.888	588.2
416.294	569.4
416.701	622.2
417.108	575.2
417.515	593
417.923	574.4
418.33	598.8
418.715	594.6
419.123	590
419.53	576.4
419.937	586.8
420.345	589.6
420.752	581.8
421.16	596.6
421.546	582.8
421.953	588
422.361	583.8
422.769	590.8
423.177	577.6
423.585	609.8
423.992	602.4
424.379	596.4
424.787	594.2
425.195	606.8
425.603	592.6
426.011	589.4
426.419	587.6
426.806	580.6
427.214	579
427.623	585.8
428.031	594
428.44	586
428.848	592.2
429.235	589.6
429.644	586.8
430.053	582.8
430.461	596.4
430.87	608.4
431.279	586.4
431.666	579.2
432.075	580.2
432.484	589.6
432.893	576.4
433.302	597
433.711	620.2
434.099	592.2
434.508	581.8
434.918	576.2
435.327	594.6
435.737	581
436.125	589.4
436.534	585.8
436.944	590.4
437.353	581.8
437.763	598.8
438.173	582
438.561	596.4
438.971	575.4
439.381	582.4
439.791	579.8
440.201	568
440.589	582.2
440.999	588.4
441.409	582.2
441.819	574.4
442.23	596
442.619	594.4
443.029	585.2
443.439	586.8
443.85	587.8
444.26	597.8
444.649	590.2
445.06	585.8
445.471	575.6
445.881	577.6
446.292	591
446.682	601.2
447.092	575.6
447.503	628.8
447.914	587
448.325	576.6
448.715	580.4
449.126	583.6
449.537	585.2
449.948	578
450.338	577.8
450.75	584.6
451.161	583.8
451.572	588
451.984	583.8
452.374	570.4
452.786	585
453.197	587.6
453.609	583.2
453.999	575.8
454.411	576.6
454.823	593.2
455.235	591.4
455.647	576.6
456.037	588.2
456.449	573.4
456.862	581
457.274	582.2
457.665	577.4
458.077	590.6
458.489	603.4
458.902	586.2
459.293	579
459.705	585
460.118	568.2
460.53	577.8
460.921	581.6
461.334	576
461.747	582.4
462.16	586.4
462.551	597.2
462.964	582.8
463.377	568.8
463.79	576.6
464.182	585.2
464.595	580
465.008	583.6
465.421	588.4
465.813	580
466.226	583.8
466.64	573.4
467.053	620.2
467.445	592.8
467.859	601.8
468.272	574.2
468.686	585.6
469.078	578.6
469.492	577
469.906	580.6
470.298	591.6
470.712	575.2
471.126	614.6
471.54	565.8
471.933	573.6
472.347	572.6
472.761	581.4
473.175	572.8
473.568	572.2
473.982	570.8
474.397	576
474.79	577
475.204	585
475.619	579.2
476.033	584.2
476.426	573.6
476.841	571.6
477.256	603.6
477.649	563.6
478.064	562
478.479	571
478.872	573
479.287	562.4
479.702	574.2
480.118	573.2
480.511	573.6
480.927	580
481.342	574
481.736	577
482.151	568.2
482.566	583
482.96	580
483.376	583.4
483.792	569.4
484.186	575
484.602	579.2
485.017	572.6
485.412	576.4
485.827	582
486.243	582.2
486.638	601.4
487.054	584.6
487.47	595.4
487.865	566.4
488.281	574.6
488.697	576.4
489.092	577.6
489.508	570
489.925	579.8
490.32	576.4
490.736	585.2
491.153	575.4
491.548	585.4
491.964	583.2
492.381	566.4
492.776	576.2
493.193	583.6
493.61	582.2
494.006	575.6
494.422	576.6
494.84	573.4
495.235	582.2
495.652	570.2
496.069	570.4
496.465	561.8
496.883	573.6
497.3	605.6
497.696	570.4
498.113	577.2
498.509	567.2
498.927	566.6
499.344	570.6
499.741	567.6
500.158	584.8
500.576	581.2
500.973	574
501.39	568.6
501.787	563
502.205	579.2
502.623	573.2
503.02	564.2
503.438	566.8
503.856	573.6
504.253	581.8
504.671	574
505.068	569.6
505.486	569.6
505.905	594
506.302	574.2
506.72	578.4
507.118	570.6
507.536	573
507.955	576.6
508.352	578.6
508.771	579.2
509.169	578.8
509.587	570.4
510.006	572
510.404	569
510.823	570
511.221	564
511.64	576.8
512.038	583
512.457	572.8
512.877	570.6
513.275	566
513.694	567.6
514.092	567.4
514.512	569.2
514.91	577.4
515.33	574.6
515.749	573.4
516.148	575.4
516.568	571.4
516.966	572.2
517.386	574.8
517.785	577
518.205	571.8
518.603	568.2
519.024	566.8
519.444	577
519.843	575.6
520.263	582.2
520.662	573.4
521.082	574.6
521.481	577.8
521.902	577
522.301	576.6
522.722	573
523.121	574
523.542	568.2
523.963	568.8
524.362	566.6
524.783	576.2
525.183	568.4
525.604	570.4
526.003	567.6
526.425	564.4
526.824	577.2
527.246	575
527.646	570.8
528.067	578.6
528.467	570.4
528.888	569.6
529.289	572.2
529.71	570.4
530.11	568
530.532	573
530.932	570
531.354	563.4
531.755	600
532.176	579.6
532.577	573.8
532.999	573
533.4	572.6
533.822	580
534.223	583.4
534.645	573.8
535.046	576.4
535.468	580
535.869	579
536.292	567.2
536.693	601.2
537.115	578.4
537.516	573.4
537.939	572
538.34	591
538.742	584.4
539.165	585.8
539.566	577
539.989	564
540.391	571
540.814	579.8
541.216	581.4
541.639	576.6
542.041	580.6
542.464	571.6
542.866	571
543.268	567.6
543.691	579.2
544.093	576.4
544.517	588.8
544.919	563.2
545.343	592.6
545.745	565.6
546.147	581
546.571	569.2
546.974	565.8
547.398	578
547.8	582.2
548.224	570.2
548.627	569.8
549.03	576.4
549.454	569.2
549.857	562.2
550.281	565.2
550.684	567.2
551.087	580.4
551.512	572.6
551.915	579.2
552.34	570.6
552.743	570.2
553.146	569
553.571	569.2
553.975	590.8
554.399	562.2
554.803	605.6
555.207	565.6
555.632	573.6
556.036	576.2
556.461	568
556.865	571.4
557.268	567
557.694	569.6
558.098	579.2
558.502	579.2
558.927	565
559.332	564.2
559.736	571.4
560.162	574.6
560.566	575.4
560.992	579.8
561.396	571.8
561.801	570.6
562.227	571.6
562.631	572.4
563.036	569.2
563.462	576
563.867	573.6
564.272	565.8
564.698	574.6
565.103	565
565.508	590.4
565.935	571.8
566.34	570.2
566.745	583
567.172	568.2
567.577	588.8
567.982	582
568.409	570.4
568.815	566
569.22	574.8
569.626	579.4
570.053	566.2
570.459	572.6
570.865	579.4
571.292	575.8
571.698	567.2
572.104	563.2
572.531	569.4
572.937	576.6
573.343	570.8
573.75	569.6
574.177	569.8
574.583	576
574.99	566.8
575.396	575.8
575.824	568
576.231	576.6
576.637	571.4
577.065	591.6
577.472	569.2
577.879	573.2
578.286	575.4
578.714	566.6
579.121	571.8
579.528	576.2
579.935	578.4
580.364	568.2
580.771	560.4
581.178	556
581.585	577
582.014	576.2
582.421	568.4
582.829	567.8
583.236	578
583.644	567
584.073	569.6
584.481	572.8
584.889	562.2
585.296	576.4
585.726	565.4
586.134	564.6
586.542	565.6
586.95	588.4
587.358	563.4
587.787	577.6
588.196	572.8
588.604	568.6
589.012	569.8
589.421	563.8
589.851	566.2
590.259	571.4
590.668	561.6
591.076	604.4
591.485	567
591.894	574.8
592.324	577
592.733	571
593.142	557.6
593.551	567.4
593.96	593.8
594.369	555.2
594.8	562.4
595.209	554.8
595.618	556.8
596.028	560.6
596.437	553.6
596.847	564.2
597.256	565.2
597.687	568
598.097	576.6
598.507	558.2
598.917	566
599.327	567.4
599.736	572.4
600.146	574
600.556	571.4
600.988	581.4
601.398	564.8
601.808	576.6
602.219	558
602.629	574.2
603.039	569.8
603.45	587
603.86	567.2
604.271	581.6
604.703	572.2
605.114	568.2
605.525	571.4
605.935	571.2
606.346	584.2
606.757	570.8
607.168	564.2
607.579	567.2
607.99	580.6
608.402	569
608.813	572.4
609.224	566.8
609.636	566
610.047	562
610.48	570.2
610.892	575.2
611.303	561.8
611.715	567
612.127	555.4
612.539	562.8
612.95	577.2
613.362	558.2
613.774	559
614.186	564
614.599	574
615.011	577.6
615.423	572.6
615.835	559
616.248	567.2
616.66	568.8
617.073	563.4
617.485	571.2
617.898	566.8
618.311	567.8
618.723	569.2
619.136	597.4
619.549	575.6
619.962	582.6
620.375	562
620.788	564.4
621.201	565
621.614	563.2
622.028	565.6
622.441	566.4
622.854	572
623.268	563
623.681	568.8
624.095	563
624.509	577
624.922	570.4
625.336	560.8
625.728	566.6
626.142	566.6
626.556	574.8
626.97	567.6
627.384	566.6
627.799	573.6
628.213	574.2
628.627	562.2
629.041	563.2
629.456	564.4
629.87	565.2
630.285	572.4
630.699	576.2
631.093	565
631.507	570.4
631.922	561.6
632.337	573.8
632.752	563.8
633.167	570.6
633.582	568
633.997	566
634.412	555.4
634.806	558.6
635.221	560.2
635.637	573.6
636.052	563
636.468	566.2
636.883	584.6
637.299	566.8
637.715	558.4
638.109	566.2
638.525	556.6
638.941	580
639.357	571.6
639.773	574
640.189	573
640.584	570.2
641	564.8
641.416	556.6
641.832	566.2
642.249	561.4
642.665	563.8
643.06	567.4
643.477	580.6
643.894	564.2
644.31	568.4
644.727	565.8
645.123	563.8
645.54	560.8
645.957	566.2
646.374	571.8
646.77	566.2
647.187	590.4
647.604	568.2
648.021	558.6
648.439	555.2
648.835	569.2
649.252	565.2
649.67	566.6
650.088	565.4
650.484	568.6
650.902	567.8
651.32	567.2
651.738	564.8
652.134	560.2
652.552	578
652.971	569.8
653.389	568.8
653.786	572
654.204	592.4
654.622	562.6
655.019	565.6
655.438	570.6
655.857	564.8
656.275	565.2
656.673	561.8
657.091	572.2
657.51	560.2
657.908	571.6
658.327	580.6
658.746	557.2
659.144	569.8
659.563	574.4
659.982	573.6
660.38	554.2
660.8	567.4
661.219	567
661.617	570.4
662.037	570
662.457	575.4
662.855	556
663.275	593.2
663.695	564.6
664.094	575.2
664.514	573.6
664.934	559.4
665.333	560.4
665.753	559
666.152	564.2
666.572	557.2
666.993	577
667.392	557
667.812	562.2
668.212	562.4
668.632	577.4
669.053	564.6
669.453	563.6
669.874	571.8
670.273	564.2
670.694	561.4
671.116	575.4
671.515	571.6
671.937	565.8
672.337	565.4
672.758	559.6
673.158	573.8
673.58	556.4
673.98	561.2
674.402	574.2
674.824	554.4
675.224	565
675.646	567.2
676.047	564
676.469	563.4
676.869	567.6
677.292	567.8
677.693	565
678.115	557.6
678.516	568
678.939	568
679.34	565.4
679.762	573.2
680.164	574.6
680.586	560.6
680.988	578.2
681.411	589
681.812	569.8
682.236	554.6
682.637	557.2
683.061	555
683.462	566.8
683.864	560.8
684.288	564.4
684.69	550.2
685.114	566.6
685.516	572.2
685.94	555.4
686.342	572
686.766	561.6
687.168	566.8
687.571	577.2
687.995	557.2
688.398	564.2
688.822	561.6
689.225	578.8
689.628	574.8
690.052	567.6
690.456	566.2
690.88	566.8
691.284	559.2
691.687	572
692.112	555.6
692.515	555.6
692.919	566.8
693.344	561.6
693.747	554
694.173	557.4
694.577	568.6
694.98	560.6
695.406	561.6
695.81	560
696.214	566.2
696.64	558.6
697.044	564.6
697.448	574.6
697.874	562.2
698.279	563.4
698.684	556.4
699.11	556.8
699.514	551.8
699.919	560
700.324	561.2
700.75	568
701.156	567
701.561	573.6
701.987	565
702.393	566.2
702.798	571.6
703.203	567.4
703.63	566
704.036	563
704.442	569.2
704.847	554.4
705.274	568.2
705.68	570.2
706.086	566
706.492	549.8
706.92	555.2
707.326	575.2
707.732	557.4
708.139	557.8
708.545	557
708.973	558.2
709.38	565.2
709.786	554.8
710.193	580.2
710.6	566
711.028	553.8
711.435	569.2
711.842	565.2
712.249	561
712.656	563.8
713.064	567.2
713.492	563.4
713.9	557.8
714.307	562.4
714.715	557
715.123	558.8
715.53	568.2
715.938	561.4
716.367	562
716.775	566.2
717.184	555.2
717.592	563
718	567.4
718.408	591.6
718.816	591
719.225	567.8
719.633	560
720.042	554.4
720.472	553.8
720.881	584.4
721.29	554.6
721.699	552.2
722.108	573
722.517	565.6
722.926	556.4
723.335	567.8
723.744	558.4
724.154	563.6
724.563	558.4
724.973	570.4
725.382	560.4
725.792	553.4
726.202	554.6
726.612	573
727.022	558.8
727.432	561.2
779.813	561.4
780.223	595.8
780.634	552.4
781.044	557
781.454	564
781.865	582.6
782.276	549.6
782.686	562.8
783.097	559
783.508	563
783.919	569.2
784.33	578.8
784.741	569.4
785.152	558.6
785.563	553
785.974	560.2
786.386	572.4
786.776	553.6
787.188	567.4
787.599	551.2
788.011	572
788.423	569.4
788.835	561.2
789.247	559.8
789.659	560.8
790.071	556.2
790.483	600.4
790.874	553.4
791.286	568.4
791.699	559.4
792.111	558.2
792.524	555.2
792.937	566.4
793.349	550.2
793.741	561.4
794.154	561.4
794.567	575
794.98	568.6
795.393	555
795.785	576
796.198	558.8
796.612	560.2
797.026	553.8
797.439	549.2
797.831	554.8
798.245	549.8
798.659	556.8
799.073	559.8
799.487	556.2
799.88	556.4
800.294	552.8
800.708	561.6
801.123	567.2
801.516	564.6
801.93	549
802.345	542.4
802.76	558.8
803.153	574.2
803.568	571.4
803.983	577
804.377	560.8
804.792	555.8
805.207	552.8
805.601	564.8
806.016	584.6
806.432	548.2
806.826	589.2
807.242	568.4
807.658	563
808.052	563
808.468	558.2
808.884	548.4
809.279	556.8
809.695	568
810.111	580.6
810.506	565.2
810.922	583.8
811.339	557.2
811.734	572.6
812.151	557.8
812.546	549.2
812.963	556.8
813.38	563.4
813.776	554.8
814.193	575.8
814.589	561.6
815.006	553.6
815.402	560.8
815.82	562
816.237	563.4
816.633	559
817.051	557
817.448	565
817.866	559.8
818.262	578.2
818.68	555.4
819.077	556.4
819.495	558
819.892	599
820.311	553.6
820.708	565.2
821.127	561.6
821.524	580.2
821.943	570.2
822.34	573.4
822.759	560
823.157	564.2
823.576	575.6
823.974	566.8
824.393	587
824.791	551.6
825.189	552.8
825.609	558
826.007	570.8
826.427	546.8
826.826	553.2
827.246	566.8
827.644	554.4
828.043	573.8
828.463	554.6
828.862	572.6
829.261	567.4
829.682	554.2
830.081	572.6
830.502	557
830.901	563.2
831.301	568.6
831.722	557.6
832.121	555
832.521	561.6
832.943	561.2
833.342	560.8
833.742	555.2
834.164	550.2
834.564	553.6
834.965	564.6
835.386	554.8
835.787	559.6
836.188	558.8
836.588	564.2
837.01	562.2
837.411	549.2
837.812	570.6
838.213	563
838.636	553.2
839.037	616.8
839.438	563.2
839.84	557.4
840.263	567.4
840.664	558.6
841.066	553.8
841.468	557.6
841.891	551.6
842.293	566.8
842.695	561
843.098	556.8
843.5	550.2
843.902	557.8
844.326	547.2
844.729	558.8
845.131	578.6
845.534	566
845.937	564.2
846.34	578.8
846.764	549.4
847.167	561.8
847.571	545.4
847.974	559.2
848.377	558.4
848.781	593.2
849.184	568.8
849.588	566.2
849.992	560
850.396	561.4
850.821	576.4
851.225	566.2
851.63	550
852.034	569
852.438	555.2
852.843	623
853.247	551.6
853.652	553.4
854.057	562
854.462	562.4
854.867	560.4
855.272	582.2
855.677	568
