#lambda/nm	C1
208.295	536.4
208.67	483.4
209.045	441
209.419	442
209.794	613.8
210.169	597.8
210.544	709.8
210.919	615.2
211.295	596.2
211.67	610.6
212.045	601.6
212.421	608.6
212.796	639.2
213.172	601
213.547	604.2
213.923	609.2
214.299	604
214.675	615.2
215.051	606.4
215.427	615.6
215.803	624
216.179	607.8
216.555	601
216.932	608.2
217.308	609.6
217.684	606.8
218.061	607.6
218.438	612.2
218.814	595.6
219.191	610.6
219.568	602
219.945	605
220.322	612.4
220.699	603.2
221.076	616.4
221.453	613.6
221.83	596
222.208	604.4
222.585	611.8
222.962	606
223.34	613
223.717	606.2
224.095	599.4
224.473	611.6
224.851	597.6
225.229	600.2
225.607	620
225.985	594.8
226.363	599.4
226.741	617.2
227.119	605
227.497	619
227.876	596.4
228.254	612.6
228.633	600
229.011	605.4
229.39	608
229.769	612.2
230.148	606.2
230.527	618
230.905	611.6
231.284	613
231.664	608
232.043	611.6
232.422	612.2
232.801	598.4
233.181	614
233.56	612.6
233.94	599.4
234.319	608.4
234.699	611
235.079	637.2
235.458	648
235.838	623
236.218	600.2
236.598	596
236.978	603.4
237.358	605.8
237.738	600.4
238.119	607.8
238.499	598.6
238.88	603.2
239.26	617.2
239.641	597.8
240.021	605.8
240.402	609
240.783	605.4
241.163	602.8
241.544	608.6
241.925	607.2
242.306	619.6
242.687	609.8
243.069	599.8
243.45	615.4
243.831	600.6
244.212	605.8
244.594	635.4
244.975	610
245.357	609.6
245.739	601
246.12	612.2
246.502	618
246.884	603.6
247.266	602
247.648	610
248.03	628
248.412	609.4
248.794	603.2
249.176	596.6
249.559	620
249.941	591.6
250.323	593.8
250.706	604.4
251.089	595.8
251.471	607.2
251.854	605
252.237	605.6
252.62	614.6
253.002	609.4
253.385	603.4
253.769	616.8
254.152	597.2
254.535	614.8
254.918	605.8
255.301	605.2
255.685	600.8
256.068	595.2
256.452	631.8
256.835	621
257.219	610
257.603	615.2
257.986	597
258.37	608.4
258.754	601.6
259.138	616.6
259.522	624
259.906	602.8
260.29	612.4
260.675	608.8
261.059	606.8
261.443	602.8
261.828	607.8
262.212	611
262.597	599
262.981	605.2
263.366	606.6
263.751	612.2
264.136	601.8
264.521	598.6
264.906	593
265.291	613
265.676	594.6
266.061	610.8
266.446	621
266.831	604.8
267.217	627.8
267.602	611.8
267.987	610.8
268.373	604.6
268.759	610.8
269.144	612.6
269.53	600.2
269.916	605.2
270.302	596
270.688	609.2
271.074	605.4
271.46	612.8
271.846	630.2
272.232	605.2
272.618	597.2
273.004	605.6
273.391	612
273.777	613.6
274.164	611.2
274.55	614.2
274.937	615.4
275.324	605.2
275.71	614.4
276.097	622.2
276.484	602.2
276.871	606.4
277.258	611.4
277.645	598.6
278.032	599.2
278.419	601.8
278.807	619.8
279.194	600
279.581	593.2
279.969	606.8
280.356	615.2
280.744	608.8
281.131	637.4
281.519	611
281.907	602.2
282.295	599.4
282.682	612
283.07	615.2
283.458	615.4
283.846	619.4
284.235	612.6
284.623	616.2
285.011	601.6
285.399	611.8
285.788	605.6
286.176	594.6
286.565	609.6
286.953	604.2
287.342	603.6
287.731	594.2
288.119	592.4
288.508	604.2
288.897	601.2
289.286	599
289.675	612.2
290.064	611.8
290.453	610.2
290.821	606.6
291.21	608.4
291.599	596.8
291.989	606.2
292.378	615.2
292.768	625
293.157	613.6
293.547	613.8
293.936	606.6
294.326	603.2
294.716	609.6
295.106	606.6
295.496	606
295.886	615
296.276	606.4
296.666	595.4
297.056	597.8
297.446	592.2
297.836	623.4
298.227	602.8
298.617	613
299.008	614
299.398	609.4
299.789	597.8
300.179	612.2
300.57	623.4
300.961	606.2
301.352	610.4
301.742	614.6
302.133	609.8
302.524	607.4
302.915	613.8
303.307	599.4
303.698	606.2
304.089	607
304.48	610.8
304.872	615.4
305.263	597.2
305.655	595.2
306.046	610.6
306.438	612.6
306.829	603.8
307.221	621.6
307.613	614.2
308.005	616.4
308.397	625
308.789	623.8
309.181	630.8
309.573	619.2
309.965	621.8
310.357	607.6
310.749	620.6
311.142	592.8
311.534	600.4
311.926	617.4
312.319	610.2
312.711	596.6
313.104	620.6
313.497	611.8
313.889	646.4
314.282	622.8
314.675	626.4
315.068	604.6
315.461	617.4
315.854	640.2
316.247	608
316.64	603.6
317.033	608
317.405	612.2
317.798	606
318.192	607.4
318.585	601.6
318.979	621.8
319.372	600.4
319.766	608
320.16	608.4
320.553	623.2
320.947	628.8
321.341	602
321.735	607.4
322.129	589.8
322.523	621.8
322.917	599.8
323.311	620.4
323.705	612.2
324.099	617.2
324.494	621.8
324.888	624.2
325.282	611
325.677	612.6
326.071	625
326.466	624.6
326.861	612
327.255	620.8
327.65	624.2
328.045	626.2
328.44	617.2
328.835	604.2
329.23	597
329.625	631.8
330.02	603.8
330.415	620.8
330.81	611.2
331.206	607.4
331.601	613
331.996	613.6
332.37	625.4
332.766	604
333.161	636.2
333.557	610
333.953	612.6
334.348	899
334.744	611.4
335.14	599
335.536	608.8
335.932	621.2
336.328	612
336.724	614.2
337.12	608.4
337.516	612.8
337.913	610.8
338.309	613.8
338.705	607
339.102	614.8
339.498	601
339.895	614.4
340.291	608.4
340.688	616.8
341.085	598.6
341.481	600.2
341.878	606
342.275	627.6
342.672	607.4
343.069	601.2
343.466	596
343.842	611.8
344.239	606.8
344.636	606.8
345.033	602.8
345.431	597.4
345.828	601.2
346.225	603.4
346.623	637.4
347.02	606.8
347.418	612
347.816	618
348.213	596
348.611	615.4
349.009	598.4
349.407	615.2
349.805	595.8
350.203	594.2
350.601	607
350.999	591
351.397	666.2
351.795	600.8
352.193	619.6
352.57	618
352.969	613.2
353.367	589.2
353.766	595
354.164	608
354.563	615.6
354.961	595.6
355.36	602.4
355.759	603.2
356.158	600
356.557	602.2
356.956	591.4
357.355	590.6
357.754	610.8
358.153	608.8
358.552	623.8
358.951	608.2
359.35	612.4
359.75	602.4
360.149	588.6
360.527	592.8
360.926	593
361.326	596.2
361.726	602.4
362.125	597
362.525	607.6
362.925	600.4
363.325	604.2
363.724	598
364.124	597
364.524	592
364.924	603.6
365.324	612
365.725	587.6
366.125	608
366.525	606.4
366.904	588.6
367.304	586.4
367.705	616.4
368.105	604.4
368.506	598.6
368.906	597.4
369.307	589.6
369.708	603
370.108	584.6
370.509	611.2
370.91	586.2
371.311	600.4
371.712	601.6
372.113	600
372.514	592.4
372.894	597.2
373.295	594
373.696	604.2
374.097	601.2
374.499	620.2
374.9	608
375.301	596.8
375.703	606.2
376.105	587.8
376.506	601.8
376.908	602.6
377.309	606.6
377.711	602.2
378.113	594.4
378.493	602.2
378.895	598.6
379.297	609.4
379.699	588
380.102	602.2
380.504	599.8
380.906	594.4
381.308	617.2
381.71	607
382.113	611.4
382.515	598.2
382.918	605.4
383.299	598.8
383.701	604
384.104	597.2
384.507	582
384.909	591.6
385.312	591
385.715	592
386.118	592.4
386.521	587.8
386.924	609.6
387.327	584.6
387.709	580.8
388.112	578.6
388.515	598.8
388.918	597.2
389.322	600
389.725	599.8
390.129	619.2
390.532	605
390.936	601.4
391.339	585
391.743	602.8
392.125	594.6
392.529	616.8
392.933	614.6
393.337	604.4
393.74	594.2
394.144	600
394.548	595
394.953	596.2
395.357	601.4
395.761	593.2
396.144	594.2
396.548	595.2
396.952	592.2
397.357	595
397.761	598.6
398.166	591.4
398.57	596.4
398.975	593
399.379	597.2
399.763	634.6
400.168	601
400.572	596
400.977	594.4
401.382	611
401.787	600.4
402.192	608
402.597	610.6
403.002	586.4
403.386	605
403.791	611.2
404.197	596.8
404.602	596
405.007	597
405.413	604.4
405.818	596.8
406.224	593
406.608	603.8
407.014	590.8
407.42	611.4
407.825	584.6
408.231	601.2
408.637	603.2
409.043	606.4
409.449	593.2
409.834	600.8
410.24	589.4
410.646	616.2
411.052	611.8
411.458	592.2
411.865	605
412.271	605.8
412.677	605.6
413.062	601
413.469	590.4
413.875	621.4
414.282	613.4
414.689	601
415.095	596
415.502	593.6
415.888	598.4
416.294	591
416.701	634.4
417.108	591.6
417.515	608
417.923	601
418.33	611.6
418.715	603
419.123	599
419.53	600
419.937	606
420.345	618.8
420.752	601.8
421.16	618.6
421.546	602.8
421.953	607
422.361	584.4
422.769	600
423.177	592.6
423.585	624
423.992	619
424.379	611.6
424.787	615.6
425.195	617.8
425.603	598.6
426.011	609.6
426.419	613.6
426.806	596.8
427.214	606.4
427.623	614.8
428.031	615.4
428.44	603.4
428.848	612.8
429.235	621.8
429.644	603.6
430.053	604.6
430.461	615.2
430.87	626.4
431.279	609.2
431.666	600
432.075	607.6
432.484	604.8
432.893	607.2
433.302	625.6
433.711	642.4
434.099	611.8
434.508	597
434.918	594.4
435.327	613.4
435.737	611
436.125	598.4
436.534	602.6
436.944	608
437.353	600.4
437.763	621.6
438.173	602
438.561	616.2
438.971	588.8
439.381	602.8
439.791	610.6
440.201	584.6
440.589	611.6
440.999	604
441.409	599.6
441.819	594
442.23	616
442.619	608.6
443.029	607.8
443.439	605.8
443.85	599.4
444.26	616.6
444.649	613.4
445.06	594.4
445.471	603
445.881	599.2
446.292	621.2
446.682	611.2
447.092	589.2
447.503	643.2
447.914	606.2
448.325	601.4
448.715	599.4
449.126	589.2
449.537	595.6
449.948	595.2
450.338	601.6
450.75	607.4
451.161	607.4
451.572	602.6
451.984	602
452.374	589
452.786	603.2
453.197	602.6
453.609	609.6
453.999	594.2
454.411	594.2
454.823	603
455.235	600.4
455.647	589.8
456.037	614.2
456.449	584.8
456.862	601.8
457.274	592.8
457.665	589.8
458.077	606.8
458.489	625.2
458.902	591.6
459.293	598
459.705	596.2
460.118	595.2
460.53	603
460.921	598.6
461.334	600.8
461.747	601.6
462.16	602.2
462.551	612
462.964	602
463.377	588.4
463.79	601.2
464.182	607
464.595	590.6
465.008	599.4
465.421	600.4
465.813	597.8
466.226	611.2
466.64	593.2
467.053	640.6
467.445	604.2
467.859	611.4
468.272	597.4
468.686	606.4
469.078	592.8
469.492	582.2
469.906	597.2
470.298	597.6
470.712	589.2
471.126	632.2
471.54	580.6
471.933	592
472.347	595.8
472.761	592.2
473.175	584.8
473.568	594.8
473.982	590.4
474.397	590.2
474.79	598.6
475.204	594.4
475.619	594.4
476.033	603.4
476.426	594
476.841	599.2
477.256	616.4
477.649	591.4
478.064	582
478.479	584.6
478.872	591.8
479.287	571.4
479.702	588.8
480.118	584.8
480.511	589.8
480.927	587
481.342	592.2
481.736	595.2
482.151	577.2
482.566	596.6
482.96	588.6
483.376	598.2
483.792	582.8
484.186	595
484.602	588.6
485.017	594.6
485.412	584.6
485.827	595
486.243	590.2
486.638	612.2
487.054	600.2
487.47	608
487.865	588.8
488.281	588
488.697	584.4
489.092	588.4
489.508	580.6
489.925	601.4
490.32	585.4
490.736	599.8
491.153	593.2
491.548	589.2
491.964	593.4
492.381	586.6
492.776	586.8
493.193	593.8
493.61	607.4
494.006	589
494.422	596.2
494.84	583
495.235	598.6
495.652	593.4
496.069	587
496.465	582.2
496.883	586.4
497.3	614.2
497.696	589.8
498.113	594.2
498.509	581.2
498.927	570.4
499.344	586
499.741	578.6
500.158	607.4
500.576	594.6
500.973	587.4
501.39	579.8
501.787	572.4
502.205	594.4
502.623	585
503.02	575.2
503.438	593.8
503.856	590.6
504.253	597.8
504.671	586
505.068	575.6
505.486	585.8
505.905	605
506.302	589.4
506.72	595.2
507.118	580.2
507.536	591
507.955	587.2
508.352	598.8
508.771	593.6
509.169	600.2
509.587	581
510.006	582.2
510.404	576.4
510.823	584.6
511.221	587
511.64	587.2
512.038	604.2
512.457	597.6
512.877	590
513.275	583
513.694	589.8
514.092	582.8
514.512	583.4
514.91	598.8
515.33	585.2
515.749	592.8
516.148	592.2
516.568	590.4
516.966	585.2
517.386	589.8
517.785	589.2
518.205	591.6
518.603	581.8
519.024	589.6
519.444	593.2
519.843	596
520.263	595
520.662	590.8
521.082	589.2
521.481	600.6
521.902	585.2
522.301	592.8
522.722	588.8
523.121	584.4
523.542	586.8
523.963	588.4
524.362	583.8
524.783	586.4
525.183	590.2
525.604	592.8
526.003	583.2
526.425	583.6
526.824	593
527.246	602
527.646	598
528.067	594.8
528.467	592.6
528.888	592.6
529.289	594.4
529.71	586
530.11	586.2
530.532	585.8
530.932	586.4
531.354	577.8
531.755	613.4
532.176	599.8
532.577	587.4
532.999	591.8
533.4	582.8
533.822	592.8
534.223	594.8
534.645	589.2
535.046	583.2
535.468	595
535.869	602.4
536.292	586.6
536.693	623.2
537.115	593.4
537.516	586.6
537.939	588.6
538.34	598.4
538.742	598.4
539.165	586.6
539.566	597.2
539.989	581
540.391	585.6
540.814	586.6
541.216	587.8
541.639	585.8
542.041	592.6
542.464	588.4
542.866	583.6
543.268	576.6
543.691	589.6
544.093	588.8
544.517	605.6
544.919	582.2
545.343	611.6
545.745	584.8
546.147	592.4
546.571	580.6
546.974	579.8
547.398	590.2
547.8	611.4
548.224	584.4
548.627	584.8
549.03	594.8
549.454	584.2
549.857	580.4
550.281	583.2
550.684	582.4
551.087	598.8
551.512	596.2
551.915	595.4
552.34	588.4
552.743	589.2
553.146	590.8
553.571	586.8
553.975	602.6
554.399	581
554.803	633.2
555.207	589
555.632	581.4
556.036	597.8
556.461	583.4
556.865	591.4
557.268	579.8
557.694	591.4
558.098	594.8
558.502	591.6
558.927	589
559.332	580.2
559.736	589.8
560.162	598
560.566	584.8
560.992	589.8
561.396	584
561.801	585.2
562.227	588.8
562.631	587.8
563.036	584.6
563.462	596.4
563.867	581.2
564.272	569.4
564.698	588
565.103	574.6
565.508	601.4
565.935	587
566.34	586.2
566.745	602.2
567.172	594.2
567.577	608.2
567.982	604
568.409	585.8
568.815	580.4
569.22	582.6
569.626	591.6
570.053	567.6
570.459	588.4
570.865	599.4
571.292	595.8
571.698	588.4
572.104	577.2
572.531	583.4
572.937	599.4
573.343	589.8
573.75	586.2
574.177	590.6
574.583	590.2
574.99	581
575.396	589.2
575.824	582.4
576.231	592.2
576.637	584.8
577.065	598
577.472	578.6
577.879	585.2
578.286	596.8
578.714	579.6
579.121	581.2
579.528	591.2
579.935	593.6
580.364	581.2
580.771	571.6
581.178	576.4
581.585	585.8
582.014	595.8
582.421	579
582.829	586
583.236	590.6
583.644	585.2
584.073	573.4
584.481	586
584.889	587.2
585.296	589.2
585.726	587.4
586.134	578.8
586.542	582.4
586.95	607.4
587.358	575.2
587.787	589.8
588.196	604.4
588.604	578.6
589.012	587.8
589.421	579.4
589.851	581.6
590.259	585.8
590.668	585.6
591.076	625.8
591.485	581
591.894	582
592.324	600.4
592.733	596.4
593.142	574.4
593.551	576.8
593.96	614.2
594.369	572.4
594.8	576
595.209	586.4
595.618	570.6
596.028	574.8
596.437	577
596.847	584
597.256	578.6
597.687	588
598.097	577.4
598.507	577.4
598.917	580.4
599.327	592
599.736	595.6
600.146	593.6
600.556	586
600.988	597
601.398	585.2
601.808	590.4
602.219	572.6
602.629	594
603.039	588.6
603.45	609.4
603.86	588.2
604.271	597
604.703	590.8
605.114	586.8
605.525	590.2
605.935	591.2
606.346	612.2
606.757	597.8
607.168	588.2
607.579	581
607.99	592
608.402	586
608.813	589
609.224	579.4
609.636	575.2
610.047	579.2
610.48	591.4
610.892	587.8
611.303	587.8
611.715	574.8
612.127	578.2
612.539	579.4
612.95	586.6
613.362	576.2
613.774	574
614.186	577
614.599	577
615.011	584.6
615.423	587.8
615.835	578.6
616.248	575.8
616.66	581.6
617.073	577.4
617.485	578
617.898	589.8
618.311	580.4
618.723	599.2
619.136	607.8
619.549	594.4
619.962	599.6
620.375	579.4
620.788	592.2
621.201	580.6
621.614	582.4
622.028	577.4
622.441	586.6
622.854	593.8
623.268	581.2
623.681	587.6
624.095	585.8
624.509	598.2
624.922	589.2
625.336	571.6
625.728	581.4
626.142	592.2
626.556	598.4
626.97	592.2
627.384	581.4
627.799	583
628.213	586.4
628.627	580.4
629.041	572.4
629.456	575.8
629.87	581.6
630.285	590.4
630.699	596.4
631.093	572.8
631.507	591.2
631.922	579.8
632.337	591.6
632.752	574.4
633.167	583.2
633.582	580.2
633.997	579.6
634.412	577.4
634.806	578.8
635.221	573.6
635.637	594.2
636.052	571.8
636.468	580.8
636.883	593.6
637.299	578.6
637.715	569.6
638.109	579.8
638.525	565.8
638.941	594
639.357	593.8
639.773	590.6
640.189	576.4
640.584	587.2
641	585.4
641.416	569.4
641.832	584.8
642.249	581.4
642.665	585.8
643.06	582.2
643.477	591
643.894	573.4
644.31	576.6
644.727	583.2
645.123	580
645.54	575.8
645.957	579.8
646.374	599
646.77	582.4
647.187	617.4
647.604	583.8
648.021	565.2
648.439	582.4
648.835	585.4
649.252	589.2
649.67	576.4
650.088	575.4
650.484	582.6
650.902	584
651.32	588
651.738	585.4
652.134	579
652.552	598.6
652.971	589.6
653.389	587.2
653.786	590.6
654.204	602
654.622	574.6
655.019	584.6
655.438	587.4
655.857	587.4
656.275	583.6
656.673	576.6
657.091	589.8
657.51	576.8
657.908	590.2
658.327	602.2
658.746	575.2
659.144	574
659.563	592
659.982	582.2
660.38	568
660.8	582.8
661.219	594.8
661.617	588.2
662.037	586
662.457	591.2
662.855	577.2
663.275	606.2
663.695	581.8
664.094	576.6
664.514	591
664.934	581
665.333	588
665.753	580.8
666.152	577.4
666.572	570
666.993	588.6
667.392	578.8
667.812	580
668.212	585.2
668.632	594
669.053	581.8
669.453	589
669.874	589.2
670.273	584.6
670.694	576.8
671.116	583.4
671.515	586.8
671.937	578.4
672.337	570.6
672.758	576.2
673.158	584.8
673.58	575.8
673.98	585.2
674.402	586.4
674.824	580
675.224	577
675.646	577
676.047	581
676.469	582.6
676.869	579.6
677.292	581.8
677.693	572.6
678.115	580.2
678.516	581.6
678.939	583
679.34	584.6
679.762	588.4
680.164	585.8
680.586	567.6
680.988	584.2
681.411	605.4
681.812	575.4
682.236	571.8
682.637	572.8
683.061	578.6
683.462	587.4
683.864	575.8
684.288	587.8
684.69	569.4
685.114	593.6
685.516	588.8
685.94	575.4
686.342	586.2
686.766	574
687.168	575.4
687.571	595.2
687.995	581.8
688.398	576
688.822	570.8
689.225	596.6
689.628	598.2
690.052	577.6
690.456	592.4
690.88	575.4
691.284	569.6
691.687	586.2
692.112	569.6
692.515	575.8
692.919	574.2
693.344	585.2
693.747	580
694.173	572.2
694.577	590
694.98	582.8
695.406	578.4
695.81	574.2
696.214	584.4
696.64	574.4
697.044	579
697.448	580.8
697.874	578
698.279	577.4
698.684	570.2
699.11	577.2
699.514	578.2
699.919	572
700.324	564.8
700.75	573.4
701.156	576.2
701.561	592
701.987	585.2
702.393	597.4
702.798	589.2
703.203	578.6
703.63	581.2
704.036	589.6
704.442	572
704.847	577.8
705.274	569.2
705.68	578.2
706.086	575.8
706.492	571.6
706.92	575.2
707.326	580.8
707.732	575.4
708.139	573.6
708.545	570.8
708.973	567.8
709.38	574
709.786	573.8
710.193	597.8
710.6	579.2
711.028	571.2
711.435	581.2
711.842	568.2
712.249	575.4
712.656	577.6
713.064	584.6
713.492	579.2
713.9	580.2
714.307	588.4
714.715	579
715.123	582.8
715.53	584
715.938	573.2
716.367	582.6
716.775	585
717.184	579
717.592	578.6
718	592.2
718.408	607
718.816	617.6
719.225	587.2
719.633	583.4
720.042	577.2
720.472	565.4
720.881	599.4
721.29	582
721.699	564.8
722.108	585
722.517	584
722.926	581.8
723.335	592.2
723.744	573
724.154	582.8
724.563	578.4
724.973	587
725.382	582.2
725.792	575.6
726.202	575
726.612	594.4
727.022	584.4
727.432	570
779.813	567.6
780.223	621.8
780.634	576.6
781.044	575.6
781.454	572.4
781.865	580.8
782.276	569.2
782.686	593.8
783.097	576.8
783.508	578.8
783.919	584.6
784.33	585.4
784.741	590
785.152	568.6
785.563	561.4
785.974	571.2
786.386	592.2
786.776	573.4
787.188	579.6
787.599	565.6
788.011	579
788.423	583
788.835	575
789.247	563.4
789.659	577.2
790.071	570.2
790.483	614.2
790.874	586
791.286	590.4
791.699	567.2
792.111	575.6
792.524	580
792.937	575.2
793.349	570.6
793.741	576.8
794.154	567.4
794.567	592.6
794.98	579.6
795.393	567.4
795.785	596.4
796.198	578
796.612	579.2
797.026	566.4
797.439	564.6
797.831	575.6
798.245	566.2
798.659	578.8
799.073	576.4
799.487	567
799.88	576.8
800.294	575
800.708	585.8
801.123	572.6
801.516	595.2
801.93	558.8
802.345	562
802.76	583.2
803.153	586.8
803.568	583.4
803.983	581.2
804.377	584
804.792	570.6
805.207	566.4
805.601	584.6
806.016	604.6
806.432	573.8
806.826	604.8
807.242	586.4
807.658	579.6
808.052	572.2
808.468	566.8
808.884	569.6
809.279	576.6
809.695	590.8
810.111	596.2
810.506	585
810.922	586.6
811.339	574.4
811.734	580.2
812.151	574.4
812.546	572.6
812.963	573
813.38	580.2
813.776	580.6
814.193	593
814.589	573.8
815.006	574
815.402	572.2
815.82	577.6
816.237	575.4
816.633	577.2
817.051	573.6
817.448	580.2
817.866	567.8
818.262	597
818.68	572.4
819.077	574.2
819.495	577.8
819.892	607.2
820.311	567.6
820.708	571.4
821.127	572.6
821.524	584
821.943	575.4
822.34	590
822.759	571.2
823.157	576.2
823.576	584
823.974	586.8
824.393	615
824.791	577.8
825.189	566.8
825.609	570.4
826.007	580.2
826.427	569.2
826.826	568.4
827.246	583.8
827.644	562
828.043	584.4
828.463	571.4
828.862	582.2
829.261	588.2
829.682	562.8
830.081	585
830.502	576.8
830.901	579
831.301	584.4
831.722	564.6
832.121	573.6
832.521	573.2
832.943	580.2
833.342	570.8
833.742	569.4
834.164	576.6
834.564	570.6
834.965	578.8
835.386	571.4
835.787	579.4
836.188	578.6
836.588	569
837.01	571.2
837.411	570.4
837.812	577.2
838.213	575.6
838.636	567
839.037	633.2
839.438	579
839.84	577.8
840.263	575
840.664	574.2
841.066	569.8
841.468	577.8
841.891	561
842.293	582.8
842.695	580.6
843.098	579.2
843.5	568
843.902	578.8
844.326	582.2
844.729	581.4
845.131	580.6
845.534	574.6
845.937	582.8
846.34	585.8
846.764	565
847.167	575.2
847.571	567.8
847.974	563.6
848.377	576.6
848.781	618.2
849.184	580.2
849.588	573
849.992	575.6
850.396	569.6
850.821	593.6
851.225	572.2
851.63	578.6
852.034	595.2
852.438	581.2
852.843	596.4
853.247	570.4
853.652	571.4
854.057	588.6
854.462	575.4
854.867	575.8
855.272	601.2
855.677	580.2
856.082	562.4
