#lambda/nm	C1
208.295	538.6
208.67	483
209.045	442
209.419	446
209.794	602.2
210.169	590.8
210.544	700
210.919	611.6
211.295	592.2
211.67	604.4
212.045	603.2
212.421	594.4
212.796	642
213.172	604.4
213.547	600.6
213.923	597.4
214.299	596
214.675	613.4
215.051	607.6
215.427	609.2
215.803	622.8
216.179	614
216.555	599.4
216.932	611
217.308	609.2
217.684	607.6
218.061	600
218.438	616.4
218.814	595.4
219.191	616
219.568	606.6
219.945	602.6
220.322	615
220.699	608.4
221.076	615.6
221.453	602.6
221.83	595.6
222.208	604.4
222.585	600.4
222.962	605.8
223.34	600.6
223.717	600.8
224.095	605.2
224.473	598.6
224.851	598.6
225.229	586
225.607	621.2
225.985	592.8
226.363	604.4
226.741	605.4
227.119	602.4
227.497	612.4
227.876	587.6
228.254	619
228.633	603.2
229.011	619.6
229.39	612.8
229.769	608.8
230.148	612.8
230.527	623.4
230.905	604.2
231.284	610.4
231.664	600
232.043	619.4
232.422	617.4
232.801	604.2
233.181	610.2
233.56	606.6
233.94	601.8
234.319	592.4
234.699	605.6
235.079	639
235.458	637.8
235.838	611.2
236.218	597
236.598	597.4
236.978	605
237.358	604
237.738	601.2
238.119	611
238.499	602.8
238.88	613.6
239.26	612
239.641	596.2
240.021	607.4
240.402	605
240.783	597.2
241.163	599.4
241.544	606.2
241.925	601
242.306	623.4
242.687	606.4
243.069	605
243.45	614.6
243.831	602.2
244.212	610.4
244.594	640.6
244.975	619
245.357	605
245.739	602.4
246.12	613.6
246.502	621
246.884	602.2
247.266	604.8
247.648	606
248.03	620.6
248.412	605.2
248.794	615.2
249.176	607.6
249.559	617.2
249.941	597.6
250.323	593.8
250.706	595.6
251.089	602.6
251.471	615.8
251.854	605
252.237	608.8
252.62	621
253.002	607.8
253.385	609.2
253.769	612.4
254.152	606
254.535	602.8
254.918	595.4
255.301	598.4
255.685	602.2
256.068	593.2
256.452	625.2
256.835	611
257.219	600.2
257.603	617.6
257.986	595
258.37	611.4
258.754	591.4
259.138	606
259.522	609.2
259.906	600
260.29	599.6
260.675	599.6
261.059	600
261.443	590.6
261.828	600.2
262.212	605.8
262.597	591.4
262.981	599
263.366	611.6
263.751	597
264.136	596.4
264.521	600.4
264.906	601.8
265.291	615.4
265.676	601.8
266.061	613.2
266.446	625.4
266.831	614.2
267.217	625.8
267.602	605.2
267.987	616.6
268.373	593.2
268.759	610.6
269.144	610.8
269.53	597.6
269.916	597.2
270.302	600.4
270.688	609
271.074	607.8
271.46	615.6
271.846	632.6
272.232	607.6
272.618	604.8
273.004	608.8
273.391	614.6
273.777	621.4
274.164	598.4
274.55	621.2
274.937	611.4
275.324	609.2
275.71	610.4
276.097	616.6
276.484	600.4
276.871	609.2
277.258	606.8
277.645	609
278.032	604
278.419	603.2
278.807	614.8
279.194	598.4
279.581	600.6
279.969	603.6
280.356	605.2
280.744	602.6
281.131	635.4
281.519	612.6
281.907	606
282.295	601
282.682	606.8
283.07	610.2
283.458	610
283.846	619
284.235	614.8
284.623	612.4
285.011	591.8
285.399	602.4
285.788	597.8
286.176	594
286.565	620.6
286.953	596.8
287.342	607.4
287.731	597.2
288.119	598.8
288.508	602.2
288.897	595.8
289.286	594.6
289.675	601.8
290.064	611.2
290.453	603.2
290.821	602.2
291.21	618
291.599	598
291.989	605.6
292.378	615.8
292.768	626.2
293.157	620.4
293.547	616.8
293.936	602.4
294.326	600.8
294.716	609
295.106	604
295.496	612.2
295.886	614.8
296.276	604.4
296.666	603
297.056	607.8
297.446	588.2
297.836	622
298.227	609.8
298.617	607.6
299.008	623.4
299.398	607.8
299.789	601.2
300.179	616.4
300.57	612.4
300.961	604.4
301.352	606
301.742	621.6
302.133	603
302.524	607.6
302.915	602
303.307	591
303.698	607.8
304.089	609.4
304.48	598.4
304.872	606.4
305.263	604.8
305.655	600.2
306.046	611
306.438	610.4
306.829	601.2
307.221	613
307.613	612.4
308.005	618.8
308.397	613
308.789	625.8
309.181	628.6
309.573	628.4
309.965	614
310.357	597.6
310.749	624.8
311.142	598.4
311.534	599
311.926	611.2
312.319	608.4
312.711	598
313.104	613.4
313.497	598.6
313.889	647.4
314.282	616.2
314.675	625
315.068	603.2
315.461	617.4
315.854	632.8
316.247	609
316.64	610.6
317.033	600.4
317.405	609.8
317.798	602.6
318.192	616.4
318.585	605.6
318.979	616.6
319.372	604.4
319.766	609.8
320.16	615
320.553	626
320.947	621.8
321.341	602
321.735	611.6
322.129	587.2
322.523	618.2
322.917	601.8
323.311	610
323.705	605.8
324.099	608.6
324.494	616
324.888	612.4
325.282	609.6
325.677	612.8
326.071	611.2
326.466	616.2
326.861	615
327.255	608
327.65	623
328.045	618.6
328.44	616.4
328.835	604.6
329.23	597.6
329.625	625.2
330.02	600.4
330.415	626
330.81	608.2
331.206	614.6
331.601	604.8
331.996	615.8
332.37	625
332.766	595.6
333.161	627
333.557	609
333.953	608.8
334.348	953.4
334.744	611.2
335.14	603.8
335.536	594.4
335.932	613.4
336.328	611.8
336.724	621.2
337.12	606.8
337.516	617.6
337.913	603.8
338.309	617.4
338.705	603.2
339.102	627.8
339.498	605.8
339.895	625.4
340.291	595.6
340.688	613.4
341.085	599.4
341.481	597.8
341.878	603
342.275	627
342.672	602
343.069	608.8
343.466	589.8
343.842	612.6
344.239	611
344.636	612.6
345.033	593.4
345.431	599.2
345.828	607.6
346.225	590
346.623	643
347.02	604.6
347.418	615.6
347.816	616.8
348.213	591.2
348.611	607.6
349.009	601.4
349.407	614.2
349.805	597.2
350.203	590.2
350.601	610.6
350.999	596.6
351.397	649.4
351.795	600.6
352.193	610.6
352.57	614
352.969	612.8
353.367	589.6
353.766	597.2
354.164	597.2
354.563	612.4
354.961	604.8
355.36	595.6
355.759	598
356.158	599
356.557	594.6
356.956	588.4
357.355	592.2
357.754	611.6
358.153	606.4
358.552	626.4
358.951	598.4
359.35	606.2
359.75	592.8
360.149	588.4
360.527	591.8
360.926	587.8
361.326	600.8
361.726	596.2
362.125	595
362.525	612.4
362.925	598.8
363.325	603.4
363.724	600.4
364.124	599
364.524	585.4
364.924	599.8
365.324	612.4
365.725	586
366.125	603
366.525	604
366.904	592.6
367.304	579.2
367.705	607.2
368.105	606.4
368.506	600.8
368.906	604.4
369.307	605
369.708	602.8
370.108	587.6
370.509	609
370.91	594.6
371.311	603.8
371.712	602.8
372.113	594.8
372.514	595
372.894	599.6
373.295	587
373.696	604.2
374.097	600.4
374.499	628
374.9	601.8
375.301	597
375.703	604
376.105	592.8
376.506	600.6
376.908	609.8
377.309	593.6
377.711	600.2
378.113	601
378.493	602.6
378.895	588.8
379.297	608.4
379.699	584.8
380.102	605.8
380.504	602.4
380.906	593.4
381.308	626.2
381.71	598.4
382.113	607.2
382.515	594.4
382.918	599.8
383.299	595.4
383.701	613.8
384.104	596.2
384.507	588.2
384.909	595
385.312	585.2
385.715	590.8
386.118	597.4
386.521	583
386.924	606.2
387.327	593.6
387.709	586.2
388.112	579.8
388.515	596.8
388.918	594
389.322	603.2
389.725	596.8
390.129	617.6
390.532	601.6
390.936	593.6
391.339	590.8
391.743	594.2
392.125	593.8
392.529	601.6
392.933	607.6
393.337	603.6
393.74	598.4
394.144	607.8
394.548	599.6
394.953	595.6
395.357	606.4
395.761	594.8
396.144	598.8
396.548	589.2
396.952	602.4
397.357	598
397.761	594.6
398.166	607
398.57	596.2
398.975	591.6
399.379	598.8
399.763	647.4
400.168	601.4
400.572	598.4
400.977	594.4
401.382	607.2
401.787	607.2
402.192	616.8
402.597	597.4
403.002	580.2
403.386	612.4
403.791	606.6
404.197	591.2
404.602	602
405.007	599.6
405.413	592.8
405.818	601.6
406.224	596.6
406.608	601
407.014	594
407.42	614.2
407.825	587.6
408.231	605.6
408.637	596.4
409.043	607
409.449	590.2
409.834	589.8
410.24	598.8
410.646	610.2
411.052	607.4
411.458	600
411.865	604.6
412.271	595.6
412.677	592.8
413.062	604.4
413.469	583
413.875	612.6
414.282	614.8
414.689	601.4
415.095	614.4
415.502	586.4
415.888	613.6
416.294	588.6
416.701	641.2
417.108	591
417.515	609.2
417.923	591.8
418.33	616.8
418.715	604.4
419.123	585.2
419.53	590.6
419.937	601
420.345	602.2
420.752	587.8
421.16	608.6
421.546	597.6
421.953	605.2
422.361	599.4
422.769	600.4
423.177	582.6
423.585	621
423.992	614.4
424.379	612.2
424.787	606.8
425.195	615.8
425.603	603.6
426.011	602.4
426.419	611.2
426.806	603.4
427.214	599.2
427.623	617
428.031	615.6
428.44	607.6
428.848	614.6
429.235	612.4
429.644	599.8
430.053	598.6
430.461	618
430.87	625
431.279	609.6
431.666	600.2
432.075	596
432.484	605.6
432.893	603
433.302	617
433.711	640
434.099	601.2
434.508	592
434.918	591.6
435.327	616.8
435.737	603.6
436.125	597
436.534	598.4
436.944	610.6
437.353	602.6
437.763	620.4
438.173	597.6
438.561	607.8
438.971	585.4
439.381	601.6
439.791	595.2
440.201	580
440.589	600.6
440.999	602.8
441.409	597.4
441.819	587.2
442.23	610.2
442.619	609.4
443.029	599.2
443.439	604.2
443.85	605.2
444.26	613.4
444.649	604.4
445.06	600.2
445.471	595
445.881	592
446.292	611.8
446.682	615
447.092	587
447.503	640
447.914	594.2
448.325	597.8
448.715	590.2
449.126	597.6
449.537	599.8
449.948	597.8
450.338	594
450.75	597.2
451.161	599.2
451.572	600.6
451.984	592.6
452.374	582.4
452.786	592.2
453.197	595
453.609	594.6
453.999	587.2
454.411	584.2
454.823	610
455.235	596.8
455.647	594
456.037	597.6
456.449	583
456.862	595.6
457.274	599.6
457.665	581.4
458.077	604
458.489	620.8
458.902	594.4
459.293	596.4
459.705	595.8
460.118	590.8
460.53	595.8
460.921	597.8
461.334	592.8
461.747	594
462.16	605
462.551	612.6
462.964	596.2
463.377	588
463.79	597.6
464.182	602.8
464.595	591.2
465.008	597.8
465.421	601.2
465.813	592.8
466.226	597.6
466.64	590.6
467.053	633.4
467.445	605.4
467.859	607.2
468.272	598.6
468.686	603.2
469.078	602
469.492	589.8
469.906	595.2
470.298	596.2
470.712	589.8
471.126	634
471.54	581.4
471.933	582.8
472.347	587.6
472.761	585.6
473.175	579.4
473.568	597.2
473.982	585.8
474.397	592.6
474.79	594.6
475.204	602.4
475.619	580
476.033	604.2
476.426	585
476.841	585.2
477.256	602.8
477.649	578.4
478.064	585.8
478.479	585.2
478.872	585
479.287	571.8
479.702	586.2
480.118	587.8
480.511	585.8
480.927	583.4
481.342	588.8
481.736	586.8
482.151	581.4
482.566	594.6
482.96	585
483.376	602.8
483.792	588.2
484.186	599.2
484.602	585.8
485.017	586
485.412	589.6
485.827	591.8
486.243	585.8
486.638	612
487.054	605
487.47	605.6
487.865	597
488.281	591.6
488.697	586.8
489.092	583.2
489.508	584.4
489.925	599.4
490.32	585.6
490.736	599.2
491.153	591.6
491.548	593.6
491.964	598
492.381	583.8
492.776	592.8
493.193	586.4
493.61	599
494.006	592.2
494.422	598.2
494.84	594.8
495.235	590.4
495.652	590.2
496.069	588.4
496.465	574
496.883	585.6
497.3	609.8
497.696	588.8
498.113	590.6
498.509	573.6
498.927	575.4
499.344	581.2
499.741	592.6
500.158	597.4
500.576	604.4
500.973	589.4
501.39	574
501.787	586.6
502.205	587.4
502.623	586
503.02	580.8
503.438	577.6
503.856	581.2
504.253	582.2
504.671	591.2
505.068	588
505.486	581
505.905	608
506.302	582.8
506.72	598
507.118	585.6
507.536	588.2
507.955	579.2
508.352	592.2
508.771	596.2
509.169	585.4
509.587	583.4
510.006	590.4
510.404	572.8
510.823	585.2
511.221	590.4
511.64	594.8
512.038	595.8
512.457	588
512.877	586.4
513.275	583.6
513.694	585.2
514.092	581.8
514.512	586.2
514.91	596.6
515.33	585
515.749	587
516.148	585.2
516.568	587
516.966	585.8
517.386	585.8
517.785	584.2
518.205	581.2
518.603	579.4
519.024	579
519.444	590.4
519.843	589.8
520.263	596.2
520.662	589.2
521.082	582
521.481	585.8
521.902	589
522.301	593.8
522.722	591.6
523.121	582.2
523.542	587.6
523.963	589.6
524.362	597.2
524.783	586.8
525.183	585.6
525.604	592.4
526.003	582
526.425	584.4
526.824	598.8
527.246	593.2
527.646	588.4
528.067	589.4
528.467	590.4
528.888	598.6
529.289	582.8
529.71	588
530.11	584
530.532	583.4
530.932	583.6
531.354	584
531.755	612.8
532.176	598.4
532.577	588.6
532.999	591.6
533.4	577.6
533.822	590.2
534.223	595
534.645	588.4
535.046	577.6
535.468	588
535.869	598.4
536.292	588.4
536.693	613.2
537.115	585.2
537.516	576.6
537.939	582.4
538.34	601.2
538.742	604.4
539.165	593.6
539.566	594.4
539.989	582
540.391	575.2
540.814	586
541.216	587
541.639	586.6
542.041	595.4
542.464	587.2
542.866	581.8
543.268	582.4
543.691	592
544.093	587.4
544.517	600.6
544.919	578.8
545.343	607.8
545.745	581.6
546.147	590.4
546.571	570.2
546.974	577.2
547.398	586
547.8	603.4
548.224	585.2
548.627	580.2
549.03	588.2
549.454	579.2
549.857	568.2
550.281	572
550.684	584.2
551.087	587
551.512	588.4
551.915	584.6
552.34	586.6
552.743	585.2
553.146	586.4
553.571	582
553.975	600.2
554.399	577.8
554.803	629.6
555.207	587.4
555.632	579.4
556.036	592.6
556.461	588.2
556.865	590.4
557.268	582.2
557.694	580.6
558.098	589.6
558.502	583
558.927	578
559.332	587.2
559.736	583.2
560.162	592.8
560.566	584.6
560.992	598.2
561.396	583.8
561.801	586.4
562.227	585.8
562.631	579.8
563.036	588
563.462	592
563.867	583.4
564.272	578.4
564.698	589.6
565.103	577.8
565.508	610
565.935	586.2
566.34	589
566.745	601.6
567.172	588.8
567.577	604
567.982	599.4
568.409	583.6
568.815	577.8
569.22	581.2
569.626	585.8
570.053	578.2
570.459	594.8
570.865	596
571.292	594.2
571.698	591.6
572.104	573.6
572.531	588.8
572.937	592.8
573.343	580.6
573.75	573.8
574.177	589
574.583	592.6
574.99	583.4
575.396	585.4
575.824	580.2
576.231	586.4
576.637	586.2
577.065	603
577.472	584.8
577.879	574.8
578.286	603.6
578.714	576
579.121	579.4
579.528	572.6
579.935	593.4
580.364	583.8
580.771	568.8
581.178	568
581.585	585
582.014	597.8
582.421	580.2
582.829	578.4
583.236	587.6
583.644	580
584.073	592.2
584.481	586.2
584.889	582.6
585.296	584.8
585.726	578
586.134	570.2
586.542	580.2
586.95	599.2
587.358	584
587.787	580.2
588.196	587.8
588.604	582
589.012	580.2
589.421	580.2
589.851	575.4
590.259	579.8
590.668	582.8
591.076	622.4
591.485	581.4
591.894	593.6
592.324	599.4
592.733	590.4
593.142	571.6
593.551	584.4
593.96	606.2
594.369	576.4
594.8	567.2
595.209	584.8
595.618	564
596.028	581.2
596.437	578.8
596.847	583.4
597.256	577.2
597.687	587.8
598.097	582.4
598.507	573
598.917	587.6
599.327	587
599.736	584.2
600.146	596.2
600.556	582.4
600.988	602.2
601.398	585.6
601.808	595.2
602.219	566.4
602.629	577.8
603.039	579
603.45	597.6
603.86	574.8
604.271	590.8
604.703	576.6
605.114	584.2
605.525	586.4
605.935	581.8
606.346	606.6
606.757	581.2
607.168	576.6
607.579	574.8
607.99	588.2
608.402	581.6
608.813	589
609.224	583
609.636	564.8
610.047	574.2
610.48	572.4
610.892	589
611.303	585.8
611.715	576.8
612.127	573.2
612.539	582.8
612.95	582.4
613.362	570.2
613.774	577.2
614.186	576.4
614.599	577
615.011	583.4
615.423	580.4
615.835	575.6
616.248	566
616.66	589.6
617.073	570.2
617.485	584.8
617.898	586.6
618.311	587.2
618.723	577.8
619.136	609.2
619.549	592
619.962	605.2
620.375	577.6
620.788	584.4
621.201	573.8
621.614	593
622.028	582.4
622.441	582
622.854	600
623.268	579.8
623.681	585.2
624.095	587.8
624.509	599.2
624.922	588
625.336	572.8
625.728	580.2
626.142	594.2
626.556	595.4
626.97	590.4
627.384	579.6
627.799	585.6
628.213	593.2
628.627	587.2
629.041	582.6
629.456	579.6
629.87	583.4
630.285	584.8
630.699	592.4
631.093	578.4
631.507	587.8
631.922	584.6
632.337	604
632.752	581.2
633.167	586.2
633.582	577
633.997	580.6
634.412	576
634.806	580
635.221	580
635.637	594.2
636.052	574.8
636.468	586.4
636.883	597.8
637.299	592.8
637.715	577.2
638.109	576.2
638.525	571.2
638.941	590.8
639.357	581.2
639.773	586.8
640.189	579.4
640.584	584.8
641	588
641.416	572.2
641.832	585
642.249	579.4
642.665	577
643.06	582.6
643.477	586.6
643.894	569.8
644.31	570
644.727	586.4
645.123	574
645.54	571
645.957	578
646.374	590.4
646.77	583.2
647.187	602.6
647.604	578.8
648.021	558.4
648.439	578
648.835	580.6
649.252	582.2
649.67	575.2
650.088	581.2
650.484	585
650.902	578.2
651.32	589.6
651.738	574.2
652.134	589
652.552	599.6
652.971	578
653.389	584.4
653.786	589.8
654.204	594.6
654.622	572.2
655.019	585.8
655.438	587.6
655.857	579.2
656.275	571.6
656.673	570.4
657.091	590
657.51	579.4
657.908	591.8
658.327	594.4
658.746	575.4
659.144	581.8
659.563	593
659.982	584.8
660.38	567.4
660.8	584.8
661.219	596.6
661.617	587.4
662.037	581
662.457	595
662.855	574.2
663.275	609.8
663.695	588.2
664.094	587.8
664.514	585.8
664.934	568.8
665.333	587
665.753	581.4
666.152	570.4
666.572	575.8
666.993	589.6
667.392	581.6
667.812	581.4
668.212	587.2
668.632	585
669.053	571.2
669.453	577.2
669.874	581.4
670.273	581.4
670.694	581.8
671.116	583.8
671.515	583
671.937	576.2
672.337	581
672.758	576.4
673.158	585.8
673.58	572.4
673.98	582.2
674.402	587.8
674.824	573.6
675.224	574.6
675.646	579.2
676.047	578.6
676.469	580.2
676.869	585.8
677.292	582.6
677.693	579
678.115	571.4
678.516	584
678.939	585.8
679.34	585.2
679.762	588.4
680.164	587.2
680.586	568.6
680.988	583.4
681.411	603
681.812	576.4
682.236	568.8
682.637	572.6
683.061	573.8
683.462	580.4
683.864	575.8
684.288	580.2
684.69	579.2
685.114	595
685.516	586.2
685.94	573.6
686.342	591
686.766	575.8
687.168	579.6
687.571	594
687.995	583.6
688.398	567
688.822	581.2
689.225	587
689.628	598.8
690.052	584.6
690.456	582.2
690.88	580.8
691.284	572.8
691.687	581
692.112	568.2
692.515	569.2
692.919	578.8
693.344	573.2
693.747	575.4
694.173	569.8
694.577	583
694.98	577.4
695.406	574.2
695.81	578.2
696.214	577.6
696.64	577.8
697.044	581.6
697.448	584
697.874	576.8
698.279	574.6
698.684	568.4
699.11	572.8
699.514	572.2
699.919	577.2
700.324	579.2
700.75	581
701.156	572.8
701.561	585.6
701.987	583.6
702.393	584
702.798	584.6
703.203	573.8
703.63	565.6
704.036	580
704.442	576.6
704.847	570.6
705.274	577.2
705.68	586.2
706.086	583.8
706.492	567.8
706.92	572.8
707.326	581
707.732	572.4
708.139	561
708.545	571.6
708.973	570.6
709.38	580.2
709.786	558.6
710.193	583.6
710.6	572
711.028	565.6
711.435	577.8
711.842	578.8
712.249	568.2
712.656	576
713.064	584.4
713.492	566.4
713.9	572.8
714.307	589.4
714.715	575.2
715.123	581
715.53	571.6
715.938	584.2
716.367	572.4
716.775	570.2
717.184	574.4
717.592	578
718	588.4
718.408	607
718.816	612.8
719.225	570.6
719.633	582.8
720.042	581.6
720.472	581.2
720.881	601.2
721.29	587.8
721.699	570
722.108	583.4
722.517	580.8
722.926	576
723.335	595
723.744	568.6
724.154	572
724.563	581.2
724.973	578.8
725.382	574.6
725.792	580.8
726.202	569.6
726.612	596.4
727.022	579.2
727.432	576.4
779.813	582.6
780.223	610
780.634	579.8
781.044	574.8
781.454	578.4
781.865	590.8
782.276	577.4
782.686	583.4
783.097	579.2
783.508	567.8
783.919	581.8
784.33	577.2
784.741	591.2
785.152	570.6
785.563	571.8
785.974	571.8
786.386	583.2
786.776	578.4
787.188	578.2
787.599	569
788.011	588.6
788.423	578.4
788.835	580
789.247	573.8
789.659	570.8
790.071	583
790.483	616.8
790.874	577.2
791.286	584.8
791.699	572.2
792.111	580.8
792.524	568.8
792.937	571.2
793.349	573.8
793.741	573.4
794.154	573
794.567	595.6
794.98	571.6
795.393	565.8
795.785	591.6
796.198	576.4
796.612	585.6
797.026	577.4
797.439	555.8
797.831	572.2
798.245	570
798.659	581.6
799.073	562.4
799.487	569.8
799.88	584
800.294	573.2
800.708	583.2
801.123	579.4
801.516	587.8
801.93	555.6
802.345	566.8
802.76	578.4
803.153	592.4
803.568	590.4
803.983	584.2
804.377	575.4
804.792	572.6
805.207	565.6
805.601	581.8
806.016	601.2
806.432	572
806.826	599.2
807.242	598.4
807.658	581.4
808.052	573
808.468	581.6
808.884	577.2
809.279	575.2
809.695	588.2
810.111	593.6
810.506	581.6
810.922	591.2
811.339	571.8
811.734	580.4
812.151	574
812.546	568
812.963	571.4
813.38	577.8
813.776	577
814.193	595
814.589	571.6
815.006	569
815.402	568.4
815.82	574.2
816.237	576.4
816.633	572.2
817.051	562.2
817.448	577.4
817.866	558.4
818.262	593.8
818.68	565.6
819.077	571.2
819.495	571.8
819.892	605.8
820.311	564.4
820.708	568
821.127	568
821.524	579.6
821.943	578
822.34	582.2
822.759	579.4
823.157	567.8
823.576	595.8
823.974	579.8
824.393	622.8
824.791	574
825.189	570.4
825.609	573.4
826.007	579.4
826.427	568.6
826.826	576.2
827.246	581.4
827.644	557.4
828.043	580.2
828.463	575.6
828.862	589.4
829.261	582
829.682	570.4
830.081	583.2
830.502	567.8
830.901	579.6
831.301	595.4
831.722	567.2
832.121	577.8
832.521	568.8
832.943	567.6
833.342	575.2
833.742	568.6
834.164	570.2
834.564	566.6
834.965	575.2
835.386	574
835.787	582.6
836.188	572.6
836.588	572.6
837.01	570.2
837.411	565.8
837.812	573.8
838.213	581.4
838.636	573
839.037	631.2
839.438	576.4
839.84	572.8
840.263	579.2
840.664	568.8
841.066	575.2
841.468	580.8
841.891	568.4
842.293	580.6
842.695	572.2
843.098	577.8
843.5	573
843.902	574.2
844.326	576.2
844.729	577.8
845.131	581
845.534	572.2
845.937	580.4
846.34	578
846.764	578.6
847.167	576.6
847.571	563.4
847.974	572.8
848.377	567.6
848.781	612
849.184	583
849.588	567.2
849.992	560.8
850.396	572.6
850.821	583.2
851.225	578.4
851.63	571.4
852.034	589.6
852.438	575.8
852.843	642.8
853.247	570.4
853.652	564.6
854.057	589.4
854.462	568.2
854.867	579.6
855.272	599.6
855.677	569.6
