#lambda/nm	C1
208.295	571.4
208.67	503.6
209.045	457.6
209.419	464.2
209.794	590.4
210.169	570.2
210.544	663
210.919	590.4
211.295	577.8
211.67	581.8
212.045	578
212.421	578.6
212.796	609.8
213.172	572.4
213.547	577.4
213.923	581.4
214.299	581.4
214.675	593.6
215.051	593.8
215.427	595
215.803	591
216.179	583.8
216.555	584.8
216.932	587.8
217.308	576.4
217.684	586.2
218.061	585.6
218.438	590.6
218.814	576.4
219.191	588.4
219.568	577
219.945	576.6
220.322	592.8
220.699	582
221.076	587.8
221.453	585.4
221.83	581
222.208	577
222.585	583.4
222.962	589.2
223.34	581.2
223.717	586.4
224.095	583.8
224.473	580.2
224.851	573
225.229	574.8
225.607	588.8
225.985	578
226.363	584.6
226.741	584.4
227.119	580
227.497	587.2
227.876	575
228.254	588
228.633	587.2
229.011	583.4
229.39	587.8
229.769	581.8
230.148	590.2
230.527	597
230.905	581.2
231.284	585.4
231.664	578.2
232.043	595.4
232.422	586
232.801	584.8
233.181	582
233.56	580.4
233.94	579.4
234.319	566
234.699	579.6
235.079	614.6
235.458	605.4
235.838	594
236.218	571.2
236.598	569.6
236.978	579.8
237.358	574.8
237.738	575.8
238.119	582.8
238.499	568.6
238.88	574.8
239.26	595.4
239.641	572.8
240.021	574
240.402	575.2
240.783	574.4
241.163	582.2
241.544	580.6
241.925	575.6
242.306	591.2
242.687	580.4
243.069	582.2
243.45	586.8
243.831	571.8
244.212	573.4
244.594	603.8
244.975	582.8
245.357	582
245.739	579
246.12	582.8
246.502	587.2
246.884	579.4
247.266	579
247.648	588.2
248.03	596
248.412	585.4
248.794	581.8
249.176	581
249.559	586.4
249.941	582.8
250.323	577.6
250.706	575.6
251.089	577.2
251.471	581.2
251.854	582
252.237	579.2
252.62	595.4
253.002	583.8
253.385	574.2
253.769	593
254.152	573.4
254.535	587.2
254.918	568.2
255.301	583.6
255.685	578.2
256.068	571.8
256.452	608.2
256.835	583.8
257.219	582.8
257.603	589.4
257.986	577.8
258.37	587.2
258.754	563.4
259.138	583.4
259.522	587.2
259.906	582
260.29	579.8
260.675	579
261.059	578
261.443	579.6
261.828	582.6
262.212	583.2
262.597	574
262.981	579.4
263.366	584.8
263.751	585.6
264.136	572.4
264.521	575.6
264.906	582
265.291	585.4
265.676	579.8
266.061	582.6
266.446	595.2
266.831	588.2
267.217	604.2
267.602	582.2
267.987	583.4
268.373	578
268.759	590.8
269.144	588.2
269.53	582.8
269.916	577.6
270.302	583
270.688	587
271.074	577.6
271.46	587.6
271.846	603.4
272.232	580
272.618	572
273.004	578
273.391	581
273.777	589.6
274.164	581.6
274.55	591.4
274.937	583.4
275.324	585
275.71	581.4
276.097	575
276.484	575.4
276.871	577.2
277.258	579.2
277.645	574.6
278.032	571.4
278.419	576
278.807	584
279.194	573.6
279.581	575.8
279.969	579.6
280.356	583.4
280.744	584
281.131	607.4
281.519	588.4
281.907	576.2
282.295	581
282.682	589.6
283.07	585
283.458	589.6
283.846	588.6
284.235	579.6
284.623	582.2
285.011	581.6
285.399	586.8
285.788	582.6
286.176	572.4
286.565	592.6
286.953	576.6
287.342	576.6
287.731	576.2
288.119	571.2
288.508	580.6
288.897	579.4
289.286	572.2
289.675	582.2
290.064	590.8
290.453	570.6
290.821	588
291.21	589.2
291.599	577
291.989	579
292.378	588.8
292.768	595.6
293.157	581.6
293.547	590.8
293.936	583.6
294.326	579.6
294.716	584.8
295.106	581
295.496	587
295.886	586.8
296.276	591
296.666	578.8
297.056	575
297.446	580
297.836	594.6
298.227	578.6
298.617	584
299.008	599.8
299.398	582.8
299.789	578.8
300.179	585.2
300.57	590.2
300.961	581.6
301.352	572.4
301.742	592
302.133	579
302.524	579.8
302.915	580.4
303.307	572
303.698	591.6
304.089	584.4
304.48	583.8
304.872	588.4
305.263	573.4
305.655	577.6
306.046	579.4
306.438	585
306.829	572.2
307.221	589.8
307.613	587.2
308.005	583.8
308.397	592.4
308.789	594.8
309.181	600.6
309.573	592.4
309.965	585
310.357	576.2
310.749	590.4
311.142	572.2
311.534	570.2
311.926	586.2
312.319	580.8
312.711	581.4
313.104	595.2
313.497	578.2
313.889	612
314.282	596.2
314.675	601.8
315.068	584.6
315.461	588.6
315.854	609.4
316.247	585.4
316.64	580.8
317.033	580
317.405	591.8
317.798	572.6
318.192	582.2
318.585	576.6
318.979	584.6
319.372	578.6
319.766	577.2
320.16	594.8
320.553	593.8
320.947	596
321.341	575.2
321.735	580.6
322.129	571.4
322.523	603.2
322.917	577.4
323.311	590
323.705	586.2
324.099	583.8
324.494	592.4
324.888	592.6
325.282	575
325.677	586.8
326.071	586.6
326.466	590.2
326.861	588.8
327.255	598.8
327.65	586.6
328.045	598.2
328.44	583.6
328.835	581.8
329.23	578.4
329.625	595.8
330.02	572
330.415	596.4
330.81	585.6
331.206	580.2
331.601	580.4
331.996	582.4
332.37	594.8
332.766	573.4
333.161	596.2
333.557	573.6
333.953	578.4
334.348	859.8
334.744	581.8
335.14	570.2
335.536	579.2
335.932	589.6
336.328	581.2
336.724	590.4
337.12	577.4
337.516	576.8
337.913	570.8
338.309	594.2
338.705	581.2
339.102	588.6
339.498	576.2
339.895	593.4
340.291	571.2
340.688	588.8
341.085	569.6
341.481	572.6
341.878	572.6
342.275	589.2
342.672	568.8
343.069	581.2
343.466	568.8
343.842	584.6
344.239	569.6
344.636	580.2
345.033	570.2
345.431	575.6
345.828	567
346.225	574.6
346.623	601.6
347.02	577.8
347.418	576.8
347.816	584
348.213	573
348.611	583.6
349.009	573.4
349.407	588.8
349.805	562.2
350.203	576
350.601	588.8
350.999	570
351.397	627.2
351.795	573.8
352.193	584.8
352.57	580.8
352.969	582
353.367	567.4
353.766	577
354.164	580.2
354.563	590.2
354.961	577.2
355.36	571
355.759	572.4
356.158	568.4
356.557	579.8
356.956	565.6
357.355	562.4
357.754	578
358.153	583.2
358.552	592
358.951	582
359.35	587
359.75	578.8
360.149	570
360.527	569.2
360.926	567.2
361.326	576.4
361.726	578.8
362.125	571.8
362.525	573.4
362.925	574.6
363.325	565.8
363.724	577
364.124	569.4
364.524	572.4
364.924	580.2
365.324	585.2
365.725	554.8
366.125	586.8
366.525	587
366.904	574.8
367.304	560
367.705	585.6
368.105	575.2
368.506	576.6
368.906	579.6
369.307	572.2
369.708	579.6
370.108	564.2
370.509	578.2
370.91	572.4
371.311	576.6
371.712	574.8
372.113	571.4
372.514	561.6
372.894	572.8
373.295	571.8
373.696	583.6
374.097	580.8
374.499	596.4
374.9	570.2
375.301	570.8
375.703	580
376.105	576.4
376.506	579.6
376.908	575.4
377.309	576
377.711	570
378.113	562
378.493	574.6
378.895	566.8
379.297	585.4
379.699	560
380.102	581.8
380.504	576.4
380.906	571
381.308	597.4
381.71	574.8
382.113	582
382.515	573.8
382.918	575.6
383.299	572.6
383.701	585
384.104	571.4
384.507	558.8
384.909	570.2
385.312	562.4
385.715	568.6
386.118	575.4
386.521	560
386.924	581.2
387.327	574.4
387.709	564.4
388.112	557.8
388.515	565.6
388.918	574.2
389.322	579.6
389.725	568.6
390.129	593.6
390.532	577.6
390.936	568.4
391.339	564.8
391.743	574.4
392.125	569.6
392.529	583.8
392.933	580.4
393.337	576.8
393.74	574.2
394.144	581.8
394.548	572.4
394.953	578.6
395.357	580.8
395.761	572
396.144	573.8
396.548	570.4
396.952	575.8
397.357	577.2
397.761	567.6
398.166	575.6
398.57	581
398.975	565
399.379	574.2
399.763	610.4
400.168	578.2
400.572	578.6
400.977	573.6
401.382	589.2
401.787	584.2
402.192	582.4
402.597	587.8
403.002	563
403.386	583.8
403.791	584.8
404.197	567
404.602	564
405.007	570.8
405.413	572.6
405.818	569.6
406.224	565.2
406.608	574.4
407.014	567.4
407.42	584.2
407.825	566.8
408.231	570.4
408.637	577
409.043	589.4
409.449	565.4
409.834	568.4
410.24	583.6
410.646	582.4
411.052	583
411.458	574.8
411.865	588.2
412.271	586.4
412.677	577.6
413.062	576.6
413.469	562.4
413.875	593.6
414.282	587
414.689	578.6
415.095	582.4
415.502	576.4
415.888	579.8
416.294	562.2
416.701	607.8
417.108	566.8
417.515	575.8
417.923	567.8
418.33	586
418.715	586.4
419.123	568.2
419.53	568.6
419.937	579.6
420.345	585.8
420.752	567.4
421.16	586.4
421.546	566.8
421.953	578
422.361	563.4
422.769	573.6
423.177	571
423.585	594.8
423.992	594
424.379	585
424.787	590
425.195	589.8
425.603	579.8
426.011	582
426.419	584.8
426.806	582.4
427.214	575
427.623	588.4
428.031	591.6
428.44	574.6
428.848	581
429.235	589.8
429.644	577.4
430.053	578.8
430.461	589.8
430.87	593.6
431.279	586.6
431.666	573.8
432.075	574.8
432.484	579.4
432.893	574.4
433.302	594.8
433.711	599
434.099	578.4
434.508	567.8
434.918	564.4
435.327	579.4
435.737	570.6
436.125	577.4
436.534	571.6
436.944	572.2
437.353	574
437.763	585
438.173	569
438.561	580.4
438.971	554
439.381	562.8
439.791	572.8
440.201	562
440.589	572.6
440.999	576
441.409	572.4
441.819	555.6
442.23	570.8
442.619	574.2
443.029	570.6
443.439	579.2
443.85	584
444.26	583.8
444.649	571.2
445.06	577
445.471	577.8
445.881	573
446.292	577.4
446.682	591
447.092	564.8
447.503	614
447.914	567
448.325	576.8
448.715	567.2
449.126	566.2
449.537	565.2
449.948	568.2
450.338	577
450.75	580
451.161	576.2
451.572	573.6
451.984	574.4
452.374	556.8
452.786	572.2
453.197	577.4
453.609	576.8
453.999	556.4
454.411	562.6
454.823	579.6
455.235	572.2
455.647	565.8
456.037	575.2
456.449	558.4
456.862	578.2
457.274	572.2
457.665	567.8
458.077	573.6
458.489	588.6
458.902	568
459.293	566.8
459.705	572.6
460.118	567.6
460.53	572.8
460.921	572.4
461.334	569.6
461.747	572.6
462.16	580.6
462.551	579.8
462.964	573.6
463.377	561.4
463.79	565.6
464.182	584.8
464.595	562.4
465.008	569.2
465.421	572.4
465.813	568
466.226	575.6
466.64	562.8
467.053	601.8
467.445	576.6
467.859	585
468.272	568
468.686	567.8
469.078	567
469.492	557.2
469.906	572.2
470.298	573.8
470.712	558.8
471.126	601
471.54	558.6
471.933	564.2
472.347	566.8
472.761	568
473.175	559.8
473.568	563.2
473.982	554.4
474.397	567.2
474.79	566.6
475.204	574
475.619	559
476.033	578.6
476.426	576.2
476.841	564
477.256	579.8
477.649	561.6
478.064	566.2
478.479	565.2
478.872	563.8
479.287	551
479.702	562.8
480.118	568.4
480.511	565.4
480.927	562.6
481.342	567.2
481.736	571
482.151	558.8
482.566	581.2
482.96	569.2
483.376	566.6
483.792	566.6
484.186	567
484.602	569.6
485.017	566.8
485.412	566.6
485.827	573
486.243	562.2
486.638	581.4
487.054	572.6
487.47	577.8
487.865	566
488.281	565.8
488.697	566.2
489.092	566.2
489.508	570.6
489.925	575.2
490.32	561.4
490.736	572.6
491.153	568.6
491.548	571.8
491.964	579.6
492.381	560.6
492.776	566.6
493.193	562
493.61	570.8
494.006	566.4
494.422	575.8
494.84	559
495.235	574
495.652	565.4
496.069	568.8
496.465	557.6
496.883	563.4
497.3	581
497.696	567.4
498.113	566.6
498.509	565
498.927	556.6
499.344	561.4
499.741	562.4
500.158	564.2
500.576	566.4
500.973	570.8
501.39	556.6
501.787	562.2
502.205	563.6
502.623	559
503.02	557.4
503.438	564.2
503.856	564
504.253	573.8
504.671	568
505.068	574
505.486	563.4
505.905	584.4
506.302	564.6
506.72	570.8
507.118	554.8
507.536	560.8
507.955	562.4
508.352	569.4
508.771	578.4
509.169	566.6
509.587	562.6
510.006	570.6
510.404	553
510.823	566.8
511.221	568.4
511.64	563.2
512.038	570
512.457	566.4
512.877	562
513.275	560.4
513.694	570.2
514.092	555.4
514.512	566.4
514.91	579.2
515.33	566.4
515.749	567
516.148	574.6
516.568	557.2
516.966	561.4
517.386	563.8
517.785	561.4
518.205	558.4
518.603	566.6
519.024	562.2
519.444	558.8
519.843	575.2
520.263	570
520.662	564
521.082	567.6
521.481	561.4
521.902	570.2
522.301	568.4
522.722	569.6
523.121	570.6
523.542	556.6
523.963	565.8
524.362	567.8
524.783	565.8
525.183	561
525.604	567.4
526.003	565.2
526.425	553.4
526.824	576.2
527.246	567.8
527.646	570
528.067	564.8
528.467	564.4
528.888	568.6
529.289	552.2
529.71	559
530.11	561.4
530.532	554.4
530.932	560.4
531.354	549.8
531.755	587.8
532.176	565.2
532.577	557.4
532.999	559.8
533.4	559.6
533.822	571.2
534.223	564.4
534.645	550
535.046	559.4
535.468	563.2
535.869	568.4
536.292	552.4
536.693	586.2
537.115	562.2
537.516	556
537.939	558.4
538.34	576
538.742	568.8
539.165	555.2
539.566	563.4
539.989	552
540.391	560.4
540.814	558.2
541.216	571.6
541.639	560.6
542.041	571.8
542.464	562.4
542.866	558.8
543.268	553.4
543.691	561.2
544.093	566.8
544.517	581.4
544.919	557.2
545.343	575.2
545.745	552
546.147	563.4
546.571	560
546.974	556
547.398	559.6
547.8	570.4
548.224	564.8
548.627	561.6
549.03	567
549.454	560.6
549.857	549.2
550.281	560.2
550.684	560.4
551.087	567.2
551.512	563.2
551.915	562.2
552.34	570
552.743	558.8
553.146	562.2
553.571	566
553.975	575.4
554.399	550.4
554.803	598.2
555.207	556
555.632	560.2
556.036	563
556.461	555.8
556.865	558.6
557.268	556.6
557.694	558
558.098	566.6
558.502	563.2
558.927	559.4
559.332	556.8
559.736	564.8
560.162	569
560.566	561.8
560.992	568
561.396	563.4
561.801	560
562.227	563.8
562.631	564.4
563.036	564.2
563.462	573.4
563.867	566.4
564.272	563.4
564.698	561
565.103	555.6
565.508	579.4
565.935	558.2
566.34	567.2
566.745	570.2
567.172	562.2
567.577	572.8
567.982	574
568.409	563.2
568.815	557.2
569.22	557.4
569.626	568.4
570.053	548.6
570.459	564.2
570.865	564.4
571.292	566.6
571.698	567
572.104	550.8
572.531	560.2
572.937	564.8
573.343	561.6
573.75	557.8
574.177	565.6
574.583	571.8
574.99	559
575.396	565.8
575.824	559.6
576.231	569.2
576.637	563.2
577.065	581
577.472	557.2
577.879	557.2
578.286	566
578.714	554.2
579.121	560
579.528	561.8
579.935	569.2
580.364	556.6
580.771	546.2
581.178	552.4
581.585	565.2
582.014	566.4
582.421	557.2
582.829	557.4
583.236	566.6
583.644	555.2
584.073	557
584.481	563.4
584.889	556.2
585.296	568.8
585.726	566.6
586.134	558.8
586.542	558.8
586.95	576.4
587.358	558
587.787	564.4
588.196	569.6
588.604	561.2
589.012	558.2
589.421	550.8
589.851	561.2
590.259	567.6
590.668	556.8
591.076	592
591.485	550.8
591.894	554.6
592.324	572
592.733	573.6
593.142	554.6
593.551	556.8
593.96	565.2
594.369	557.6
594.8	556.2
595.209	567.2
595.618	550.4
596.028	556.2
596.437	553.2
596.847	566
597.256	564.4
597.687	562.8
598.097	554.8
598.507	545
598.917	561
599.327	566.2
599.736	558.6
600.146	569.2
600.556	562.4
600.988	570
601.398	553.6
601.808	567.6
602.219	550.4
602.629	561.8
603.039	560.4
603.45	574.2
603.86	557
604.271	567
604.703	561.6
605.114	554.8
605.525	557.4
605.935	568
606.346	578
606.757	564.2
607.168	562.2
607.579	555.6
607.99	568.8
608.402	555.8
608.813	562.6
609.224	554.2
609.636	565.8
610.047	556.4
610.48	563.2
610.892	561.8
611.303	568.6
611.715	552.8
612.127	550.4
612.539	559.2
612.95	559.2
613.362	552.4
613.774	547.6
614.186	553.2
614.599	555.4
615.011	567
615.423	556.6
615.835	554.8
616.248	550.2
616.66	571
617.073	551.6
617.485	560.6
617.898	565.8
618.311	554
618.723	555
619.136	584.6
619.549	570.6
619.962	578.8
620.375	562.4
620.788	560.8
621.201	557.6
621.614	568.8
622.028	556.2
622.441	561.8
622.854	565.6
623.268	552.6
623.681	561.6
624.095	562
624.509	563.2
624.922	565
625.336	554.4
625.728	554.8
626.142	564.6
626.556	575
626.97	566.8
627.384	554.8
627.799	560.6
628.213	570.8
628.627	554.6
629.041	557.4
629.456	556.2
629.87	550.2
630.285	560
630.699	562.6
631.093	549.4
631.507	559.2
631.922	558.6
632.337	571.4
632.752	546.4
633.167	556.2
633.582	549.4
633.997	549.2
634.412	547.8
634.806	557.2
635.221	540.4
635.637	569
636.052	552
636.468	560
636.883	566.6
637.299	551.2
637.715	544
638.109	558
638.525	552
638.941	567.6
639.357	559.2
639.773	567.4
640.189	560.8
640.584	555.4
641	558.2
641.416	550
641.832	554.8
642.249	552.4
642.665	564.4
643.06	564.2
643.477	561.2
643.894	539.4
644.31	549.8
644.727	555.2
645.123	546.6
645.54	552.4
645.957	556.8
646.374	572.2
646.77	558.2
647.187	576.8
647.604	556.2
648.021	545.6
648.439	550
648.835	567.6
649.252	548.6
649.67	556.8
650.088	554.6
650.484	563.6
650.902	562.6
651.32	558
651.738	552.6
652.134	559.6
652.552	574
652.971	563.4
653.389	556.2
653.786	564.4
654.204	572.4
654.622	548.2
655.019	552.2
655.438	558.4
655.857	558.6
656.275	564.4
656.673	555
657.091	565.6
657.51	557
657.908	567
658.327	577.6
658.746	549.6
659.144	558.4
659.563	567.4
659.982	563.2
660.38	561.4
660.8	555.8
661.219	567.8
661.617	558.2
662.037	552.2
662.457	571
662.855	543.6
663.275	579
663.695	554.8
664.094	559.6
664.514	556.8
664.934	548
665.333	557.8
665.753	549.6
666.152	550.6
666.572	547
666.993	563.2
667.392	553.6
667.812	543.2
668.212	556.8
668.632	559.8
669.053	555.2
669.453	556.8
669.874	561.2
670.273	553
670.694	549.6
671.116	562
671.515	568
671.937	557.8
672.337	562.2
672.758	561.2
673.158	566.4
673.58	552.8
673.98	558.6
674.402	568.8
674.824	557.2
675.224	553
675.646	557
676.047	560.8
676.469	563.2
676.869	558.4
677.292	563.4
677.693	552
678.115	550.8
678.516	556.2
678.939	561
679.34	556.2
679.762	565
680.164	557
680.586	555.2
680.988	560.8
681.411	582.4
681.812	555.2
682.236	549.6
682.637	553
683.061	553.6
683.462	551.4
683.864	557
684.288	564.2
684.69	556.4
685.114	567.4
685.516	568
685.94	547.6
686.342	562.6
686.766	553.4
687.168	552.2
687.571	564
687.995	557.6
688.398	552.6
688.822	555
689.225	559.6
689.628	566
690.052	561.6
690.456	553.2
690.88	551.2
691.284	557.4
691.687	561.8
692.112	548.6
692.515	547.8
692.919	562
693.344	556.6
693.747	555.2
694.173	550.4
694.577	563.8
694.98	556.6
695.406	555.4
695.81	552.2
696.214	560.2
696.64	556.2
697.044	552.4
697.448	565.8
697.874	550.8
698.279	549.6
698.684	549.2
699.11	555
699.514	551.2
699.919	555.4
700.324	549
700.75	554.6
701.156	558
701.561	560.2
701.987	554.4
702.393	561
702.798	559.8
703.203	556.6
703.63	553
704.036	545.2
704.442	554
704.847	556
705.274	554.6
705.68	559.4
706.086	571.6
706.492	548.4
706.92	554.6
707.326	566.8
707.732	555
708.139	557.2
708.545	546.6
708.973	552.6
709.38	551.6
709.786	552.6
710.193	570.8
710.6	559.8
711.028	550.2
711.435	556
711.842	548.8
712.249	548.4
712.656	553.4
713.064	557.8
713.492	546.4
713.9	560.8
714.307	559.4
714.715	552.6
715.123	563
715.53	555.8
715.938	558.8
716.367	556.8
716.775	549.4
717.184	544.4
717.592	550.8
718	558.2
718.408	582
718.816	585.4
719.225	559.2
719.633	561.2
720.042	548.2
720.472	554.4
720.881	570.4
721.29	555.6
721.699	541.6
722.108	558.6
722.517	553.4
722.926	545.6
723.335	558.2
723.744	547.6
724.154	555.8
724.563	552.8
724.973	559.8
725.382	555
725.792	543.6
726.202	547.4
726.612	566.4
727.022	550.6
727.432	546.6
779.813	545.8
780.223	577.8
780.634	545.6
781.044	543.6
781.454	556.6
781.865	560.4
782.276	539
782.686	550.6
783.097	547.8
783.508	547.4
783.919	549
784.33	564.8
784.741	557.8
785.152	551
785.563	541
785.974	546
786.386	559.8
786.776	547.8
787.188	555.6
787.599	547.8
788.011	552.2
788.423	557.2
788.835	553.6
789.247	549.4
789.659	546.6
790.071	549.6
790.483	585.2
790.874	551.4
791.286	558.8
791.699	547.4
792.111	557.4
792.524	557.8
792.937	548
793.349	542.4
793.741	546.4
794.154	547.6
794.567	566.8
794.98	554.6
795.393	540.6
795.785	559.4
796.198	543.6
796.612	549.4
797.026	544.2
797.439	539.8
797.831	545.6
798.245	552
798.659	551
799.073	553.6
799.487	551.8
799.88	562.6
800.294	556.2
800.708	560
801.123	555.2
801.516	567.4
801.93	542.6
802.345	548.2
802.76	562.8
803.153	565
803.568	560.6
803.983	561.4
804.377	557.2
804.792	542
805.207	545.8
805.601	555.6
806.016	577
806.432	549.2
806.826	576.8
807.242	558.6
807.658	545.6
808.052	554
808.468	543.6
808.884	551.6
809.279	549.4
809.695	558.8
810.111	570.4
810.506	545.8
810.922	560.8
811.339	557
811.734	556.6
812.151	547
812.546	547.2
812.963	552.4
813.38	553
813.776	557.8
814.193	563
814.589	554.8
815.006	546.8
815.402	547.4
815.82	544.6
816.237	558.8
816.633	552
817.051	543.4
817.448	552.2
817.866	552.8
818.262	554.6
818.68	548
819.077	552
819.495	557
819.892	582
820.311	545
820.708	554.4
821.127	546.2
821.524	556.6
821.943	554.8
822.34	567
822.759	554.4
823.157	550
823.576	567.6
823.974	564.4
824.393	594.8
824.791	541.4
825.189	546.2
825.609	545.6
826.007	555.6
826.427	549
826.826	550
827.246	558
827.644	536.6
828.043	554.8
828.463	560.4
828.862	560.2
829.261	562.6
829.682	545.2
830.081	552.4
830.502	543.4
830.901	558.8
831.301	564.4
831.722	543.8
832.121	559
832.521	550.4
832.943	553.8
833.342	553
833.742	554.8
834.164	548
834.564	544
834.965	549.2
835.386	550.6
835.787	549.8
836.188	555
836.588	553.8
837.01	552.6
837.411	548.4
837.812	558.2
838.213	556.6
838.636	551.2
839.037	606
839.438	548.4
839.84	559
840.263	553.8
840.664	553.2
841.066	549.4
841.468	553.8
841.891	544.4
842.293	566.8
842.695	561.2
843.098	564.2
843.5	546.2
843.902	553.4
844.326	554.2
844.729	550.2
845.131	560.6
845.534	550
845.937	557.6
846.34	555.6
846.764	544
847.167	547.8
847.571	541.2
847.974	556.6
848.377	544.6
848.781	586.4
849.184	557
849.588	552
849.992	545.6
850.396	554.4
850.821	561.4
851.225	555
851.63	549.8
852.034	567.4
852.438	548
852.843	614.6
853.247	545
853.652	540.2
854.057	563.4
854.462	561
854.867	554
855.272	574.2
855.677	553.4
856.082	543
