#lambda/nm	C1
208.295	550.8
208.67	492.4
209.045	458.2
209.419	456.4
209.794	597.4
210.169	582.8
210.544	684
210.919	601.8
211.295	585.8
211.67	597.4
212.045	587.8
212.421	579
212.796	621
213.172	584.6
213.547	581.2
213.923	584.4
214.299	581.6
214.675	598.6
215.051	595.2
215.427	595
215.803	612
216.179	594.4
216.555	589.8
216.932	597.4
217.308	591.8
217.684	590
218.061	598.4
218.438	601
218.814	590.6
219.191	593.8
219.568	592.6
219.945	586.6
220.322	591.8
220.699	596
221.076	596.8
221.453	593.4
221.83	588.8
222.208	583.2
222.585	586.6
222.962	588.8
223.34	595.6
223.717	592.6
224.095	592.2
224.473	586.4
224.851	588.4
225.229	582.6
225.607	603.8
225.985	582.4
226.363	594.2
226.741	591.2
227.119	591.2
227.497	599
227.876	588
228.254	606.4
228.633	594.4
229.011	596.4
229.39	594
229.769	595.6
230.148	594
230.527	614.4
230.905	587.2
231.284	589
231.664	595.8
232.043	600
232.422	599.8
232.801	584
233.181	596.2
233.56	597
233.94	594.6
234.319	573.4
234.699	589.8
235.079	624
235.458	623
235.838	599.6
236.218	583.2
236.598	584.2
236.978	583.4
237.358	580.6
237.738	586
238.119	594.2
238.499	585.8
238.88	592.8
239.26	608.2
239.641	583.2
240.021	594.4
240.402	591.2
240.783	594.8
241.163	591.4
241.544	601.2
241.925	590.2
242.306	603.2
242.687	590.2
243.069	588.8
243.45	606
243.831	590
244.212	592.8
244.594	622.2
244.975	598.8
245.357	595.4
245.739	587.2
246.12	588.4
246.502	603.4
246.884	585.2
247.266	591.6
247.648	601.2
248.03	615.6
248.412	597.8
248.794	593
249.176	591.4
249.559	589
249.941	583.2
250.323	581.6
250.706	590.6
251.089	591
251.471	593.8
251.854	591.8
252.237	589.6
252.62	604.2
253.002	590.6
253.385	594
253.769	597.8
254.152	593.8
254.535	599
254.918	579.4
255.301	589
255.685	590.4
256.068	585.2
256.452	615.4
256.835	602
257.219	602.4
257.603	604
257.986	581.2
258.37	594
258.754	582
259.138	596.8
259.522	601.6
259.906	580.6
260.29	596
260.675	596
261.059	588.4
261.443	574.8
261.828	595.2
262.212	594.6
262.597	577.4
262.981	586.2
263.366	595
263.751	588.2
264.136	588.2
264.521	593.2
264.906	581.8
265.291	594
265.676	587.2
266.061	598
266.446	599.6
266.831	577.4
267.217	605.2
267.602	590.6
267.987	596.6
268.373	587
268.759	602.2
269.144	592.2
269.53	589.2
269.916	596.6
270.302	587
270.688	591.4
271.074	595.6
271.46	600
271.846	618.6
272.232	599.6
272.618	589
273.004	591.2
273.391	602.6
273.777	595.8
274.164	597.2
274.55	601
274.937	597.4
275.324	589.4
275.71	594.2
276.097	596
276.484	588.2
276.871	593
277.258	594.6
277.645	578.2
278.032	590.6
278.419	586.2
278.807	600.6
279.194	582.4
279.581	592
279.969	599.8
280.356	591.2
280.744	588.6
281.131	615.8
281.519	602.6
281.907	586.4
282.295	594.4
282.682	600
283.07	595
283.458	588.6
283.846	600.4
284.235	595.8
284.623	595.6
285.011	590
285.399	591.2
285.788	595.8
286.176	571.8
286.565	596.2
286.953	589.4
287.342	584.6
287.731	582.2
288.119	588.2
288.508	588.6
288.897	590.2
289.286	577.6
289.675	590.8
290.064	592
290.453	583.2
290.821	587.8
291.21	609
291.599	592.2
291.989	597.6
292.378	589.2
292.768	607.4
293.157	592.8
293.547	592.6
293.936	587.8
294.326	581
294.716	590.2
295.106	591.8
295.496	590.6
295.886	602
296.276	590.8
296.666	583.6
297.056	589
297.446	584.4
297.836	606.2
298.227	585
298.617	592.6
299.008	608
299.398	589.6
299.789	588.2
300.179	596.6
300.57	608.4
300.961	592.6
301.352	594.8
301.742	600.8
302.133	590.4
302.524	597
302.915	595
303.307	592
303.698	597.8
304.089	591.8
304.48	583.8
304.872	594.4
305.263	584
305.655	582.6
306.046	591
306.438	600.4
306.829	582.4
307.221	599
307.613	591.4
308.005	596.2
308.397	599.2
308.789	609.4
309.181	608.6
309.573	603
309.965	599.6
310.357	590
310.749	601.8
311.142	587.4
311.534	581.6
311.926	594.8
312.319	594.6
312.711	588.8
313.104	609.2
313.497	589.4
313.889	623
314.282	605.6
314.675	613.8
315.068	593
315.461	605.2
315.854	616.6
316.247	602
316.64	590
317.033	596.2
317.405	594.8
317.798	590.8
318.192	589.6
318.585	582.8
318.979	597.6
319.372	586.6
319.766	595.2
320.16	600.4
320.553	600.6
320.947	607.8
321.341	586.6
321.735	594.4
322.129	582.2
322.523	618
322.917	590.6
323.311	607.6
323.705	596
324.099	594
324.494	610
324.888	601.2
325.282	592.8
325.677	602.6
326.071	602.8
326.466	604.2
326.861	595.2
327.255	606.6
327.65	602.6
328.045	603.8
328.44	593.2
328.835	596.8
329.23	589.4
329.625	605.4
330.02	590.8
330.415	615.4
330.81	593.6
331.206	588
331.601	583
331.996	593.8
332.37	609.6
332.766	587.6
333.161	604.4
333.557	587
333.953	591.6
334.348	898
334.744	586.8
335.14	583.2
335.536	588.6
335.932	605.4
336.328	595.4
336.724	603
337.12	590
337.516	599
337.913	589.8
338.309	603
338.705	595.6
339.102	596.6
339.498	581.4
339.895	600
340.291	589.6
340.688	594.6
341.085	582.2
341.481	588.2
341.878	585.6
342.275	606.2
342.672	580.6
343.069	589
343.466	581
343.842	598
344.239	576.8
344.636	590
345.033	586.6
345.431	581
345.828	590
346.225	583.6
346.623	623.4
347.02	592.2
347.418	602
347.816	602.6
348.213	587.4
348.611	595
349.009	584.2
349.407	603.6
349.805	587.2
350.203	582.4
350.601	598.4
350.999	583.2
351.397	620
351.795	590
352.193	591.8
352.57	597
352.969	594
353.367	579.8
353.766	581.2
354.164	582.8
354.563	601.6
354.961	587
355.36	586
355.759	592.2
356.158	585
356.557	583.8
356.956	571.8
357.355	579
357.754	588.6
358.153	593.6
358.552	604.2
358.951	582.2
359.35	594.4
359.75	578.6
360.149	571
360.527	573.6
360.926	583.4
361.326	587.8
361.726	592
362.125	584
362.525	594.6
362.925	585.2
363.325	580.4
363.724	583.2
364.124	582.4
364.524	586.4
364.924	581.8
365.324	590.6
365.725	576.4
366.125	590.8
366.525	588.2
366.904	579.2
367.304	577
367.705	593.6
368.105	600.6
368.506	586
368.906	592.4
369.307	590.2
369.708	592
370.108	586.4
370.509	593.8
370.91	583
371.311	587.4
371.712	588.4
372.113	591
372.514	576.8
372.894	590
373.295	580.8
373.696	597.4
374.097	596.2
374.499	608.4
374.9	586.2
375.301	578.2
375.703	585.2
376.105	577.2
376.506	586.6
376.908	591
377.309	585
377.711	587.2
378.113	586
378.493	579.6
378.895	587.2
379.297	598.6
379.699	577.6
380.102	584.4
380.504	588.2
380.906	574.2
381.308	600.2
381.71	581.8
382.113	594.6
382.515	581.8
382.918	584.4
383.299	581.6
383.701	588.4
384.104	580.4
384.507	564.4
384.909	579.8
385.312	571.6
385.715	575.4
386.118	575
386.521	577.8
386.924	587.4
387.327	584.8
387.709	566.4
388.112	572.4
388.515	580.8
388.918	585.8
389.322	585.6
389.725	577.2
390.129	601
390.532	581.2
390.936	579.8
391.339	575.4
391.743	585.4
392.125	574.6
392.529	590.8
392.933	595.2
393.337	584.8
393.74	574.2
394.144	581.6
394.548	575.8
394.953	576
395.357	591.6
395.761	588.4
396.144	580.8
396.548	589.2
396.952	582.6
397.357	578.4
397.761	579
398.166	575.2
398.57	583.2
398.975	574.4
399.379	589
399.763	621.8
400.168	583.8
400.572	582.4
400.977	579.2
401.382	599
401.787	598.2
402.192	592.2
402.597	597.2
403.002	576.2
403.386	595.4
403.791	593.8
404.197	571.2
404.602	576.6
405.007	583.4
405.413	570.6
405.818	584
406.224	577.6
406.608	577.2
407.014	579.6
407.42	594
407.825	584.8
408.231	596.8
408.637	585.2
409.043	593
409.449	577.2
409.834	575.8
410.24	584.4
410.646	591
411.052	591
411.458	585.6
411.865	596
412.271	597.8
412.677	580.6
413.062	587.2
413.469	577.6
413.875	600.8
414.282	602.6
414.689	585
415.095	589.6
415.502	586.6
415.888	579.4
416.294	572.4
416.701	615.6
417.108	582.8
417.515	588.4
417.923	576
418.33	609.6
418.715	592.6
419.123	582
419.53	580.4
419.937	593
420.345	604
420.752	583.8
421.16	594
421.546	579.6
421.953	592.2
422.361	582.2
422.769	587.6
423.177	580
423.585	604.6
423.992	600.2
424.379	594.6
424.787	591.8
425.195	606.2
425.603	584.8
426.011	598.6
426.419	598.6
426.806	592.2
427.214	589.4
427.623	591.8
428.031	596
428.44	590
428.848	600.4
429.235	596.8
429.644	584
430.053	579.6
430.461	596.6
430.87	605.4
431.279	603.6
431.666	583.4
432.075	586.8
432.484	593
432.893	582.6
433.302	608.4
433.711	624.2
434.099	586.4
434.508	582.2
434.918	576.6
435.327	589.2
435.737	581.2
436.125	583.4
436.534	590.4
436.944	587.8
437.353	593.2
437.763	603.2
438.173	583.2
438.561	595
438.971	575
439.381	584.4
439.791	582.2
440.201	569.4
440.589	580.8
440.999	588.6
441.409	589.8
441.819	572
442.23	589.4
442.619	591.4
443.029	587
443.439	585.6
443.85	594
444.26	599.4
444.649	595.4
445.06	587.4
445.471	575.8
445.881	586.4
446.292	597.8
446.682	601.4
447.092	575.6
447.503	624.2
447.914	580.8
448.325	591.4
448.715	581.4
449.126	576
449.537	579.4
449.948	579.8
450.338	583.6
450.75	588.4
451.161	581.4
451.572	591.2
451.984	573
452.374	570.6
452.786	577.4
453.197	583
453.609	584.8
453.999	571.2
454.411	573
454.823	595.6
455.235	581.8
455.647	574.4
456.037	576.8
456.449	567
456.862	578.4
457.274	593.2
457.665	573.6
458.077	584.4
458.489	603.8
458.902	579.6
459.293	576.4
459.705	582.6
460.118	573.8
460.53	596.2
460.921	582.6
461.334	584.8
461.747	574.8
462.16	591.6
462.551	587.8
462.964	581.2
463.377	566
463.79	577.2
464.182	583.2
464.595	571.6
465.008	583.6
465.421	591.6
465.813	579
466.226	585.8
466.64	582.4
467.053	625.4
467.445	584.4
467.859	592
468.272	578.6
468.686	591.6
469.078	576.6
469.492	571.6
469.906	583.4
470.298	596.4
470.712	572.2
471.126	614.4
471.54	575
471.933	577
472.347	582.4
472.761	576.8
473.175	569.8
473.568	579.6
473.982	568.8
474.397	579.2
474.79	582.6
475.204	585.2
475.619	577.6
476.033	579
476.426	580.4
476.841	575.2
477.256	593.8
477.649	578.4
478.064	571.6
478.479	575.8
478.872	572.2
479.287	560.6
479.702	571.8
480.118	574.8
480.511	575.2
480.927	574.8
481.342	570.4
481.736	574.6
482.151	563.2
482.566	591
482.96	582.4
483.376	583.2
483.792	568.4
484.186	585.2
484.602	569.2
485.017	569.4
485.412	578.8
485.827	579.4
486.243	579.8
486.638	595.4
487.054	584
487.47	582
487.865	582
488.281	573.8
488.697	573.4
489.092	570.8
489.508	565.2
489.925	590.4
490.32	564
490.736	583.6
491.153	577.4
491.548	583
491.964	587.4
492.381	565.2
492.776	578.8
493.193	579.6
493.61	584.8
494.006	581
494.422	589
494.84	568.4
495.235	582
495.652	578.2
496.069	580.4
496.465	564
496.883	573.6
497.3	603.2
497.696	574.4
498.113	570.4
498.509	566.6
498.927	576
499.344	571.2
499.741	568.4
500.158	577
500.576	576.8
500.973	577
501.39	569.2
501.787	569
502.205	565
502.623	572
503.02	565.4
503.438	569.6
503.856	573.2
504.253	564.6
504.671	574
505.068	574.4
505.486	569.2
505.905	589.2
506.302	577.8
506.72	577
507.118	561.4
507.536	578.4
507.955	571
508.352	572
508.771	578
509.169	574.6
509.587	568
510.006	572.2
510.404	558.4
510.823	574
511.221	572.4
511.64	574.4
512.038	583.6
512.457	574.4
512.877	573.6
513.275	569.2
513.694	567.2
514.092	569.8
514.512	574.8
514.91	578
515.33	576
515.749	569.2
516.148	581.4
516.568	572.8
516.966	579.4
517.386	576.2
517.785	574
518.205	567.2
518.603	570
519.024	567.4
519.444	580
519.843	583.6
520.263	585.4
520.662	579.8
521.082	573.8
521.481	572
521.902	574
522.301	574
522.722	574.6
523.121	567.6
523.542	576.4
523.963	576
524.362	573.8
524.783	576.4
525.183	570
525.604	583.6
526.003	568
526.425	561.4
526.824	581.8
527.246	581.8
527.646	582.6
528.067	577
528.467	569.4
528.888	576.6
529.289	569.4
529.71	568.8
530.11	572.6
530.532	569.8
530.932	567.4
531.354	568.6
531.755	600.6
532.176	576.4
532.577	572.6
532.999	573.2
533.4	562.8
533.822	572.4
534.223	577.8
534.645	571
535.046	567.6
535.468	570
535.869	588.4
536.292	575.2
536.693	601.6
537.115	578.4
537.516	569.6
537.939	573
538.34	586.4
538.742	594.2
539.165	580.4
539.566	575.8
539.989	564.4
540.391	566.2
540.814	578.6
541.216	578
541.639	576
542.041	582.2
542.464	575.4
542.866	566.8
543.268	565.6
543.691	574.4
544.093	576
544.517	590.6
544.919	567.4
545.343	592.8
545.745	570
546.147	576.2
546.571	574.6
546.974	568
547.398	576.4
547.8	581
548.224	570
548.627	566.2
549.03	580.2
549.454	563
549.857	561.4
550.281	561
550.684	561.6
551.087	576.2
551.512	574.2
551.915	576.6
552.34	575.8
552.743	574.2
553.146	571.6
553.571	570.8
553.975	597.8
554.399	570.4
554.803	610.6
555.207	568.2
555.632	567.6
556.036	580.8
556.461	567.6
556.865	578.2
557.268	572.8
557.694	571.6
558.098	577.8
558.502	572
558.927	571.4
559.332	573.4
559.736	578.4
560.162	579.6
560.566	573.2
560.992	573.8
561.396	573.8
561.801	569.8
562.227	584.2
562.631	572.8
563.036	570.4
563.462	577.8
563.867	575.2
564.272	559.6
564.698	585
565.103	567
565.508	594.8
565.935	577.4
566.34	572
566.745	582.6
567.172	575.4
567.577	586.8
567.982	586
568.409	573.8
568.815	573
569.22	573.6
569.626	576.2
570.053	566.8
570.459	575.6
570.865	571.8
571.292	573.4
571.698	577
572.104	566.4
572.531	578.4
572.937	584.6
573.343	577.2
573.75	571.8
574.177	579.8
574.583	581.2
574.99	566.2
575.396	576.6
575.824	566.4
576.231	583
576.637	568.2
577.065	590
577.472	566.4
577.879	567.8
578.286	587
578.714	567.8
579.121	570
579.528	562.2
579.935	585.8
580.364	577.4
580.771	556.2
581.178	570.6
581.585	574
582.014	570.4
582.421	573
582.829	574.6
583.236	579.4
583.644	568.2
584.073	565.2
584.481	580
584.889	565.6
585.296	569.4
585.726	571.8
586.134	566.6
586.542	559.4
586.95	582.8
587.358	562
587.787	573.4
588.196	576.4
588.604	577.4
589.012	570.6
589.421	566.6
589.851	565.6
590.259	576.6
590.668	565.6
591.076	602.4
591.485	571.2
591.894	573.8
592.324	592
592.733	587.6
593.142	575.8
593.551	581.2
593.96	585
594.369	572.6
594.8	579.2
595.209	585
595.618	565.8
596.028	583.4
596.437	566
596.847	582.2
597.256	580.8
597.687	589.6
598.097	586.2
598.507	577.2
598.917	589.8
599.327	597.8
599.736	595.4
600.146	602.2
600.556	595.6
600.988	608.4
601.398	591.4
601.808	612.2
602.219	592.2
602.629	598.6
603.039	619
603.45	627.4
603.86	621.6
604.271	634.2
604.703	626.6
605.114	620.2
605.525	628.4
605.935	625.6
606.346	643.4
606.757	642
607.168	639.8
607.579	634.8
607.99	655.2
608.402	659.6
608.813	660.8
609.224	655.4
609.636	643.8
610.047	655.8
610.48	664.4
610.892	674.8
611.303	677
611.715	681
612.127	676.2
612.539	681
612.95	699.2
613.362	686.2
613.774	684
614.186	703
614.599	708.2
615.011	721.2
615.423	709
615.835	708.8
616.248	707.4
616.66	718.6
617.073	726
617.485	726
617.898	736
618.311	723.8
618.723	742.6
619.136	759.6
619.549	744.2
619.962	760
620.375	757.2
620.788	751.2
621.201	745.8
621.614	764.4
622.028	758.6
622.441	765.6
622.854	764.4
623.268	756
623.681	762.6
624.095	765.6
624.509	767
624.922	772.8
625.336	758
625.728	757.8
626.142	771
626.556	787.8
626.97	775
627.384	761.8
627.799	756.6
628.213	774.2
628.627	766.4
629.041	772
629.456	766.8
629.87	777.2
630.285	775
630.699	774.2
631.093	773.6
631.507	766.2
631.922	751.6
632.337	776.6
632.752	750
633.167	748.4
633.582	752.6
633.997	750.4
634.412	749.2
634.806	746.2
635.221	742.2
635.637	763.4
636.052	738.8
636.468	740.8
636.883	760.2
637.299	735.4
637.715	723.4
638.109	725.6
638.525	718.6
638.941	734.6
639.357	724.6
639.773	734.4
640.189	706.8
640.584	712.6
641	714.2
641.416	699
641.832	700.6
642.249	698.4
642.665	704.8
643.06	708.4
643.477	697
643.894	680.2
644.31	689.6
644.727	686.8
645.123	681.4
645.54	674
645.957	673.4
646.374	678.4
646.77	667.2
647.187	688.6
647.604	668.8
648.021	658.8
648.439	658.6
648.835	674.2
649.252	654.4
649.67	664.8
650.088	663
650.484	655.6
650.902	668
651.32	662.6
651.738	647.8
652.134	661.4
652.552	661.2
652.971	656.4
653.389	645
653.786	653.6
654.204	660.4
654.622	642
655.019	642.2
655.438	635.4
655.857	641.4
656.275	644.4
656.673	631
657.091	638.6
657.51	619.6
657.908	631.4
658.327	640.6
658.746	621
659.144	625.8
659.563	634
659.982	623.2
660.38	617.4
660.8	614.2
661.219	620.8
661.617	619.2
662.037	610.6
662.457	619.6
662.855	601.4
663.275	645.2
663.695	610.4
664.094	610
664.514	608.2
664.934	597.4
665.333	612.8
665.753	599.2
666.152	588.6
666.572	603.4
666.993	606.8
667.392	593.8
667.812	594.8
668.212	598.8
668.632	606.4
669.053	601.6
669.453	602.8
669.874	593.4
670.273	605.2
670.694	590.6
671.116	602.6
671.515	603.2
671.937	584.2
672.337	585.2
672.758	581.4
673.158	592.4
673.58	572.8
673.98	588
674.402	596.2
674.824	585.8
675.224	580.8
675.646	571.4
676.047	579.2
676.469	582.2
676.869	593
677.292	580.4
677.693	574.2
678.115	578.6
678.516	580
678.939	585.2
679.34	576
679.762	591.6
680.164	581
680.586	574.8
680.988	579.2
681.411	598.8
681.812	574.6
682.236	571.6
682.637	563.4
683.061	569.2
683.462	571.6
683.864	575.2
684.288	582.4
684.69	570.6
685.114	578.2
685.516	586.8
685.94	565.8
686.342	582.4
686.766	568.8
687.168	575
687.571	589.8
687.995	578.4
688.398	573.6
688.822	575.6
689.225	592
689.628	589.6
690.052	576.8
690.456	575.4
690.88	574.2
691.284	561.2
691.687	575.8
692.112	563
692.515	561
692.919	573.4
693.344	574.2
693.747	569.6
694.173	560
694.577	582.8
694.98	575.8
695.406	566.2
695.81	573.2
696.214	568.6
696.64	574.2
697.044	578.8
697.448	580.6
697.874	568.8
698.279	565
698.684	558.4
699.11	567.8
699.514	565.4
699.919	560.6
700.324	559.6
700.75	572.8
701.156	565.6
701.561	584.6
701.987	576.6
702.393	570.4
702.798	575
703.203	566.2
703.63	559.6
704.036	567.6
704.442	569.4
704.847	562.8
705.274	562.6
705.68	566
706.086	575.2
706.492	561
706.92	557.8
707.326	577.6
707.732	569.6
708.139	561.2
708.545	563.2
708.973	563
709.38	568.8
709.786	562.2
710.193	582.8
710.6	571
711.028	559.8
711.435	568
711.842	571.6
712.249	569.2
712.656	570.2
713.064	575.4
713.492	551
713.9	568.8
714.307	568.8
714.715	563.4
715.123	573
715.53	573.2
715.938	574.4
716.367	570.2
716.775	566.6
717.184	558.6
717.592	564.4
718	577.6
718.408	593.8
718.816	599.4
719.225	573.8
719.633	572.2
720.042	558.2
720.472	564.4
720.881	587
721.29	567.8
721.699	559.2
722.108	571.4
722.517	568
722.926	564.6
723.335	564.4
723.744	565.2
724.154	567.6
724.563	567.8
724.973	572.6
725.382	566.4
725.792	575.8
726.202	561.4
726.612	580.2
727.022	564.2
727.432	564.4
779.813	566.4
780.223	599
780.634	562.6
781.044	565.8
781.454	568.2
781.865	576.2
782.276	555.8
782.686	575.4
783.097	564.6
783.508	565.4
783.919	569
784.33	574.8
784.741	570
785.152	556
785.563	552.4
785.974	561
786.386	567.8
786.776	570.4
787.188	562.6
787.599	553.6
788.011	569.2
788.423	560.2
788.835	567.2
789.247	552.8
789.659	553.6
790.071	561
790.483	601.6
790.874	565.6
791.286	566
791.699	566.4
792.111	567.2
792.524	568.8
792.937	566
793.349	554.2
793.741	560
794.154	561.2
794.567	572.8
794.98	556.8
795.393	549.4
795.785	574.2
796.198	559
796.612	564.6
797.026	559
797.439	552.2
797.831	558.2
798.245	552.4
798.659	561.4
799.073	560.2
799.487	562.8
799.88	567.6
800.294	568.6
800.708	564.4
801.123	563.8
801.516	572
801.93	553.2
802.345	554
802.76	569.2
803.153	578.2
803.568	567.4
803.983	569.8
804.377	567.8
804.792	561.8
805.207	553.2
805.601	565.4
806.016	590
806.432	562.6
806.826	586.8
807.242	571
807.658	571
808.052	568
808.468	557.8
808.884	555.6
809.279	563.8
809.695	574.2
810.111	583
810.506	565.4
810.922	578.2
811.339	564.2
811.734	569
812.151	556
812.546	559
812.963	558
813.38	568.4
813.776	572.8
814.193	576.6
814.589	555.4
815.006	560.2
815.402	553.2
815.82	562.4
816.237	560.8
816.633	566.8
817.051	556.8
817.448	569.4
817.866	555.8
818.262	577
818.68	560.6
819.077	558.6
819.495	558
819.892	602.4
820.311	549.8
820.708	555
821.127	565.4
821.524	573.2
821.943	561.8
822.34	581.2
822.759	567.6
823.157	561.2
823.576	569.8
823.974	564.6
824.393	580
824.791	556.4
825.189	558
825.609	559.8
826.007	561.8
826.427	552
826.826	555.8
827.246	563.2
827.644	549.6
828.043	574.8
828.463	553.6
828.862	568
829.261	560.8
829.682	548.4
830.081	563.4
830.502	552.8
830.901	566.8
831.301	566.2
831.722	555.8
832.121	559.6
832.521	559
832.943	565.8
833.342	562.4
833.742	552.6
834.164	555.4
834.564	555.8
834.965	557.6
835.386	560.6
835.787	555.4
836.188	562.2
836.588	562.2
837.01	560.6
837.411	554.6
837.812	560.8
838.213	558.8
838.636	553.4
839.037	621.4
839.438	570
839.84	566.4
840.263	565
840.664	563.8
841.066	557.4
841.468	558
841.891	560
842.293	561.6
842.695	565.4
843.098	568.8
843.5	554.6
843.902	570
844.326	559.4
844.729	557.6
845.131	565.6
845.534	557.8
845.937	567.8
846.34	571.2
846.764	553
847.167	564
847.571	550.6
847.974	565
848.377	557.4
848.781	597
849.184	569.6
849.588	551
849.992	565.6
850.396	557.8
850.821	579.8
851.225	557.8
851.63	554.2
852.034	576
852.438	558.4
852.843	616.4
853.247	549.6
853.652	560.2
854.057	570.6
854.462	566.6
854.867	563.8
855.272	590.8
855.677	561.8
856.082	554
856.487	558.8
856.893	563.4
857.298	559.2
