#lambda/nm	C1
208.295	547.2
208.67	490.2
209.045	451.4
209.419	454.2
209.794	598.6
210.169	591.6
210.544	691.2
210.919	600.8
211.295	588.4
211.67	599.6
212.045	595.6
212.421	587.6
212.796	622.8
213.172	587
213.547	589.4
213.923	593.8
214.299	594.4
214.675	603
215.051	603.6
215.427	607.6
215.803	621.6
216.179	601
216.555	591
216.932	603.4
217.308	597.2
217.684	597.8
218.061	602.8
218.438	597
218.814	598.4
219.191	604.8
219.568	588.2
219.945	596.6
220.322	600.4
220.699	601
221.076	608
221.453	598.6
221.83	589.8
222.208	599
222.585	596.8
222.962	600.8
223.34	596.2
223.717	604.2
224.095	594.6
224.473	597.8
224.851	588.6
225.229	582.4
225.607	614.8
225.985	584.6
226.363	603
226.741	584
227.119	593
227.497	601.8
227.876	582.6
228.254	598.8
228.633	599.6
229.011	596.4
229.39	603.8
229.769	600
230.148	606.2
230.527	613.8
230.905	591.2
231.284	597.8
231.664	597.2
232.043	607.4
232.422	592.4
232.801	593.2
233.181	603.6
233.56	584.4
233.94	594
234.319	583.6
234.699	598.4
235.079	632.8
235.458	620.8
235.838	599.6
236.218	591.4
236.598	587
236.978	597.6
237.358	591.6
237.738	600
238.119	602.8
238.499	585.8
238.88	588.8
239.26	606
239.641	590
240.021	599.8
240.402	598
240.783	590.6
241.163	593.6
241.544	595.2
241.925	598.2
242.306	609.8
242.687	600
243.069	600
243.45	604
243.831	591.6
244.212	593.4
244.594	629.4
244.975	600.2
245.357	598.2
245.739	589.6
246.12	593.8
246.502	598
246.884	596.2
247.266	591
247.648	599.4
248.03	624.2
248.412	594.8
248.794	596.8
249.176	591.4
249.559	596.8
249.941	588.6
250.323	586.4
250.706	582.6
251.089	600.2
251.471	599.6
251.854	595.2
252.237	592.2
252.62	609.4
253.002	601
253.385	601.4
253.769	606.6
254.152	601.4
254.535	605.4
254.918	595
255.301	597
255.685	587.2
256.068	590.2
256.452	613.8
256.835	601.2
257.219	601.2
257.603	604.4
257.986	586.8
258.37	601.2
258.754	587
259.138	605.2
259.522	600
259.906	589.6
260.29	595.4
260.675	599.2
261.059	596
261.443	593.6
261.828	598.6
262.212	603.2
262.597	591.6
262.981	594.4
263.366	599.2
263.751	593.4
264.136	593.4
264.521	593
264.906	592.8
265.291	605.4
265.676	591.6
266.061	594.2
266.446	610.8
266.831	593.6
267.217	616.6
267.602	595.4
267.987	595.4
268.373	594.2
268.759	604.2
269.144	609.6
269.53	597.8
269.916	584
270.302	595
270.688	596.4
271.074	602.4
271.46	616
271.846	621.2
272.232	600
272.618	592.4
273.004	588.2
273.391	605
273.777	605.4
274.164	598
274.55	597.2
274.937	591.4
275.324	588.6
275.71	598.6
276.097	607
276.484	590.6
276.871	596.2
277.258	600.4
277.645	592
278.032	593.6
278.419	598.6
278.807	595
279.194	588.2
279.581	588.6
279.969	596.8
280.356	598.8
280.744	599.6
281.131	608.2
281.519	600.6
281.907	591.4
282.295	593.2
282.682	614
283.07	597.8
283.458	601
283.846	613.6
284.235	610.2
284.623	599.6
285.011	588.2
285.399	608
285.788	601.6
286.176	589
286.565	611.6
286.953	585.4
287.342	595.2
287.731	598.4
288.119	593.4
288.508	597.4
288.897	605
289.286	584.2
289.675	593.2
290.064	603.8
290.453	595.2
290.821	598.6
291.21	609.6
291.599	598.2
291.989	599.8
292.378	610.8
292.768	607
293.157	604.2
293.547	605.8
293.936	589.4
294.326	595.4
294.716	594.4
295.106	591.8
295.496	598.2
295.886	605.8
296.276	597.8
296.666	596.8
297.056	590.2
297.446	589.6
297.836	604.4
298.227	589
298.617	603.6
299.008	609.6
299.398	591.2
299.789	591.4
300.179	600
300.57	607.4
300.961	593.4
301.352	595.2
301.742	603.8
302.133	597.4
302.524	599.6
302.915	599.8
303.307	587
303.698	607
304.089	596.6
304.48	599.2
304.872	602.8
305.263	594
305.655	601
306.046	603.8
306.438	602.2
306.829	598.8
307.221	602.6
307.613	601.4
308.005	606.8
308.397	602.6
308.789	611.8
309.181	612
309.573	609.4
309.965	606.6
310.357	596
310.749	608
311.142	590.6
311.534	595.6
311.926	594.8
312.319	595
312.711	599.8
313.104	604.4
313.497	595.4
313.889	632.2
314.282	609.2
314.675	618.6
315.068	599.4
315.461	606.4
315.854	625
316.247	607.4
316.64	602.8
317.033	598.2
317.405	605
317.798	598.6
318.192	605.8
318.585	597.4
318.979	605
319.372	590
319.766	597.2
320.16	608.2
320.553	613.4
320.947	614.2
321.341	601.6
321.735	599.6
322.129	586.8
322.523	623.4
322.917	594.2
323.311	610.8
323.705	602.4
324.099	612.6
324.494	614
324.888	603.6
325.282	598.2
325.677	606
326.071	597.8
326.466	607
326.861	604.8
327.255	604.8
327.65	602
328.045	605.8
328.44	599
328.835	596.4
329.23	582.8
329.625	614.6
330.02	591.6
330.415	617.8
330.81	599.2
331.206	591.6
331.601	588.6
331.996	603
332.37	618.8
332.766	583.8
333.161	611.6
333.557	590.6
333.953	596.2
334.348	842.6
334.744	597.6
335.14	594.2
335.536	593.4
335.932	608.4
336.328	600
336.724	611.8
337.12	595.6
337.516	599.6
337.913	597.2
338.309	606.4
338.705	601.2
339.102	604
339.498	593.2
339.895	607
340.291	588.4
340.688	603.8
341.085	595
341.481	600.2
341.878	590.6
342.275	615.2
342.672	591.6
343.069	591.6
343.466	584.4
343.842	604.2
344.239	599
344.636	597.4
345.033	592
345.431	586.6
345.828	590
346.225	588
346.623	624.4
347.02	602
347.418	601.6
347.816	610.6
348.213	590.8
348.611	602.8
349.009	585.4
349.407	613.6
349.805	591.6
350.203	589.8
350.601	605.2
350.999	596.8
351.397	631.4
351.795	592.4
352.193	602.2
352.57	602.2
352.969	605.4
353.367	587.4
353.766	592.8
354.164	591.4
354.563	608.2
354.961	598
355.36	589.8
355.759	597.2
356.158	589.4
356.557	592.2
356.956	587.4
357.355	585.8
357.754	598.2
358.153	591.2
358.552	614.6
358.951	594.8
359.35	602.6
359.75	591.6
360.149	589.4
360.527	580.8
360.926	585.8
361.326	592.8
361.726	590.6
362.125	592.4
362.525	593.8
362.925	589
363.325	595.6
363.724	593.2
364.124	588
364.524	587.2
364.924	582.4
365.324	597.6
365.725	578.2
366.125	591.4
366.525	588.6
366.904	584.6
367.304	572.6
367.705	607.4
368.105	599
368.506	587.2
368.906	592.8
369.307	589.6
369.708	590
370.108	577.8
370.509	602.2
370.91	589.2
371.311	600
371.712	587
372.113	584.6
372.514	579.4
372.894	586.4
373.295	587.6
373.696	602.2
374.097	596
374.499	621
374.9	591.6
375.301	583.8
375.703	591.4
376.105	582
376.506	586.6
376.908	592.2
377.309	593.6
377.711	585.2
378.113	591.4
378.493	593.6
378.895	586.4
379.297	599.8
379.699	569.8
380.102	589.8
380.504	584.6
380.906	584.8
381.308	611.6
381.71	588.8
382.113	593
382.515	586.4
382.918	594
383.299	585.6
383.701	597.4
384.104	594.6
384.507	566.2
384.909	583.4
385.312	587.4
385.715	587.2
386.118	585.6
386.521	580.8
386.924	603.4
387.327	581.8
387.709	580.2
388.112	578.4
388.515	586.2
388.918	583.6
389.322	594.6
389.725	586.2
390.129	611
390.532	599.6
390.936	586
391.339	586
391.743	595.6
392.125	586
392.529	605.6
392.933	596.2
393.337	592.6
393.74	580.6
394.144	594.4
394.548	585
394.953	585.2
395.357	596
395.761	588.8
396.144	591.4
396.548	587
396.952	586.2
397.357	586.6
397.761	587.2
398.166	585.8
398.57	589.4
398.975	578.4
399.379	592
399.763	635
400.168	596
400.572	590.8
400.977	594.6
401.382	605.6
401.787	601.4
402.192	609.6
402.597	604.4
403.002	577
403.386	594
403.791	601.8
404.197	581.6
404.602	593.6
405.007	587.8
405.413	588.6
405.818	589.2
406.224	579
406.608	587.4
407.014	578.8
407.42	600.6
407.825	584.8
408.231	589.8
408.637	587.6
409.043	599.6
409.449	577.8
409.834	579.2
410.24	587.4
410.646	597.4
411.052	584.6
411.458	591.2
411.865	596.6
412.271	603
412.677	594.4
413.062	597
413.469	581
413.875	616.8
414.282	605.8
414.689	593.4
415.095	594.2
415.502	586.8
415.888	594.2
416.294	579.2
416.701	628.2
417.108	578.8
417.515	598.8
417.923	596.2
418.33	605.2
418.715	600.4
419.123	585
419.53	588.4
419.937	596.4
420.345	602.2
420.752	590
421.16	597.4
421.546	588.2
421.953	595.4
422.361	582.6
422.769	589.2
423.177	583.6
423.585	608.4
423.992	609.8
424.379	595.8
424.787	605
425.195	607.6
425.603	590.6
426.011	598.4
426.419	600
426.806	598
427.214	591.8
427.623	595.2
428.031	598.4
428.44	593.8
428.848	603
429.235	600.4
429.644	593.6
430.053	582.6
430.461	605
430.87	612.4
431.279	602.4
431.666	590.2
432.075	585.4
432.484	592.6
432.893	587.6
433.302	597.6
433.711	626.4
434.099	595.4
434.508	584.4
434.918	592
435.327	595.2
435.737	585.6
436.125	597.8
436.534	596.2
436.944	593.4
437.353	603.4
437.763	608.2
438.173	581.8
438.561	605.6
438.971	575.2
439.381	587
439.791	596.8
440.201	570.4
440.589	595.2
440.999	594.2
441.409	594.4
441.819	580.6
442.23	594.6
442.619	598.6
443.029	595.8
443.439	587.8
443.85	596.2
444.26	606
444.649	597.6
445.06	594.8
445.471	586
445.881	592.8
446.292	605.6
446.682	610.6
447.092	579
447.503	624.8
447.914	584.4
448.325	586.4
448.715	588.4
449.126	587.8
449.537	583.2
449.948	583.8
450.338	593.4
450.75	595.8
451.161	594
451.572	591.4
451.984	583
452.374	571.2
452.786	591.6
453.197	596.6
453.609	601
453.999	573.6
454.411	578.2
454.823	600.2
455.235	590.4
455.647	587.4
456.037	596.8
456.449	579.8
456.862	589
457.274	588.4
457.665	582.6
458.077	587
458.489	616.2
458.902	586.4
459.293	591.8
459.705	580.8
460.118	580
460.53	580
460.921	591
461.334	586.6
461.747	591.8
462.16	594
462.551	595.6
462.964	583.8
463.377	572.2
463.79	581.2
464.182	599.8
464.595	576.2
465.008	579.6
465.421	593
465.813	583.6
466.226	594.2
466.64	579.4
467.053	627.4
467.445	596.2
467.859	600
468.272	585.4
468.686	583.2
469.078	578.2
469.492	575.2
469.906	584.8
470.298	585.4
470.712	577.8
471.126	624.4
471.54	565.8
471.933	577.8
472.347	579.6
472.761	580.4
473.175	567.6
473.568	572.4
473.982	570.2
474.397	583.6
474.79	586.8
475.204	580.4
475.619	582.2
476.033	584.4
476.426	588.2
476.841	580
477.256	603.8
477.649	577
478.064	579.2
478.479	571
478.872	571
479.287	568.6
479.702	569.2
480.118	575.8
480.511	580.6
480.927	585.6
481.342	576
481.736	582
482.151	575.4
482.566	591
482.96	586.4
483.376	591
483.792	575.2
484.186	583.8
484.602	586.8
485.017	582.6
485.412	588.4
485.827	583.2
486.243	579.8
486.638	603.4
487.054	587.4
487.47	601.2
487.865	574.4
488.281	577.6
488.697	577.4
489.092	587.2
489.508	577.8
489.925	595
490.32	571.4
490.736	586.8
491.153	590.2
491.548	579.2
491.964	589.8
492.381	573.2
492.776	578
493.193	582
493.61	591
494.006	586
494.422	589.2
494.84	573.6
495.235	589.8
495.652	584.8
496.069	583.4
496.465	577.8
496.883	582.8
497.3	606.8
497.696	571.4
498.113	594.8
498.509	569.2
498.927	573.6
499.344	571.2
499.741	583
500.158	600.2
500.576	588.2
500.973	589
501.39	574
501.787	572.4
502.205	580.6
502.623	581.4
503.02	570.2
503.438	576.8
503.856	572.6
504.253	585.2
504.671	581.2
505.068	586.2
505.486	577.8
505.905	595.6
506.302	580
506.72	593.2
507.118	577
507.536	579.2
507.955	579.2
508.352	586.2
508.771	586.8
509.169	588.8
509.587	578.2
510.006	583.6
510.404	577.8
510.823	575
511.221	578.8
511.64	572.4
512.038	592.4
512.457	580.4
512.877	577.4
513.275	573.6
513.694	576
514.092	574.2
514.512	581.4
514.91	580.2
515.33	583
515.749	582.2
516.148	584.2
516.568	582.6
516.966	584.6
517.386	576.4
517.785	567.6
518.205	573.4
518.603	573.4
519.024	570.8
519.444	583.4
519.843	594.2
520.263	587.8
520.662	583
521.082	578
521.481	585.4
521.902	582.4
522.301	579.2
522.722	584.8
523.121	574.2
523.542	573.2
523.963	577.8
524.362	582
524.783	582.4
525.183	575.4
525.604	578.2
526.003	576.6
526.425	568.4
526.824	575.8
527.246	584
527.646	589.8
528.067	576
528.467	577.4
528.888	578.4
529.289	571.2
529.71	581.8
530.11	577.6
530.532	570.4
530.932	568.8
531.354	569.2
531.755	601.6
532.176	592
532.577	582.8
532.999	587.2
533.4	576.6
533.822	592.8
534.223	584
534.645	573.4
535.046	576.4
535.468	585.2
535.869	600.2
536.292	569.6
536.693	609.4
537.115	579
537.516	578
537.939	580.4
538.34	599.4
538.742	599.8
539.165	580.2
539.566	573.4
539.989	581.8
540.391	570.8
540.814	581
541.216	587.6
541.639	576.8
542.041	586.6
542.464	574.4
542.866	577.8
543.268	568.8
543.691	590
544.093	583.4
544.517	599.2
544.919	574.6
545.343	595
545.745	565.4
546.147	580.4
546.571	574.2
546.974	574.8
547.398	585.6
547.8	584.2
548.224	574.2
548.627	572.6
549.03	583
549.454	576.2
549.857	572
550.281	574.8
550.684	570.4
551.087	585.4
551.512	580.6
551.915	584.2
552.34	581.8
552.743	574.4
553.146	573.8
553.571	581
553.975	588.8
554.399	571.8
554.803	620.2
555.207	574.2
555.632	569.6
556.036	585.2
556.461	567.2
556.865	573.8
557.268	574.4
557.694	573.6
558.098	589.6
558.502	576
558.927	575.8
559.332	577.6
559.736	573.2
560.162	584.6
560.566	574.6
560.992	581.4
561.396	571
561.801	569.6
562.227	573.8
562.631	570.6
563.036	580.8
563.462	583.8
563.867	575.6
564.272	561.4
564.698	577.8
565.103	566.4
565.508	597.2
565.935	571.4
566.34	576.4
566.745	585.4
567.172	580.4
567.577	590
567.982	587.2
568.409	582.4
568.815	569.2
569.22	585.6
569.626	580.2
570.053	566.6
570.459	575.6
570.865	583.6
571.292	582.4
571.698	578.2
572.104	564.2
572.531	566.8
572.937	583.2
573.343	571.4
573.75	573.4
574.177	578.8
574.583	583.2
574.99	573.6
575.396	583.4
575.824	571.4
576.231	577.2
576.637	576.2
577.065	595.2
577.472	575
577.879	575.2
578.286	587.8
578.714	576.4
579.121	569.4
579.528	577.6
579.935	585.2
580.364	573.6
580.771	563.6
581.178	573.2
581.585	576
582.014	581.2
582.421	576.2
582.829	576.6
583.236	582
583.644	568.8
584.073	572.8
584.481	572.2
584.889	567.2
585.296	582
585.726	578
586.134	569
586.542	575.6
586.95	594.6
587.358	564.8
587.787	573.2
588.196	585.6
588.604	576.6
589.012	573.6
589.421	572.8
589.851	573.8
590.259	584.8
590.668	578.8
591.076	607.8
591.485	573.2
591.894	572.2
592.324	593.8
592.733	590.6
593.142	564.6
593.551	570.6
593.96	579
594.369	566
594.8	568.4
595.209	583.2
595.618	559.6
596.028	576.8
596.437	569.4
596.847	576.6
597.256	577
597.687	584.4
598.097	577.6
598.507	565.2
598.917	576.8
599.327	572.8
599.736	573.4
600.146	580.6
600.556	578.2
600.988	593.2
601.398	576
601.808	584.4
602.219	567.8
602.629	580.4
603.039	579.8
603.45	594.4
603.86	579.8
604.271	583.4
604.703	578.2
605.114	571.6
605.525	576.8
605.935	578.8
606.346	604.6
606.757	587.4
607.168	578.8
607.579	574.2
607.99	588.6
608.402	579
608.813	574.8
609.224	578.8
609.636	580
610.047	577.6
610.48	586.4
610.892	575.4
611.303	587
611.715	586.2
612.127	575.6
612.539	576.8
612.95	571.6
613.362	573.2
613.774	563.8
614.186	577.6
614.599	568.8
615.011	581
615.423	574
615.835	580.2
616.248	574.6
616.66	587.4
617.073	576.2
617.485	576
617.898	593.8
618.311	591.2
618.723	588.2
619.136	603.6
619.549	597.4
619.962	595.2
620.375	571.4
620.788	581.2
621.201	575.2
621.614	581.6
622.028	580.6
622.441	577
622.854	586.4
623.268	574
623.681	591.4
624.095	580
624.509	592.6
624.922	581.8
625.336	576.8
625.728	577
626.142	583.6
626.556	597.6
626.97	587.2
627.384	579.8
627.799	582.2
628.213	590.6
628.627	584
629.041	588.8
629.456	580.2
629.87	585.8
630.285	590.4
630.699	593.8
631.093	583.4
631.507	588
631.922	582.2
632.337	595.8
632.752	579.6
633.167	585.4
633.582	576.4
633.997	571.4
634.412	575.4
634.806	575.2
635.221	579.2
635.637	597
636.052	574.2
636.468	586
636.883	590.4
637.299	581.2
637.715	568.2
638.109	585
638.525	576
638.941	586.6
639.357	587.4
639.773	591.2
640.189	571.8
640.584	577
641	582.8
641.416	570.4
641.832	585.2
642.249	580
642.665	577.8
643.06	586
643.477	584
643.894	564.8
644.31	581.6
644.727	575.8
645.123	575.6
645.54	578
645.957	578.6
646.374	580.6
646.77	586.2
647.187	609
647.604	570
648.021	563.6
648.439	571.2
648.835	581.6
649.252	584.2
649.67	583.6
650.088	583.2
650.484	572.8
650.902	580.6
651.32	577.8
651.738	568.8
652.134	582.2
652.552	596.6
652.971	587.2
653.389	573.2
653.786	594
654.204	599.4
654.622	570
655.019	578.8
655.438	579.2
655.857	573.6
656.275	571.4
656.673	567
657.091	578.8
657.51	570.4
657.908	582.6
658.327	589.8
658.746	571.2
659.144	567.2
659.563	584
659.982	573.2
660.38	565.8
660.8	581.2
661.219	577.4
661.617	574.4
662.037	571.2
662.457	583.8
662.855	562.2
663.275	601.2
663.695	570.2
664.094	572.6
664.514	577.4
664.934	576
665.333	581
665.753	573.4
666.152	565
666.572	570.2
666.993	580
667.392	567.4
667.812	577
668.212	580.2
668.632	577.2
669.053	567.6
669.453	572.4
669.874	570.4
670.273	571
670.694	566.6
671.116	579.2
671.515	573.8
671.937	571.8
672.337	565.4
672.758	569
673.158	579
673.58	558.4
673.98	569.8
674.402	582
674.824	573.6
675.224	562
675.646	566.2
676.047	571.8
676.469	576.6
676.869	577.4
677.292	569.6
677.693	566.2
678.115	570.2
678.516	570.2
678.939	576.4
679.34	568.2
679.762	587
680.164	577
680.586	561.8
680.988	573.6
681.411	594
681.812	579
682.236	566.2
682.637	566
683.061	563.6
683.462	575.8
683.864	561
684.288	566.2
684.69	570.2
685.114	583.2
685.516	584.2
685.94	566.6
686.342	579.8
686.766	557.8
687.168	576.4
687.571	586.6
687.995	579
688.398	569
688.822	572.2
689.225	591.6
689.628	587.2
690.052	574.2
690.456	583.8
690.88	570.8
691.284	567.8
691.687	573.2
692.112	558.2
692.515	567.6
692.919	576
693.344	577.6
693.747	574.6
694.173	574.2
694.577	582.6
694.98	571.6
695.406	563.4
695.81	579.8
696.214	567.6
696.64	577.6
697.044	571
697.448	574.6
697.874	567.6
698.279	570.6
698.684	566
699.11	561.6
699.514	561.8
699.919	569.6
700.324	562.8
700.75	574
701.156	564
701.561	583.8
701.987	577.2
702.393	578.6
702.798	577.8
703.203	576.6
703.63	567.8
704.036	570.4
704.442	567.4
704.847	559.4
705.274	572.4
705.68	573.6
706.086	580.8
706.492	570.2
706.92	578.2
707.326	577.6
707.732	563.4
708.139	565.2
708.545	566.4
708.973	566.2
709.38	571.4
709.786	562.2
710.193	583.8
710.6	567.8
711.028	564.4
711.435	569.8
711.842	570.2
712.249	569.4
712.656	573.4
713.064	574
713.492	561.6
713.9	571.4
714.307	584
714.715	575.4
715.123	579.2
715.53	571.2
715.938	578.4
716.367	574.6
716.775	564.2
717.184	568
717.592	568.4
718	576.8
718.408	602.8
718.816	608.8
719.225	568.8
719.633	568.6
720.042	566.8
720.472	573
720.881	586
721.29	569.4
721.699	562
722.108	570.2
722.517	569.4
722.926	568.2
723.335	571.8
723.744	563.4
724.154	570.4
724.563	570
724.973	568.6
725.382	573
725.792	564.6
726.202	560.8
726.612	587
727.022	570.6
727.432	570
779.813	562.6
780.223	609.8
780.634	568.8
781.044	557
781.454	570.2
781.865	575.4
782.276	563.8
782.686	579.6
783.097	569.8
783.508	574.2
783.919	572.6
784.33	581.8
784.741	584.8
785.152	570.4
785.563	563.2
785.974	567.6
786.386	580.2
786.776	568.8
787.188	566.6
787.599	563
788.011	575.4
788.423	565.8
788.835	570.6
789.247	558.8
789.659	569.6
790.071	565.8
790.483	607
790.874	567.4
791.286	573
791.699	571.6
792.111	558
792.524	571.8
792.937	578.8
793.349	561
793.741	565.4
794.154	567.4
794.567	588.8
794.98	567.2
795.393	560
795.785	580.2
796.198	566
796.612	569.6
797.026	571.4
797.439	553.4
797.831	566.6
798.245	556.2
798.659	571.2
799.073	568.4
799.487	559
799.88	572.4
800.294	565.4
800.708	568
801.123	565.2
801.516	589
801.93	565.4
802.345	563.6
802.76	565
803.153	581.8
803.568	576.6
803.983	585
804.377	571.8
804.792	562.2
805.207	556.2
805.601	573
806.016	591.8
806.432	557.6
806.826	593
807.242	574.2
807.658	561.2
808.052	559
808.468	559.2
808.884	558
809.279	561
809.695	569.4
810.111	597.2
810.506	574
810.922	581.8
811.339	563.2
811.734	565.6
812.151	557.6
812.546	564.4
812.963	565
813.38	568.6
813.776	567.4
814.193	579.8
814.589	562.8
815.006	557.2
815.402	572
815.82	563.2
816.237	570.8
816.633	569.2
817.051	557
817.448	563.8
817.866	558
818.262	581.8
818.68	560
819.077	560.4
819.495	563.6
819.892	599.6
820.311	558
820.708	561.4
821.127	564.4
821.524	569.4
821.943	564.8
822.34	582.6
822.759	572.8
823.157	576.8
823.576	574.4
823.974	565.2
824.393	590.4
824.791	558.8
825.189	563
825.609	563
826.007	566
826.427	557.2
826.826	556.6
827.246	576
827.644	555.6
828.043	579.4
828.463	568
828.862	573.8
829.261	570.2
829.682	555.6
830.081	569.8
830.502	557
830.901	569.2
831.301	578.2
831.722	562.8
832.121	568
832.521	561.6
832.943	564.8
833.342	567.2
833.742	559.2
834.164	569.4
834.564	558.2
834.965	563
835.386	566.4
835.787	567.2
836.188	561
836.588	559
837.01	567.8
837.411	559
837.812	578.8
838.213	567
838.636	556
839.037	625.6
839.438	567.4
839.84	567
840.263	572.8
840.664	576.6
841.066	553.6
841.468	571.8
841.891	561.4
842.293	575.6
842.695	571.2
843.098	570.2
843.5	568
843.902	572.2
844.326	579.4
844.729	571.6
845.131	573.2
845.534	567.4
845.937	576.2
846.34	583.8
846.764	560.2
847.167	564
847.571	558.8
847.974	566
848.377	566.6
848.781	609.6
849.184	577.6
849.588	567.4
849.992	561
850.396	567.2
850.821	578.8
851.225	567.6
851.63	568.4
852.034	583.4
852.438	568.6
852.843	636.2
853.247	558.6
853.652	562.4
854.057	579.2
854.462	566.4
854.867	568.6
855.272	598
855.677	574.8
