#lambda/nm	C1
208.295	569
208.67	499.8
209.045	465
209.419	459.6
209.794	593.8
210.169	577.4
210.544	664.2
210.919	588.8
211.295	577.2
211.67	587.8
212.045	585.6
212.421	582.2
212.796	610
213.172	584.4
213.547	578.2
213.923	588.6
214.299	574
214.675	593.4
215.051	587.4
215.427	595.6
215.803	597.6
216.179	588.2
216.555	580.6
216.932	593.8
217.308	576.6
217.684	586.4
218.061	583.8
218.438	586.6
218.814	584.4
219.191	585
219.568	576
219.945	572.8
220.322	584.8
220.699	578.6
221.076	587.2
221.453	582.8
221.83	578.2
222.208	582
222.585	573.8
222.962	579.4
223.34	579.2
223.717	578.2
224.095	583.2
224.473	584.2
224.851	577.4
225.229	571.2
225.607	592.8
225.985	569.4
226.363	578.2
226.741	579.4
227.119	583.8
227.497	595.6
227.876	577.6
228.254	593
228.633	586.2
229.011	580.8
229.39	586.8
229.769	585.6
230.148	583.4
230.527	595.4
230.905	589
231.284	595.6
231.664	580.8
232.043	599.6
232.422	594
232.801	586.6
233.181	589.2
233.56	581.6
233.94	583.4
234.319	576
234.699	581.6
235.079	611.2
235.458	608.2
235.838	593
236.218	571.6
236.598	578.8
236.978	579.2
237.358	578
237.738	569
238.119	587
238.499	565.6
238.88	576.6
239.26	588.2
239.641	573.8
240.021	574.2
240.402	577
240.783	581.4
241.163	579
241.544	584.6
241.925	573.8
242.306	583.4
242.687	580.6
243.069	582.4
243.45	583
243.831	582
244.212	584
244.594	608
244.975	586.8
245.357	586.2
245.739	578.4
246.12	580
246.502	592.6
246.884	582.6
247.266	582.2
247.648	584
248.03	594.8
248.412	578.8
248.794	584
249.176	576.2
249.559	586.4
249.941	577
250.323	578.4
250.706	577.2
251.089	586.8
251.471	586
251.854	585.8
252.237	587.2
252.62	591.2
253.002	582.4
253.385	577
253.769	591.8
254.152	587.4
254.535	590.6
254.918	574.6
255.301	578.4
255.685	580.6
256.068	573.2
256.452	599.2
256.835	597.2
257.219	588
257.603	586.8
257.986	576.8
258.37	589.8
258.754	577.8
259.138	586.8
259.522	583.8
259.906	574.8
260.29	588
260.675	582.6
261.059	584.8
261.443	568
261.828	583.4
262.212	586.6
262.597	573.6
262.981	573
263.366	584.2
263.751	584.6
264.136	576.8
264.521	574.4
264.906	576
265.291	585
265.676	576
266.061	588
266.446	589.2
266.831	581.8
267.217	595.8
267.602	585
267.987	580.8
268.373	575.4
268.759	589.2
269.144	587.2
269.53	587.6
269.916	582.2
270.302	573.8
270.688	581.2
271.074	582.4
271.46	587.8
271.846	611.2
272.232	588.6
272.618	573.4
273.004	581.4
273.391	592.4
273.777	596.6
274.164	583.4
274.55	587.8
274.937	588.4
275.324	575.6
275.71	580
276.097	579
276.484	577.8
276.871	584.4
277.258	582.2
277.645	580.8
278.032	585.8
278.419	582.2
278.807	579
279.194	573.4
279.581	581.6
279.969	585.8
280.356	581
280.744	584.2
281.131	599.6
281.519	588.2
281.907	580.2
282.295	586.6
282.682	593.4
283.07	589
283.458	594.2
283.846	584.2
284.235	581
284.623	593.6
285.011	571.4
285.399	579.8
285.788	580.2
286.176	570.4
286.565	592.8
286.953	572.4
287.342	578.6
287.731	569.4
288.119	569.8
288.508	569.4
288.897	581.8
289.286	574.6
289.675	574.8
290.064	593.4
290.453	581.6
290.821	587.6
291.21	586.8
291.599	574.8
291.989	581.2
292.378	588.6
292.768	594.4
293.157	578
293.547	588.4
293.936	585.6
294.326	578.6
294.716	588.2
295.106	579.6
295.496	588.8
295.886	592.2
296.276	585.8
296.666	573.8
297.056	577
297.446	573.2
297.836	601
298.227	580
298.617	580.6
299.008	595
299.398	579
299.789	573.8
300.179	583.6
300.57	591.8
300.961	582
301.352	577
301.742	588
302.133	575.8
302.524	579.4
302.915	588.8
303.307	574.2
303.698	595.4
304.089	584
304.48	576.4
304.872	591.6
305.263	578.8
305.655	580.4
306.046	588.4
306.438	584
306.829	576.4
307.221	590.4
307.613	593.2
308.005	589.2
308.397	582.6
308.789	594.6
309.181	597.4
309.573	593
309.965	592
310.357	587
310.749	593.8
311.142	573.6
311.534	579.4
311.926	587.8
312.319	581.6
312.711	582.4
313.104	588.8
313.497	582.2
313.889	613.4
314.282	593.6
314.675	604.4
315.068	584.6
315.461	588.6
315.854	603
316.247	585.2
316.64	583
317.033	576.4
317.405	587
317.798	577.6
318.192	583.8
318.585	575.6
318.979	580.2
319.372	573.2
319.766	590.6
320.16	592.4
320.553	597.4
320.947	594.8
321.341	572
321.735	581.6
322.129	569
322.523	602.4
322.917	573.2
323.311	590.2
323.705	584.8
324.099	585.2
324.494	593.8
324.888	594
325.282	577.6
325.677	588.6
326.071	587.6
326.466	588.2
326.861	578.4
327.255	587.4
327.65	595.8
328.045	589
328.44	582
328.835	580.8
329.23	583.4
329.625	596.8
330.02	575.4
330.415	600.6
330.81	578.8
331.206	581.2
331.601	574
331.996	591.6
332.37	603.2
332.766	577.6
333.161	604.4
333.557	573.2
333.953	581.4
334.348	820.4
334.744	582.2
335.14	583.6
335.536	581
335.932	597
336.328	580.6
336.724	590
337.12	579.4
337.516	590.6
337.913	588.4
338.309	592.8
338.705	582.6
339.102	587
339.498	583.8
339.895	593.2
340.291	585.8
340.688	582.4
341.085	570.2
341.481	585
341.878	577.6
342.275	595
342.672	576.6
343.069	580.4
343.466	573.2
343.842	592
344.239	574.2
344.636	579.2
345.033	578.2
345.431	573
345.828	580.2
346.225	574.2
346.623	606.4
347.02	576.8
347.418	584.4
347.816	593.6
348.213	572.2
348.611	577.4
349.009	571.8
349.407	589
349.805	575.4
350.203	570.8
350.601	587.2
350.999	572.2
351.397	618.2
351.795	577
352.193	591
352.57	592.4
352.969	588.8
353.367	570.2
353.766	570.2
354.164	580
354.563	583.2
354.961	579.6
355.36	579
355.759	568.6
356.158	573.4
356.557	566.6
356.956	575
357.355	566
357.754	581.6
358.153	585
358.552	589.2
358.951	579
359.35	575.8
359.75	563.6
360.149	568.2
360.527	569.8
360.926	573.2
361.326	581
361.726	574.6
362.125	570
362.525	584.2
362.925	569.6
363.325	574.8
363.724	571.2
364.124	573.6
364.524	564.2
364.924	585.2
365.324	588.6
365.725	570.2
366.125	578.2
366.525	576.4
366.904	578.8
367.304	564.4
367.705	591.2
368.105	587.4
368.506	576.2
368.906	569.6
369.307	578.2
369.708	573.4
370.108	570.4
370.509	579.6
370.91	571.6
371.311	581.8
371.712	583.8
372.113	571.4
372.514	571.6
372.894	573.2
373.295	573
373.696	576.4
374.097	585.2
374.499	595.8
374.9	578.8
375.301	572.6
375.703	576
376.105	573
376.506	577.2
376.908	581.2
377.309	580.2
377.711	579.6
378.113	564.6
378.493	580.4
378.895	569.8
379.297	579.4
379.699	570.4
380.102	576.8
380.504	578
380.906	567.4
381.308	598.6
381.71	578
382.113	579.4
382.515	568.4
382.918	570.6
383.299	571.4
383.701	575.4
384.104	572.2
384.507	559.6
384.909	570.4
385.312	572.8
385.715	567.8
386.118	570.8
386.521	563.2
386.924	576.4
387.327	569.4
387.709	562.2
388.112	562.6
388.515	576.4
388.918	571.8
389.322	578.6
389.725	572.6
390.129	587.6
390.532	576
390.936	569.4
391.339	568.4
391.743	571.6
392.125	565.8
392.529	585
392.933	594
393.337	572
393.74	573.6
394.144	572
394.548	572.2
394.953	569
395.357	583.2
395.761	563.6
396.144	570.4
396.548	569
396.952	579.2
397.357	578.8
397.761	573.4
398.166	572.4
398.57	575.4
398.975	565.2
399.379	568
399.763	611.2
400.168	579.6
400.572	575.8
400.977	576.2
401.382	594.6
401.787	580.2
402.192	583.4
402.597	581
403.002	561.6
403.386	590
403.791	581.6
404.197	565.6
404.602	573
405.007	581.8
405.413	577.2
405.818	572.4
406.224	571.4
406.608	571.8
407.014	565.4
407.42	586
407.825	574.8
408.231	574.4
408.637	581
409.043	590.8
409.449	573
409.834	567
410.24	572.4
410.646	588.6
411.052	581
411.458	576
411.865	587.4
412.271	584
412.677	576.2
413.062	579.8
413.469	569.2
413.875	589
414.282	584.4
414.689	569.8
415.095	578.6
415.502	571.4
415.888	569.4
416.294	556.2
416.701	611
417.108	569
417.515	576.4
417.923	568.4
418.33	584
418.715	587.8
419.123	573.4
419.53	567
419.937	571.2
420.345	587.8
420.752	567.4
421.16	591.6
421.546	578.8
421.953	578.6
422.361	568.8
422.769	575.4
423.177	564.8
423.585	596.2
423.992	593.8
424.379	580
424.787	587.2
425.195	588.6
425.603	582.2
426.011	584
426.419	580.4
426.806	581
427.214	574.2
427.623	585.2
428.031	586.2
428.44	576.6
428.848	579.6
429.235	583.2
429.644	578
430.053	571.4
430.461	589.4
430.87	599
431.279	587.8
431.666	573.6
432.075	573.8
432.484	576.4
432.893	575
433.302	592.2
433.711	612.4
434.099	579.8
434.508	565.6
434.918	570.6
435.327	589.2
435.737	578
436.125	571.8
436.534	578.4
436.944	570.8
437.353	576.4
437.763	597
438.173	569.8
438.561	579.8
438.971	555.8
439.381	579.4
439.791	579
440.201	559
440.589	577.8
440.999	584.8
441.409	575.8
441.819	565
442.23	583.2
442.619	579.8
443.029	572.4
443.439	574.2
443.85	584
444.26	583.4
444.649	579.2
445.06	578.6
445.471	568.2
445.881	574.6
446.292	591.2
446.682	593.8
447.092	565.2
447.503	608
447.914	575.2
448.325	575
448.715	572.6
449.126	572.6
449.537	575.6
449.948	578.8
450.338	574.4
450.75	581.6
451.161	567.4
451.572	578.8
451.984	568.2
452.374	555.4
452.786	570.6
453.197	572.8
453.609	578
453.999	567.2
454.411	559.4
454.823	582
455.235	577.6
455.647	563.4
456.037	573
456.449	564.8
456.862	577
457.274	571.6
457.665	563.4
458.077	566.4
458.489	592.6
458.902	567.8
459.293	577.8
459.705	568.6
460.118	569.4
460.53	571.2
460.921	566.8
461.334	570.4
461.747	570.4
462.16	574.2
462.551	577.4
462.964	578.6
463.377	556.6
463.79	570.4
464.182	571.8
464.595	573.4
465.008	571.4
465.421	568.2
465.813	572.2
466.226	577.8
466.64	566.8
467.053	602.4
467.445	578.6
467.859	581.6
468.272	566.8
468.686	578.4
469.078	573.2
469.492	563
469.906	577.6
470.298	576
470.712	560.8
471.126	601.4
471.54	555
471.933	567.8
472.347	569
472.761	555.8
473.175	572.2
473.568	568.6
473.982	553.2
474.397	571.8
474.79	568.4
475.204	576.4
475.619	565.6
476.033	570.8
476.426	565.8
476.841	563.6
477.256	583.4
477.649	564.8
478.064	556.2
478.479	555.2
478.872	562.2
479.287	547.2
479.702	556.4
480.118	564.6
480.511	566.6
480.927	566.6
481.342	564.2
481.736	570.6
482.151	565.4
482.566	573.6
482.96	572.6
483.376	578
483.792	560.2
484.186	573.4
484.602	560.4
485.017	564.6
485.412	561
485.827	568
486.243	564.2
486.638	586.2
487.054	573.4
487.47	575
487.865	563.4
488.281	565.4
488.697	563.6
489.092	567
489.508	564
489.925	581.6
490.32	565.8
490.736	577.6
491.153	561.4
491.548	571.6
491.964	578.2
492.381	564.4
492.776	570.8
493.193	567.4
493.61	568.4
494.006	565.2
494.422	571.8
494.84	558.8
495.235	569.6
495.652	566
496.069	569.8
496.465	562.8
496.883	566.4
497.3	588.4
497.696	567.8
498.113	571.2
498.509	562.4
498.927	563
499.344	563.6
499.741	556.6
500.158	572.6
500.576	576.6
500.973	562.2
501.39	559.2
501.787	565
502.205	570.4
502.623	568.6
503.02	554.2
503.438	562.2
503.856	566
504.253	570.6
504.671	567.4
505.068	565.8
505.486	560
505.905	585.8
506.302	564
506.72	577.4
507.118	557.8
507.536	574.4
507.955	565.8
508.352	567.6
508.771	569.2
509.169	567
509.587	562.6
510.006	562.4
510.404	559.8
510.823	562.8
511.221	562
511.64	567.2
512.038	568
512.457	560.4
512.877	566.4
513.275	559.6
513.694	564.6
514.092	557.6
514.512	557.4
514.91	573.6
515.33	565.4
515.749	564.4
516.148	568.2
516.568	567.6
516.966	565.4
517.386	563
517.785	568.8
518.205	554.2
518.603	558
519.024	564.2
519.444	563.4
519.843	572.2
520.263	574.4
520.662	570
521.082	565.8
521.481	564.4
521.902	567.8
522.301	566.6
522.722	566
523.121	571.2
523.542	556.2
523.963	565.2
524.362	564
524.783	569.6
525.183	569
525.604	566
526.003	556.8
526.425	553.2
526.824	568.6
527.246	570.2
527.646	579.8
528.067	560.8
528.467	560
528.888	565.6
529.289	564.2
529.71	560.2
530.11	557.6
530.532	561.8
530.932	562.8
531.354	556.2
531.755	581.6
532.176	575.6
532.577	562.6
532.999	566
533.4	563.8
533.822	574
534.223	576.4
534.645	561.8
535.046	571.4
535.468	565.4
535.869	579.2
536.292	556
536.693	585.2
537.115	569.2
537.516	556
537.939	560.2
538.34	571.8
538.742	562.6
539.165	569.6
539.566	565
539.989	562.8
540.391	560
540.814	564
541.216	562
541.639	571.4
542.041	574.4
542.464	564.4
542.866	557.2
543.268	557.6
543.691	570.2
544.093	566.2
544.517	577.2
544.919	562.6
545.343	584.6
545.745	561.4
546.147	561.6
546.571	564.2
546.974	552.8
547.398	569.8
547.8	574.8
548.224	557.8
548.627	563
549.03	563.6
549.454	555.4
549.857	548.8
550.281	556.8
550.684	562
551.087	573
551.512	567.6
551.915	567.4
552.34	560.8
552.743	555.4
553.146	562
553.571	561.2
553.975	572
554.399	557.8
554.803	597.8
555.207	561.6
555.632	556.6
556.036	563.8
556.461	559.4
556.865	559.6
557.268	552
557.694	558.2
558.098	564.6
558.502	563.6
558.927	554
559.332	565.6
559.736	561
560.162	562
560.566	563.2
560.992	562
561.396	564.2
561.801	561.6
562.227	557.6
562.631	556.6
563.036	562
563.462	567
563.867	564
564.272	552.6
564.698	562.4
565.103	559.8
565.508	578.6
565.935	564
566.34	561
566.745	573.4
567.172	553.2
567.577	579.4
567.982	569.4
568.409	558.6
568.815	556
569.22	560
569.626	556.2
570.053	553.8
570.459	565.8
570.865	564
571.292	572.2
571.698	566.6
572.104	548.8
572.531	554
572.937	568
573.343	556.8
573.75	559
574.177	555
574.583	564
574.99	561.4
575.396	562.4
575.824	552.8
576.231	567.4
576.637	551.6
577.065	581.2
577.472	560.2
577.879	551.6
578.286	568.8
578.714	556.8
579.121	564
579.528	566.2
579.935	576.6
580.364	561.4
580.771	551.8
581.178	556.6
581.585	555.4
582.014	563.6
582.421	558.4
582.829	558.2
583.236	562.6
583.644	557.6
584.073	561.8
584.481	561.2
584.889	560.4
585.296	563.2
585.726	565
586.134	553.4
586.542	555.4
586.95	575.4
587.358	559
587.787	552.4
588.196	565.8
588.604	557
589.012	557
589.421	553.2
589.851	556.4
590.259	569.6
590.668	561
591.076	596.2
591.485	561.6
591.894	552.8
592.324	571.8
592.733	575.8
593.142	552.8
593.551	557.6
593.96	559.2
594.369	553.6
594.8	549
595.209	561.4
595.618	549.4
596.028	558.8
596.437	560.4
596.847	565.6
597.256	561.4
597.687	560.4
598.097	556.6
598.507	547.4
598.917	558.8
599.327	564
599.736	561.4
600.146	572.6
600.556	563
600.988	568.2
601.398	552.8
601.808	572.2
602.219	549
602.629	564.6
603.039	562.4
603.45	582.2
603.86	554.6
604.271	580.4
604.703	563.8
605.114	558.2
605.525	558.2
605.935	570
606.346	574.2
606.757	574.6
607.168	555.6
607.579	556.6
607.99	572.2
608.402	559.8
608.813	560.4
609.224	554.8
609.636	555
610.047	558.2
610.48	556.6
610.892	558.8
611.303	576.2
611.715	554.4
612.127	557.4
612.539	561.6
612.95	558.4
613.362	557.2
613.774	550.6
614.186	564.8
614.599	562.8
615.011	566.4
615.423	556.8
615.835	562.2
616.248	557.4
616.66	566
617.073	554.8
617.485	561.6
617.898	571.2
618.311	563.2
618.723	560.2
619.136	582.4
619.549	574
619.962	581
620.375	565
620.788	564.8
621.201	561
621.614	562.2
622.028	565
622.441	560
622.854	570.8
623.268	553.2
623.681	565.4
624.095	565.6
624.509	566
624.922	568.8
625.336	552.6
625.728	560.6
626.142	564.4
626.556	570.6
626.97	571
627.384	553.8
627.799	562.2
628.213	566.4
628.627	562
629.041	554.6
629.456	557.2
629.87	563.2
630.285	571.4
630.699	573.4
631.093	558.4
631.507	562.2
631.922	559.4
632.337	575.8
632.752	559.2
633.167	563.8
633.582	565.6
633.997	561.4
634.412	559.4
634.806	560
635.221	557.6
635.637	568.4
636.052	558.8
636.468	561.6
636.883	577.2
637.299	560.2
637.715	556
638.109	564.2
638.525	547.4
638.941	571
639.357	574.4
639.773	575
640.189	562.4
640.584	559.2
641	566.4
641.416	550.6
641.832	564.8
642.249	555.4
642.665	557.8
643.06	567.4
643.477	571.2
643.894	555.6
644.31	565
644.727	562.8
645.123	562.4
645.54	554.6
645.957	552.6
646.374	569
646.77	558.2
647.187	587.6
647.604	563.4
648.021	551.2
648.439	551.4
648.835	566
649.252	556.6
649.67	555.2
650.088	564.4
650.484	558.4
650.902	561.4
651.32	560.4
651.738	558.6
652.134	559.2
652.552	574.2
652.971	566.6
653.389	560.8
653.786	569.8
654.204	572.2
654.622	547.8
655.019	562.6
655.438	559.2
655.857	554.8
656.275	559.6
656.673	553
657.091	558.2
657.51	547.8
657.908	562.2
658.327	568.6
658.746	559
659.144	552.4
659.563	561.6
659.982	560.6
660.38	552.8
660.8	559.6
661.219	566.6
661.617	569.6
662.037	557.4
662.457	573.8
662.855	550.2
663.275	577.6
663.695	559.2
664.094	561.4
664.514	562.8
664.934	553.8
665.333	568.8
665.753	554.6
666.152	546.6
666.572	550.8
666.993	565.6
667.392	553
667.812	554.6
668.212	561
668.632	570.8
669.053	554
669.453	552.6
669.874	559.8
670.273	563.6
670.694	544
671.116	557
671.515	561.6
671.937	546.2
672.337	553
672.758	551.4
673.158	566.4
673.58	551
673.98	556.4
674.402	566.2
674.824	551
675.224	551.2
675.646	552
676.047	555.8
676.469	563.2
676.869	557
677.292	555
677.693	545.8
678.115	546.6
678.516	558.8
678.939	556.4
679.34	552.8
679.762	560.2
680.164	560
680.586	545
680.988	560.6
681.411	574.8
681.812	553
682.236	559
682.637	551
683.061	549.4
683.462	555.6
683.864	551.6
684.288	560.6
684.69	543.2
685.114	570.4
685.516	558.2
685.94	550.8
686.342	557.8
686.766	553.8
687.168	552.6
687.571	563.6
687.995	565.4
688.398	545.8
688.822	560.4
689.225	560.6
689.628	572.8
690.052	559.2
690.456	560.6
690.88	565.2
691.284	553.4
691.687	558.8
692.112	543.8
692.515	555
692.919	563.4
693.344	563.4
693.747	559.6
694.173	558.4
694.577	562.2
694.98	558.8
695.406	555.2
695.81	564.8
696.214	557.6
696.64	552.2
697.044	558.8
697.448	559.2
697.874	556.8
698.279	553.8
698.684	553
699.11	551.8
699.514	556
699.919	554
700.324	549.6
700.75	555
701.156	557.6
701.561	561.6
701.987	561
702.393	573.8
702.798	563
703.203	554
703.63	557.6
704.036	553.8
704.442	560.4
704.847	550.6
705.274	549
705.68	550.2
706.086	562
706.492	551
706.92	556.2
707.326	555.8
707.732	547.2
708.139	549
708.545	548.6
708.973	556.2
709.38	554
709.786	552.2
710.193	568
710.6	559.6
711.028	555
711.435	560.8
711.842	554.6
712.249	555.8
712.656	552.8
713.064	565.2
713.492	556
713.9	551.2
714.307	560.6
714.715	560
715.123	559
715.53	557.6
715.938	562.2
716.367	567.6
716.775	554.2
717.184	545.4
717.592	555.6
718	559.2
718.408	583
718.816	582.2
719.225	556
719.633	554.2
720.042	552.2
720.472	557.6
720.881	573
721.29	556.2
721.699	548.4
722.108	561.8
722.517	548.2
722.926	551.4
723.335	561.2
723.744	546.4
724.154	552.4
724.563	547.2
724.973	553.6
725.382	551
725.792	552.4
726.202	550
726.612	565.6
727.022	553.6
727.432	544.6
779.813	557.8
780.223	590
780.634	545.8
781.044	549.2
781.454	550.8
781.865	565.2
782.276	538.8
782.686	563.2
783.097	551.4
783.508	553
783.919	555.8
784.33	568.6
784.741	562.2
785.152	553
785.563	549.6
785.974	555
786.386	557.8
786.776	556
787.188	552.6
787.599	549.4
788.011	552.2
788.423	562.4
788.835	550.2
789.247	543.4
789.659	550
790.071	545
790.483	587.8
790.874	549.6
791.286	557
791.699	548.4
792.111	553.2
792.524	560.4
792.937	548.6
793.349	549.4
793.741	552.8
794.154	550.8
794.567	561
794.98	550.4
795.393	550.4
795.785	565.6
796.198	547
796.612	559.2
797.026	555
797.439	541.4
797.831	549.4
798.245	551
798.659	559.4
799.073	555.4
799.487	552.8
799.88	555.2
800.294	548.8
800.708	551.8
801.123	546.2
801.516	566
801.93	545
802.345	543
802.76	552.2
803.153	562.6
803.568	568.4
803.983	556.4
804.377	558.8
804.792	546.2
805.207	536.6
805.601	561.4
806.016	588.8
806.432	545.6
806.826	569.6
807.242	559.8
807.658	559.2
808.052	548.6
808.468	551.8
808.884	544.4
809.279	550.2
809.695	564
810.111	571.6
810.506	554.4
810.922	564.4
811.339	545.6
811.734	549.6
812.151	552
812.546	543.8
812.963	556.2
813.38	547.8
813.776	551.8
814.193	566.2
814.589	546
815.006	548.8
815.402	544.2
815.82	553.4
816.237	555.8
816.633	555
817.051	547.2
817.448	555.4
817.866	536.4
818.262	557.8
818.68	546.2
819.077	552
819.495	552
819.892	582.2
820.311	539.2
820.708	544.4
821.127	554.8
821.524	553.4
821.943	561.2
822.34	558.6
822.759	554.4
823.157	551
823.576	563.4
823.974	560.4
824.393	568.4
824.791	551.6
825.189	545.2
825.609	550.6
826.007	554.2
826.427	542.2
826.826	559.4
827.246	553.4
827.644	533.4
828.043	566.6
828.463	545.6
828.862	557.4
829.261	552.6
829.682	541.8
830.081	558.8
830.502	551.2
830.901	560.2
831.301	560.4
831.722	548.4
832.121	555.6
832.521	544
832.943	555.8
833.342	545.8
833.742	537.4
834.164	555.6
834.564	547
834.965	543.6
835.386	558
835.787	542.8
836.188	548.4
836.588	554.2
837.01	552.4
837.411	547.2
837.812	558
838.213	551.2
838.636	553.6
839.037	603
839.438	556.2
839.84	551.4
840.263	555.2
840.664	557.6
841.066	545.6
841.468	553.2
841.891	549.2
842.293	559.4
842.695	553.6
843.098	557.6
843.5	547.6
843.902	553.8
844.326	554.2
844.729	555
845.131	567.2
845.534	554
845.937	562.2
846.34	562
846.764	548
847.167	548.6
847.571	551.6
847.974	554
848.377	559
848.781	590.8
849.184	560.2
849.588	548
849.992	554
850.396	551.8
850.821	564.4
851.225	556.6
851.63	544.2
852.034	556.4
852.438	541.8
852.843	615.2
853.247	549.6
853.652	554
854.057	567.4
854.462	557.8
854.867	545.6
855.272	577.2
855.677	556.2
856.082	542.8
856.487	543.4
