#lambda/nm	C1
208.295	544.8
208.67	488.8
209.045	449.4
209.419	445.4
209.794	598
210.169	590.8
210.544	699.6
210.919	614.8
211.295	593.2
211.67	593.8
212.045	605
212.421	593.8
212.796	629.6
213.172	590.2
213.547	598.2
213.923	595
214.299	589
214.675	602
215.051	609.2
215.427	605.2
215.803	607.4
216.179	600.2
216.555	587.2
216.932	602
217.308	593.2
217.684	601.6
218.061	600.2
218.438	606.2
218.814	590
219.191	602.6
219.568	593.4
219.945	592.6
220.322	609.4
220.699	599
221.076	604.2
221.453	612.2
221.83	595.4
222.208	592.8
222.585	593.6
222.962	605.4
223.34	604.4
223.717	608.6
224.095	591.4
224.473	595.4
224.851	597.2
225.229	586.4
225.607	614.8
225.985	589
226.363	600.8
226.741	602.8
227.119	594.8
227.497	607
227.876	582
228.254	604.8
228.633	603.2
229.011	608.2
229.39	602.2
229.769	599.6
230.148	603.8
230.527	612
230.905	595.8
231.284	602.4
231.664	598.4
232.043	610
232.422	601.8
232.801	598
233.181	599.8
233.56	593
233.94	597
234.319	587.2
234.699	593.2
235.079	633.2
235.458	631.8
235.838	615.2
236.218	599.4
236.598	594.4
236.978	595.2
237.358	591.8
237.738	589.4
238.119	604.6
238.499	587
238.88	591.8
239.26	616.8
239.641	591.8
240.021	596.6
240.402	592
240.783	596.6
241.163	589.6
241.544	595.8
241.925	599.8
242.306	608.4
242.687	595.2
243.069	601.8
243.45	596.6
243.831	593.2
244.212	591.2
244.594	633.2
244.975	602.8
245.357	602.4
245.739	590
246.12	594.2
246.502	608.4
246.884	600.4
247.266	602.6
247.648	598.6
248.03	617.6
248.412	603
248.794	604.6
249.176	598
249.559	612.2
249.941	583.4
250.323	600.6
250.706	594.6
251.089	596.2
251.471	604.8
251.854	597.4
252.237	598.4
252.62	610.2
253.002	599.8
253.385	600.2
253.769	613.2
254.152	599.8
254.535	596.4
254.918	590.4
255.301	600.2
255.685	600
256.068	587.2
256.452	614.4
256.835	603.6
257.219	597.6
257.603	612.6
257.986	591.6
258.37	607
258.754	590
259.138	604.6
259.522	611
259.906	595.2
260.29	602.4
260.675	593.8
261.059	600.2
261.443	590.6
261.828	606
262.212	607
262.597	591.6
262.981	600.4
263.366	611
263.751	597.8
264.136	595.6
264.521	599
264.906	594.2
265.291	603
265.676	603
266.061	605.6
266.446	613.2
266.831	595.2
267.217	614
267.602	599.4
267.987	599.4
268.373	594.2
268.759	597.2
269.144	599
269.53	594.8
269.916	591.8
270.302	588.6
270.688	598.2
271.074	595
271.46	608
271.846	619.6
272.232	599.4
272.618	588
273.004	593.6
273.391	610.2
273.777	610
274.164	603.2
274.55	607.8
274.937	599.2
275.324	595.8
275.71	607.8
276.097	608.6
276.484	587.4
276.871	602.2
277.258	607.8
277.645	581
278.032	597.2
278.419	603.4
278.807	596
279.194	592.6
279.581	598.2
279.969	600.4
280.356	607.4
280.744	600.2
281.131	627
281.519	611.8
281.907	602
282.295	596.4
282.682	611.6
283.07	603.2
283.458	604.4
283.846	608.8
284.235	608
284.623	605.2
285.011	583
285.399	600.4
285.788	603.6
286.176	588.6
286.565	597
286.953	596.4
287.342	596.2
287.731	589.6
288.119	589
288.508	593.8
288.897	598.6
289.286	579.8
289.675	594.8
290.064	610.6
290.453	590.6
290.821	594.6
291.21	608.2
291.599	590.4
291.989	595.6
292.378	605.8
292.768	610.4
293.157	599
293.547	606.8
293.936	596.6
294.326	596.8
294.716	607.2
295.106	592.2
295.496	604.4
295.886	605.8
296.276	598.2
296.666	596.8
297.056	589.6
297.446	597.8
297.836	613.8
298.227	602.6
298.617	601.4
299.008	617.6
299.398	599.6
299.789	596.8
300.179	602
300.57	609.8
300.961	595.6
301.352	601.6
301.742	609
302.133	599.6
302.524	598.8
302.915	593.4
303.307	590.6
303.698	609.8
304.089	608.6
304.48	595.6
304.872	597.2
305.263	606.8
305.655	589.8
306.046	607.8
306.438	606.8
306.829	597
307.221	617.4
307.613	604.2
308.005	607.8
308.397	615
308.789	615.2
309.181	629.4
309.573	612.2
309.965	614
310.357	602
310.749	604.6
311.142	591.2
311.534	599
311.926	600.8
312.319	600.2
312.711	586.2
313.104	606.8
313.497	589.8
313.889	633.8
314.282	610.4
314.675	618
315.068	601.4
315.461	592.8
315.854	621.8
316.247	600.2
316.64	599.2
317.033	599
317.405	603.6
317.798	596.6
318.192	613
318.585	593.6
318.979	606.8
319.372	593.6
319.766	598.8
320.16	612.2
320.553	610.8
320.947	613
321.341	590.6
321.735	593
322.129	591.4
322.523	617
322.917	592.8
323.311	607.2
323.705	605.8
324.099	604.6
324.494	617.2
324.888	607.4
325.282	598.4
325.677	613.2
326.071	608.4
326.466	609.4
326.861	602.2
327.255	607
327.65	612
328.045	615.6
328.44	607
328.835	603.8
329.23	599.6
329.625	621.4
330.02	589.8
330.415	615.6
330.81	603.6
331.206	603.4
331.601	599.2
331.996	604.4
332.37	618
332.766	590.4
333.161	622.2
333.557	600
333.953	602.6
334.348	970.2
334.744	602.2
335.14	592.8
335.536	601.4
335.932	607.2
336.328	598.4
336.724	605.8
337.12	603
337.516	605.4
337.913	600.4
338.309	615.4
338.705	602.4
339.102	609.2
339.498	593.2
339.895	613.2
340.291	597.8
340.688	608
341.085	587.6
341.481	602.6
341.878	600.4
342.275	620
342.672	591.4
343.069	600.2
343.466	586.8
343.842	604.8
344.239	598.4
344.636	594.6
345.033	594.4
345.431	600
345.828	601.6
346.225	594
346.623	631.4
347.02	594.2
347.418	604.2
347.816	611.4
348.213	593
348.611	605.6
349.009	595.2
349.407	603.6
349.805	585.2
350.203	588.8
350.601	609.2
350.999	595.8
351.397	656
351.795	590.4
352.193	605.8
352.57	603
352.969	604.2
353.367	585.4
353.766	589.4
354.164	588.2
354.563	603
354.961	595.4
355.36	593.2
355.759	600.6
356.158	586.8
356.557	596
356.956	583.2
357.355	584.2
357.754	595.8
358.153	600
358.552	619.8
358.951	587.4
359.35	607.6
359.75	587.8
360.149	592.6
360.527	589
360.926	588.4
361.326	597.4
361.726	594
362.125	589
362.525	599.8
362.925	596
363.325	595.4
363.724	602
364.124	589.6
364.524	594.6
364.924	598
365.324	600.4
365.725	576.4
366.125	595
366.525	588.2
366.904	584
367.304	575.6
367.705	597.8
368.105	597.8
368.506	587.8
368.906	587.8
369.307	592.2
369.708	591.6
370.108	576.6
370.509	597.8
370.91	589.6
371.311	597.6
371.712	591.4
372.113	586.8
372.514	576.2
372.894	593.6
373.295	590.2
373.696	606
374.097	599.6
374.499	620.4
374.9	590.6
375.301	587.8
375.703	596
376.105	582.6
376.506	596.6
376.908	604.2
377.309	594.8
377.711	596.2
378.113	587.8
378.493	592
378.895	588.6
379.297	604.4
379.699	576.4
380.102	596.4
380.504	592.4
380.906	589.4
381.308	612.2
381.71	591.4
382.113	602.4
382.515	592.8
382.918	599
383.299	591.4
383.701	607.2
384.104	595.2
384.507	573.6
384.909	595.6
385.312	580.2
385.715	581
386.118	583.8
386.521	582.4
386.924	601.2
387.327	577.4
387.709	583.8
388.112	573.8
388.515	592.2
388.918	583.2
389.322	592.2
389.725	582.2
390.129	611.2
390.532	598.4
390.936	589.6
391.339	585.4
391.743	593.6
392.125	581.6
392.529	599.8
392.933	605.4
393.337	596
393.74	588
394.144	589.8
394.548	582
394.953	594.6
395.357	592.6
395.761	591.4
396.144	598
396.548	587.6
396.952	591.8
397.357	596.6
397.761	588
398.166	589
398.57	594
398.975	588.2
399.379	595.4
399.763	633.4
400.168	592.4
400.572	592.4
400.977	592.8
401.382	604.4
401.787	600
402.192	604.2
402.597	603.6
403.002	584
403.386	597.2
403.791	611
404.197	591.8
404.602	593.8
405.007	594
405.413	584.4
405.818	592.8
406.224	588.6
406.608	593.4
407.014	577.4
407.42	603.6
407.825	584.2
408.231	592
408.637	588.4
409.043	593.6
409.449	585.6
409.834	582.6
410.24	590.2
410.646	593
411.052	596.6
411.458	590.6
411.865	592.2
412.271	602.8
412.677	592.4
413.062	593.6
413.469	577.4
413.875	613
414.282	601.6
414.689	589.4
415.095	600.4
415.502	593.4
415.888	599
416.294	581.4
416.701	629.6
417.108	587.6
417.515	597.4
417.923	591.6
418.33	613
418.715	597.6
419.123	587
419.53	594.4
419.937	591.4
420.345	602
420.752	591.2
421.16	601.8
421.546	590
421.953	602
422.361	596.2
422.769	595.6
423.177	589.2
423.585	612
423.992	609.8
424.379	597
424.787	598.2
425.195	617.8
425.603	593.8
426.011	615.2
426.419	599.2
426.806	595.4
427.214	590.2
427.623	609.4
428.031	610.6
428.44	601.6
428.848	607.4
429.235	602.2
429.644	604.2
430.053	597.6
430.461	611.8
430.87	621.2
431.279	604
431.666	593.2
432.075	596.2
432.484	608.6
432.893	593.4
433.302	610
433.711	635
434.099	594.2
434.508	590.8
434.918	575.6
435.327	599.6
435.737	587.6
436.125	590.4
436.534	600.6
436.944	595
437.353	600
437.763	610.2
438.173	585.4
438.561	603.2
438.971	580
439.381	588
439.791	588.4
440.201	575.8
440.589	590.8
440.999	599.8
441.409	601.2
441.819	581
442.23	594
442.619	594.2
443.029	588
443.439	596.4
443.85	592.2
444.26	605.4
444.649	597.6
445.06	598
445.471	597.8
445.881	593.2
446.292	611.4
446.682	605.8
447.092	582.2
447.503	627
447.914	595.2
448.325	592.6
448.715	588
449.126	589.2
449.537	592
449.948	591.6
450.338	594
450.75	599.6
451.161	595.6
451.572	603.8
451.984	585.8
452.374	583.6
452.786	588.2
453.197	592.2
453.609	592.6
453.999	580.4
454.411	583.4
454.823	607.6
455.235	601.4
455.647	593.4
456.037	591.4
456.449	579.2
456.862	588
457.274	584.2
457.665	584.2
458.077	592.8
458.489	614.2
458.902	583.2
459.293	589.2
459.705	592.8
460.118	584.6
460.53	596
460.921	595.8
461.334	588.6
461.747	589.6
462.16	603.6
462.551	600.8
462.964	585
463.377	574.4
463.79	586
464.182	596.4
464.595	580.6
465.008	591.8
465.421	583
465.813	579
466.226	590.4
466.64	588
467.053	621.2
467.445	595.6
467.859	605.6
468.272	585.4
468.686	597.2
469.078	589.4
469.492	582.6
469.906	583.2
470.298	590.4
470.712	582.6
471.126	625.6
471.54	574.8
471.933	576.2
472.347	582.2
472.761	591.4
473.175	574.4
473.568	591.4
473.982	574.2
474.397	587.4
474.79	583.8
475.204	591.4
475.619	589.2
476.033	593
476.426	582.4
476.841	577.2
477.256	604
477.649	581.6
478.064	577.8
478.479	576.4
478.872	572.6
479.287	575.2
479.702	579.8
480.118	582.4
480.511	583.2
480.927	576.6
481.342	585.4
481.736	590
482.151	578
482.566	591
482.96	585.4
483.376	586.2
483.792	583.4
484.186	593.2
484.602	583.4
485.017	590.8
485.412	579.2
485.827	581.6
486.243	584.2
486.638	602
487.054	590.8
487.47	590.8
487.865	576.6
488.281	582.8
488.697	581
489.092	574.8
489.508	582
489.925	593.8
490.32	576.2
490.736	585.2
491.153	585.8
491.548	586.8
491.964	594
492.381	577.2
492.776	581.8
493.193	586.4
493.61	585
494.006	579.2
494.422	587.4
494.84	573
495.235	599.2
495.652	579.8
496.069	582.4
496.465	576.4
496.883	586
497.3	609.6
497.696	581.6
498.113	583.2
498.509	571.8
498.927	583.2
499.344	583
499.741	588
500.158	595.6
500.576	598.2
500.973	583.8
501.39	574
501.787	572.6
502.205	587
502.623	574.4
503.02	575.2
503.438	578.4
503.856	577.6
504.253	582.2
504.671	575.2
505.068	575.2
505.486	584.6
505.905	592.2
506.302	579
506.72	586.6
507.118	575.6
507.536	581.8
507.955	573.4
508.352	582.6
508.771	580.2
509.169	581.8
509.587	580
510.006	575.6
510.404	572.2
510.823	573
511.221	573.4
511.64	582
512.038	595.6
512.457	575.2
512.877	586
513.275	579.2
513.694	574.4
514.092	577.4
514.512	586.6
514.91	584.8
515.33	584.6
515.749	579.6
516.148	583.8
516.568	581.2
516.966	581.4
517.386	576.6
517.785	583.6
518.205	569
518.603	578.2
519.024	576.4
519.444	577.2
519.843	590.8
520.263	590.6
520.662	584.2
521.082	583.4
521.481	589.8
521.902	573.6
522.301	585.8
522.722	586.4
523.121	582.6
523.542	585.2
523.963	584.4
524.362	582.2
524.783	593.8
525.183	583
525.604	593.6
526.003	573
526.425	571.2
526.824	582.6
527.246	593.8
527.646	587
528.067	585.8
528.467	589.6
528.888	590.8
529.289	578.4
529.71	578.2
530.11	577
530.532	573.8
530.932	573.2
531.354	573.8
531.755	599.4
532.176	585.6
532.577	578.4
532.999	581.4
533.4	578.4
533.822	589.8
534.223	584.4
534.645	577
535.046	572
535.468	580.8
535.869	592.8
536.292	578.4
536.693	613.6
537.115	579.8
537.516	574.2
537.939	575.6
538.34	597.2
538.742	589.6
539.165	572.8
539.566	588
539.989	575.4
540.391	577.6
540.814	581.8
541.216	580.8
541.639	580.4
542.041	584.2
542.464	574.4
542.866	581.8
543.268	578.2
543.691	578.4
544.093	585.2
544.517	603.4
544.919	573.2
545.343	604.8
545.745	582.4
546.147	580.2
546.571	574.4
546.974	574.4
547.398	577.2
547.8	590
548.224	580.4
548.627	580.2
549.03	580.6
549.454	573
549.857	572.6
550.281	567.6
550.684	574.8
551.087	593.6
551.512	581.4
551.915	582.2
552.34	580.8
552.743	577.8
553.146	582.6
553.571	585.4
553.975	598.2
554.399	577.8
554.803	623.2
555.207	574.2
555.632	572.4
556.036	578
556.461	570.8
556.865	580.8
557.268	576.2
557.694	574.6
558.098	579.6
558.502	584.8
558.927	570.8
559.332	581
559.736	576.6
560.162	578.6
560.566	576.2
560.992	577.4
561.396	575.8
561.801	565.4
562.227	567.8
562.631	574.2
563.036	579
563.462	580.2
563.867	584
564.272	568.4
564.698	574
565.103	570
565.508	594.2
565.935	575.6
566.34	581.6
566.745	593.8
567.172	580
567.577	605.4
567.982	592
568.409	579.4
568.815	569.4
569.22	579
569.626	581.6
570.053	565.2
570.459	575.8
570.865	581.4
571.292	581.8
571.698	583
572.104	566.8
572.531	584.8
572.937	589.2
573.343	582
573.75	577.8
574.177	577.8
574.583	585.2
574.99	576.8
575.396	591.2
575.824	568.6
576.231	584.8
576.637	577
577.065	604.2
577.472	576.6
577.879	573.4
578.286	594
578.714	572.4
579.121	567.8
579.528	580.8
579.935	583.4
580.364	565.6
580.771	569
581.178	571.2
581.585	585
582.014	583.6
582.421	571.4
582.829	570.8
583.236	579.8
583.644	570.6
584.073	578
584.481	576.4
584.889	576.8
585.296	583.4
585.726	582.4
586.134	570.2
586.542	572.4
586.95	597.2
587.358	566.6
587.787	574.6
588.196	588.8
588.604	574
589.012	577.2
589.421	568.6
589.851	570.2
590.259	587.2
590.668	581.8
591.076	612.6
591.485	571.8
591.894	576.6
592.324	589.2
592.733	586.2
593.142	570
593.551	574.6
593.96	602
594.369	576
594.8	564.6
595.209	570.6
595.618	571.4
596.028	580.4
596.437	565.6
596.847	578.8
597.256	576
597.687	582.8
598.097	577.4
598.507	562.4
598.917	585.6
599.327	573.4
599.736	576.2
600.146	587
600.556	575.6
600.988	571.4
601.398	571.6
601.808	581.2
602.219	576.2
602.629	577.6
603.039	583.4
603.45	595.8
603.86	578.4
604.271	591.8
604.703	579.2
605.114	571.4
605.525	574
605.935	579.2
606.346	603
606.757	583.2
607.168	582.8
607.579	572.4
607.99	589.8
608.402	579.4
608.813	582
609.224	573
609.636	567.4
610.047	569.4
610.48	574.2
610.892	585.6
611.303	588.8
611.715	570.8
612.127	568
612.539	574.6
612.95	582.8
613.362	567.8
613.774	576.2
614.186	573.4
614.599	568.6
615.011	586
615.423	578
615.835	572.6
616.248	570.2
616.66	587.6
617.073	569.8
617.485	575.8
617.898	581.8
618.311	576.4
618.723	570.4
619.136	599.6
619.549	587.8
619.962	596.6
620.375	577.4
620.788	577.8
621.201	574.8
621.614	583.6
622.028	574.6
622.441	580.6
622.854	590.2
623.268	576
623.681	585.8
624.095	583.4
624.509	588.6
624.922	581.8
625.336	573
625.728	585.8
626.142	582
626.556	594.4
626.97	590.2
627.384	574.4
627.799	578.8
628.213	589.2
628.627	574.4
629.041	568.4
629.456	573
629.87	578.6
630.285	583.4
630.699	583.8
631.093	579.6
631.507	576.8
631.922	580.2
632.337	585
632.752	566.4
633.167	580.6
633.582	576
633.997	573
634.412	567
634.806	582.6
635.221	566
635.637	588
636.052	571
636.468	580.6
636.883	594.6
637.299	572.8
637.715	564
638.109	581.6
638.525	568.6
638.941	588.6
639.357	577.6
639.773	584.8
640.189	575.8
640.584	570.8
641	584
641.416	569.4
641.832	576
642.249	577
642.665	577.6
643.06	582.4
643.477	582.4
643.894	574.2
644.31	580
644.727	572.4
645.123	579.8
645.54	565.6
645.957	581.2
646.374	592
646.77	574.4
647.187	603.8
647.604	574.6
648.021	569
648.439	571.8
648.835	590.6
649.252	575
649.67	575.6
650.088	576.6
650.484	579.4
650.902	582
651.32	579.2
651.738	569.4
652.134	577
652.552	591
652.971	587
653.389	576.4
653.786	586
654.204	592.2
654.622	567.4
655.019	574.8
655.438	573.4
655.857	572.2
656.275	577.8
656.673	561.2
657.091	581.8
657.51	571
657.908	573.8
658.327	578
658.746	558.2
659.144	575
659.563	585
659.982	570.6
660.38	565
660.8	567
661.219	578
661.617	583.6
662.037	573
662.457	587.6
662.855	559.8
663.275	600.2
663.695	572.8
664.094	572.4
664.514	581.6
664.934	573.4
665.333	577.6
665.753	580.4
666.152	568.4
666.572	571
666.993	588
667.392	570
667.812	579.8
668.212	573.6
668.632	579
669.053	571.4
669.453	576.6
669.874	580
670.273	578.8
670.694	569.8
671.116	584
671.515	582.6
671.937	578.6
672.337	573
672.758	572.2
673.158	577.4
673.58	566.2
673.98	576.4
674.402	586.8
674.824	572
675.224	568.2
675.646	562.8
676.047	574
676.469	570.6
676.869	576
677.292	580.2
677.693	565.6
678.115	570.4
678.516	578.6
678.939	575
679.34	574.6
679.762	578.8
680.164	570.6
680.586	572.4
680.988	575
681.411	589.2
681.812	570.2
682.236	568.6
682.637	570.6
683.061	564
683.462	574.8
683.864	572.8
684.288	578.8
684.69	565.6
685.114	584.2
685.516	577
685.94	567.8
686.342	578.8
686.766	575.4
687.168	571
687.571	593
687.995	572.4
688.398	562
688.822	574.8
689.225	583.2
689.628	588.8
690.052	569.6
690.456	575
690.88	576.2
691.284	560.8
691.687	583.4
692.112	575.6
692.515	565.6
692.919	572
693.344	572.4
693.747	579.4
694.173	567.8
694.577	586.8
694.98	567.6
695.406	575.8
695.81	576.2
696.214	570.4
696.64	581.4
697.044	569.4
697.448	585.2
697.874	574
698.279	570.2
698.684	568.8
699.11	572.8
699.514	564.4
699.919	568.8
700.324	573.8
700.75	573
701.156	571.6
701.561	588.8
701.987	577.8
702.393	578.4
702.798	578.2
703.203	578.2
703.63	559.4
704.036	566.4
704.442	579
704.847	567.2
705.274	575.2
705.68	573.8
706.086	575
706.492	562.6
706.92	576.4
707.326	576.4
707.732	570.6
708.139	565.2
708.545	563
708.973	574.8
709.38	566.2
709.786	569.8
710.193	582.6
710.6	572.4
711.028	562.8
711.435	569.4
711.842	570.4
712.249	569
712.656	566.8
713.064	576.6
713.492	565
713.9	568.6
714.307	576.6
714.715	575.6
715.123	571.8
715.53	579.2
715.938	576.2
716.367	573
716.775	579.4
717.184	573.4
717.592	571.2
718	575.4
718.408	603.2
718.816	607
719.225	576.2
719.633	579.4
720.042	564.8
720.472	576.2
720.881	585.4
721.29	571
721.699	560.4
722.108	577.4
722.517	571.2
722.926	566.6
723.335	571.4
723.744	566.2
724.154	578.4
724.563	573.4
724.973	575.4
725.382	565.2
725.792	566.8
726.202	563.4
726.612	584.2
727.022	572.8
727.432	574.6
779.813	559.6
780.223	607
780.634	570.8
781.044	565.2
781.454	570
781.865	584.2
782.276	562.2
782.686	581.4
783.097	568.8
783.508	571
783.919	570
784.33	579.8
784.741	582.4
785.152	569.6
785.563	556.2
785.974	566.2
786.386	570.8
786.776	573
787.188	570.6
787.599	561.2
788.011	576.8
788.423	579.2
788.835	573.2
789.247	559.4
789.659	570.2
790.071	568
790.483	599.8
790.874	571.2
791.286	586.4
791.699	567.8
792.111	572.2
792.524	579.2
792.937	562.6
793.349	560.2
793.741	565.6
794.154	570
794.567	585.2
794.98	570.6
795.393	563.8
795.785	592
796.198	566.2
796.612	575.2
797.026	572.2
797.439	562.8
797.831	566.8
798.245	561.4
798.659	577.4
799.073	569.6
799.487	573.6
799.88	571.6
800.294	564.8
800.708	568.4
801.123	564.6
801.516	579
801.93	560.6
802.345	557.2
802.76	568.4
803.153	585.6
803.568	573.2
803.983	572.2
804.377	573.8
804.792	556.4
805.207	556.8
805.601	564
806.016	589.6
806.432	551.6
806.826	594.4
807.242	575
807.658	562.4
808.052	560
808.468	563
808.884	561.4
809.279	566.8
809.695	577.6
810.111	593.6
810.506	570.2
810.922	579.8
811.339	561.8
811.734	566
812.151	558
812.546	557
812.963	568.8
813.38	569.6
813.776	568.2
814.193	588.4
814.589	570.2
815.006	569.8
815.402	562
815.82	563.2
816.237	570.4
816.633	578.8
817.051	558
817.448	568.4
817.866	564.6
818.262	590.8
818.68	567.8
819.077	561.2
819.495	570.2
819.892	603
820.311	567.8
820.708	565.8
821.127	560.6
821.524	568
821.943	570.8
822.34	578.2
822.759	568.2
823.157	573.6
823.576	579.2
823.974	579
824.393	610
824.791	567.4
825.189	562.6
825.609	568.6
826.007	569
826.427	558.6
826.826	568.4
827.246	575.4
827.644	552.4
828.043	581.8
828.463	565.6
828.862	576
829.261	575.8
829.682	568.6
830.081	574
830.502	561.4
830.901	577.4
831.301	587.4
831.722	557.6
832.121	575
832.521	566
832.943	568.6
833.342	569.8
833.742	561.6
834.164	575
834.564	568.2
834.965	570.6
835.386	567.4
835.787	569.6
836.188	568.8
836.588	573
837.01	557.6
837.411	564.2
837.812	575.8
838.213	573
838.636	568.4
839.037	631
839.438	570
839.84	572.4
840.263	582.4
840.664	570.6
841.066	562.6
841.468	578.2
841.891	565.2
842.293	577.8
842.695	579.2
843.098	579.8
843.5	566.8
843.902	574.8
844.326	568.6
844.729	567.4
845.131	571.4
845.534	571.4
845.937	578.6
846.34	586
846.764	563.6
847.167	567
847.571	563.2
847.974	570
848.377	566.4
848.781	611.4
849.184	583.4
849.588	563.8
849.992	557.4
850.396	558
850.821	579.2
851.225	570.4
851.63	560
852.034	578.8
852.438	573.2
852.843	592.4
853.247	561.2
853.652	562
854.057	582.8
854.462	576
854.867	571
855.272	588.6
855.677	566.2
856.082	555.2
856.487	564.2
