#lambda/nm	C1
208.295	539.4
208.67	484.2
209.045	445.6
209.419	440.6
209.794	604
210.169	583.6
210.544	702.8
210.919	612.8
211.295	602.2
211.67	604.8
212.045	605
212.421	600.4
212.796	628.6
213.172	600.2
213.547	599.8
213.923	604
214.299	597.8
214.675	606.2
215.051	607.6
215.427	611.8
215.803	618.6
216.179	605
216.555	604.4
216.932	602.6
217.308	603
217.684	606.6
218.061	614.6
218.438	605.4
218.814	591.6
219.191	603.6
219.568	602.8
219.945	602.6
220.322	608.4
220.699	610.8
221.076	610.8
221.453	612.4
221.83	596.2
222.208	596.2
222.585	599
222.962	606.8
223.34	608.6
223.717	596.4
224.095	599.8
224.473	609.6
224.851	602
225.229	596.6
225.607	616
225.985	593.6
226.363	610.6
226.741	606.8
227.119	609.2
227.497	613.2
227.876	601.4
228.254	613.2
228.633	617
229.011	606.2
229.39	615.4
229.769	612.2
230.148	614.4
230.527	623.2
230.905	606.8
231.284	612
231.664	588.6
232.043	618.8
232.422	604.2
232.801	600
233.181	605.8
233.56	605
233.94	607.6
234.319	587.4
234.699	606.2
235.079	639.2
235.458	638.6
235.838	614.6
236.218	606.2
236.598	596.6
236.978	599.2
237.358	602.4
237.738	607.6
238.119	613
238.499	595.4
238.88	611.8
239.26	616.6
239.641	598.2
240.021	601.6
240.402	610.8
240.783	608.2
241.163	599.8
241.544	606.4
241.925	601.4
242.306	614.2
242.687	612.2
243.069	606.2
243.45	609.8
243.831	597.4
244.212	607.2
244.594	639.8
244.975	615.2
245.357	609
245.739	606
246.12	611.8
246.502	621.8
246.884	612.6
247.266	594.6
247.648	613
248.03	632
248.412	602.4
248.794	606.2
249.176	596
249.559	613
249.941	598.2
250.323	589
250.706	594.6
251.089	608.8
251.471	607.8
251.854	610
252.237	606.4
252.62	609
253.002	610
253.385	604
253.769	617.4
254.152	608.6
254.535	613.6
254.918	600.4
255.301	599.2
255.685	600.2
256.068	598.4
256.452	622.2
256.835	612.4
257.219	616
257.603	615.2
257.986	594
258.37	607.4
258.754	600.2
259.138	602.4
259.522	610.6
259.906	605.6
260.29	600.2
260.675	602.8
261.059	608.8
261.443	597.4
261.828	614.2
262.212	612
262.597	598.6
262.981	598.8
263.366	609
263.751	603.4
264.136	593.4
264.521	599.8
264.906	593.2
265.291	608.8
265.676	608.2
266.061	607
266.446	614.8
266.831	603.2
267.217	628.2
267.602	606.6
267.987	603.8
268.373	600.4
268.759	610.8
269.144	606.2
269.53	601
269.916	604.4
270.302	607
270.688	614.2
271.074	606.6
271.46	615.2
271.846	633.6
272.232	610.4
272.618	604.8
273.004	598.4
273.391	611.8
273.777	618
274.164	609.8
274.55	615.2
274.937	614.6
275.324	606.8
275.71	616.6
276.097	609
276.484	595.4
276.871	608
277.258	610.8
277.645	587.4
278.032	604.4
278.419	597
278.807	606.4
279.194	599.6
279.581	596.6
279.969	607.2
280.356	608.6
280.744	606.4
281.131	636.6
281.519	614.2
281.907	591.8
282.295	606.2
282.682	619.2
283.07	610.2
283.458	619.8
283.846	612.6
284.235	610.8
284.623	607.4
285.011	597
285.399	606.2
285.788	604.8
286.176	600
286.565	620.4
286.953	603.8
287.342	599.8
287.731	594.2
288.119	604.8
288.508	602.8
288.897	598.6
289.286	593.4
289.675	610.8
290.064	618
290.453	602
290.821	610.2
291.21	617.2
291.599	605
291.989	612.4
292.378	607.2
292.768	626.6
293.157	610.6
293.547	610
293.936	604.2
294.326	599.4
294.716	610.6
295.106	599.2
295.496	614.2
295.886	610
296.276	604.2
296.666	602.4
297.056	606.6
297.446	598
297.836	617
298.227	608
298.617	602.4
299.008	620.2
299.398	606
299.789	601.2
300.179	611.4
300.57	617.8
300.961	601.6
301.352	598.4
301.742	616.8
302.133	605.4
302.524	598.6
302.915	606.4
303.307	593.2
303.698	613.6
304.089	610.8
304.48	608.8
304.872	605
305.263	601.4
305.655	597
306.046	612
306.438	604.8
306.829	610
307.221	611.8
307.613	611.8
308.005	616
308.397	620.2
308.789	627.2
309.181	622.4
309.573	618.6
309.965	613.4
310.357	600.2
310.749	618.2
311.142	602.8
311.534	602.6
311.926	613.6
312.319	607.6
312.711	596.2
313.104	615.6
313.497	599.6
313.889	634.8
314.282	610
314.675	627.8
315.068	609.4
315.461	608.4
315.854	625
316.247	612.4
316.64	603.8
317.033	601.6
317.405	606.6
317.798	606.8
318.192	604.8
318.585	596.4
318.979	609.4
319.372	599.4
319.766	600.8
320.16	612
320.553	619.4
320.947	626
321.341	602.2
321.735	609.6
322.129	601.6
322.523	627.6
322.917	601
323.311	610.4
323.705	606
324.099	621.6
324.494	622
324.888	617.2
325.282	604.4
325.677	617.4
326.071	613
326.466	613.8
326.861	602.4
327.255	618.8
327.65	614
328.045	626.6
328.44	617
328.835	597.8
329.23	599.8
329.625	626.4
330.02	603
330.415	631.2
330.81	620.8
331.206	609.2
331.601	608
331.996	610.8
332.37	625.4
332.766	594
333.161	629.2
333.557	593.6
333.953	613.8
334.348	945
334.744	603.6
335.14	599.4
335.536	597.4
335.932	618.2
336.328	604.8
336.724	616
337.12	616
337.516	609
337.913	603.6
338.309	619
338.705	609.8
339.102	611
339.498	603.2
339.895	617.4
340.291	601.4
340.688	604.8
341.085	598.4
341.481	599.2
341.878	607.6
342.275	622.8
342.672	601.8
343.069	594.4
343.466	590.2
343.842	617.6
344.239	600
344.636	606.4
345.033	591.4
345.431	598.8
345.828	605.6
346.225	597
346.623	636.4
347.02	603
347.418	613.4
347.816	611
348.213	593.4
348.611	609.8
349.009	598.2
349.407	610.2
349.805	595.8
350.203	591
350.601	610.8
350.999	599.2
351.397	653.6
351.795	601.4
352.193	616
352.57	608.8
352.969	610.2
353.367	594.6
353.766	602.2
354.164	602.4
354.563	606.2
354.961	594.4
355.36	594.6
355.759	598.6
356.158	592
356.557	595.4
356.956	583.2
357.355	579.2
357.754	600.2
358.153	605.6
358.552	616.4
358.951	604.4
359.35	606.6
359.75	596.6
360.149	582.2
360.527	582.6
360.926	594.6
361.326	603.2
361.726	593.8
362.125	593.6
362.525	603.8
362.925	593.2
363.325	602.6
363.724	600.4
364.124	593.6
364.524	595.4
364.924	599.6
365.324	609.4
365.725	588.4
366.125	611
366.525	600.2
366.904	600
367.304	589.4
367.705	617.2
368.105	608.2
368.506	593
368.906	606.2
369.307	594.8
369.708	603.6
370.108	592.6
370.509	617.4
370.91	597.6
371.311	607.6
371.712	598
372.113	594.6
372.514	592
372.894	596.4
373.295	595.6
373.696	598.6
374.097	601.8
374.499	614.8
374.9	600
375.301	590.4
375.703	597.4
376.105	591
376.506	604.8
376.908	601
377.309	596
377.711	598
378.113	593.2
378.493	599.6
378.895	594.2
379.297	602.6
379.699	581
380.102	604.6
380.504	599.8
380.906	591.2
381.308	616.6
381.71	591.8
382.113	613.4
382.515	593
382.918	606.2
383.299	593.6
383.701	609.4
384.104	605.8
384.507	581.8
384.909	601.4
385.312	592.6
385.715	593.4
386.118	594.2
386.521	587.4
386.924	602.4
387.327	595.4
387.709	585.6
388.112	579.6
388.515	598.2
388.918	601.4
389.322	607
389.725	603
390.129	606
390.532	611.4
390.936	594.4
391.339	597.6
391.743	608.6
392.125	597.4
392.529	605.4
392.933	611.6
393.337	598.2
393.74	595.6
394.144	598.8
394.548	586.6
394.953	591
395.357	598.2
395.761	596.6
396.144	602.6
396.548	601.6
396.952	600.4
397.357	600.8
397.761	592.2
398.166	592.6
398.57	592.2
398.975	587.6
399.379	599
399.763	641
400.168	596.4
400.572	598
400.977	600.8
401.382	616.6
401.787	602.2
402.192	617.6
402.597	614
403.002	596.4
403.386	614
403.791	613.2
404.197	591.6
404.602	597
405.007	596
405.413	594.6
405.818	597.2
406.224	585.4
406.608	588.4
407.014	585.2
407.42	607
407.825	590.4
408.231	609.2
408.637	597.4
409.043	608
409.449	589.6
409.834	591.2
410.24	598.8
410.646	604
411.052	599.4
411.458	596
411.865	603.4
412.271	604.2
412.677	594.8
413.062	606.8
413.469	593.4
413.875	612.2
414.282	612
414.689	607.4
415.095	604.4
415.502	588.4
415.888	596.2
416.294	592.6
416.701	635.8
417.108	588.6
417.515	603.8
417.923	593
418.33	621.6
418.715	608.6
419.123	599.4
419.53	597.8
419.937	604
420.345	623.2
420.752	592.8
421.16	613
421.546	595.2
421.953	603.4
422.361	597.2
422.769	596.8
423.177	595.6
423.585	622.2
423.992	625.4
424.379	615.6
424.787	609.8
425.195	610.6
425.603	608.2
426.011	614.4
426.419	612.6
426.806	606.8
427.214	608
427.623	612.2
428.031	612.2
428.44	594.4
428.848	611.8
429.235	611.8
429.644	604.6
430.053	604.4
430.461	621.8
430.87	632
431.279	603
431.666	595
432.075	606.2
432.484	607.6
432.893	608.6
433.302	611.4
433.711	631.2
434.099	601.6
434.508	599.4
434.918	590.6
435.327	608.6
435.737	599.2
436.125	604.4
436.534	603.6
436.944	602.4
437.353	606.6
437.763	621.2
438.173	593
438.561	607.2
438.971	589
439.381	595
439.791	603.2
440.201	586.6
440.589	591.4
440.999	602.4
441.409	607
441.819	588
442.23	600
442.619	607.2
443.029	599.8
443.439	598.4
443.85	608.6
444.26	610.4
444.649	597
445.06	600.2
445.471	586
445.881	587.2
446.292	609.4
446.682	615.6
447.092	586.8
447.503	644.6
447.914	596
448.325	597.4
448.715	597
449.126	588.6
449.537	599.8
449.948	600
450.338	595.4
450.75	606.4
451.161	596.2
451.572	602.4
451.984	594.8
452.374	577.2
452.786	594.4
453.197	597.6
453.609	594.4
453.999	580.2
454.411	582.4
454.823	601.8
455.235	594.4
455.647	590.2
456.037	596.6
456.449	586.8
456.862	596.2
457.274	602.8
457.665	576.8
458.077	597.8
458.489	616.6
458.902	590.2
459.293	590
459.705	596.4
460.118	589.8
460.53	605.2
460.921	599
461.334	595.6
461.747	593.4
462.16	600.2
462.551	607.2
462.964	609.4
463.377	581
463.79	590.2
464.182	610.8
464.595	592
465.008	607.6
465.421	600.8
465.813	595.2
466.226	598.8
466.64	587.6
467.053	640.4
467.445	596.2
467.859	614.2
468.272	596.4
468.686	601.4
469.078	597.6
469.492	590
469.906	594.8
470.298	596.4
470.712	591
471.126	632
471.54	584
471.933	583.6
472.347	586.8
472.761	587.4
473.175	586.2
473.568	588
473.982	581.6
474.397	589.8
474.79	593
475.204	607.8
475.619	589.8
476.033	597
476.426	589
476.841	593
477.256	613.8
477.649	584.4
478.064	583
478.479	583
478.872	584.2
479.287	581.6
479.702	588.4
480.118	596.4
480.511	590.2
480.927	595.6
481.342	584.4
481.736	594
482.151	591.6
482.566	600.4
482.96	591
483.376	591.6
483.792	584.8
484.186	592.2
484.602	590.8
485.017	587.6
485.412	593.8
485.827	590.8
486.243	586.2
486.638	612.4
487.054	599
487.47	605
487.865	592.8
488.281	589
488.697	591.4
489.092	590.4
489.508	578.6
489.925	606.6
490.32	581.4
490.736	593.6
491.153	599.4
491.548	596
491.964	601.8
492.381	583.8
492.776	603.4
493.193	592.4
493.61	596.8
494.006	584.6
494.422	594.4
494.84	588.4
495.235	591.6
495.652	594.2
496.069	591.6
496.465	578.8
496.883	592
497.3	610.6
497.696	587
498.113	592.8
498.509	585.6
498.927	576
499.344	579.2
499.741	586.8
500.158	597.4
500.576	594.8
500.973	595
501.39	583.2
501.787	584.4
502.205	584.6
502.623	587.2
503.02	578.4
503.438	584.8
503.856	590.4
504.253	586.8
504.671	589.4
505.068	576
505.486	585.2
505.905	601.6
506.302	588.4
506.72	595.2
507.118	574
507.536	585.4
507.955	586.6
508.352	588.6
508.771	586
509.169	594.4
509.587	579.2
510.006	581
510.404	572.4
510.823	589.6
511.221	583.2
511.64	585.6
512.038	597.4
512.457	583
512.877	588
513.275	580
513.694	583.4
514.092	584.8
514.512	594.4
514.91	594.8
515.33	590.8
515.749	586.4
516.148	592.4
516.568	590.4
516.966	588.8
517.386	586.4
517.785	584.4
518.205	587.2
518.603	581.8
519.024	582.4
519.444	594.2
519.843	593.4
520.263	603.6
520.662	588.8
521.082	592
521.481	587.6
521.902	590.4
522.301	587.8
522.722	586
523.121	585.8
523.542	577
523.963	590.4
524.362	588.4
524.783	591.8
525.183	585.4
525.604	593
526.003	587.6
526.425	582.6
526.824	597.8
527.246	603.4
527.646	599
528.067	589.2
528.467	599.8
528.888	584.4
529.289	588.2
529.71	587.4
530.11	591.2
530.532	588.6
530.932	583.6
531.354	582.4
531.755	619.2
532.176	595.4
532.577	593.4
532.999	598.4
533.4	583.2
533.822	589.6
534.223	591
534.645	577
535.046	583.2
535.468	594
535.869	598.8
536.292	585.2
536.693	624
537.115	595.8
537.516	577.8
537.939	585
538.34	599.2
538.742	601
539.165	586.4
539.566	589.8
539.989	583.8
540.391	585
540.814	590.6
541.216	577.4
541.639	578.8
542.041	600.8
542.464	581.6
542.866	578.8
543.268	561.2
543.691	581.2
544.093	593.2
544.517	604.6
544.919	574.8
545.343	609
545.745	573.8
546.147	593.4
546.571	591.4
546.974	584.6
547.398	584.6
547.8	602.6
548.224	584.4
548.627	580
549.03	590.6
549.454	579.4
549.857	577.8
550.281	574.4
550.684	576.4
551.087	593.2
551.512	584
551.915	587.8
552.34	581.4
552.743	573.4
553.146	587.8
553.571	583.4
553.975	591
554.399	579.2
554.803	629.2
555.207	586.4
555.632	580
556.036	592
556.461	577.4
556.865	591.8
557.268	588.2
557.694	583.8
558.098	588
558.502	589.8
558.927	584.4
559.332	595.4
559.736	586.8
560.162	589.8
560.566	582.2
560.992	589.6
561.396	582.4
561.801	584
562.227	585.2
562.631	585.2
563.036	590.4
563.462	595
563.867	593.2
564.272	578
564.698	601.6
565.103	583.6
565.508	613.4
565.935	589.8
566.34	588.6
566.745	592.6
567.172	577.6
567.577	604.4
567.982	593.2
568.409	590.8
568.815	575.8
569.22	577.6
569.626	589
570.053	576.8
570.459	583.6
570.865	581.6
571.292	589.8
571.698	586.4
572.104	572
572.531	576
572.937	588.8
573.343	580.8
573.75	583.8
574.177	585
574.583	589.4
574.99	587
575.396	596.6
575.824	586.2
576.231	590.6
576.637	577
577.065	608
577.472	578.6
577.879	590
578.286	605.8
578.714	584.8
579.121	579.6
579.528	582
579.935	588
580.364	584.2
580.771	571
581.178	573.2
581.585	589.2
582.014	592.8
582.421	583.8
582.829	587.2
583.236	592.6
583.644	581.8
584.073	582.6
584.481	577.8
584.889	582.6
585.296	584.8
585.726	587.2
586.134	589.2
586.542	581
586.95	601.2
587.358	575.8
587.787	591.4
588.196	597.4
588.604	581
589.012	585.6
589.421	572
589.851	572
590.259	591.4
590.668	575.4
591.076	621.2
591.485	582.2
591.894	584.6
592.324	591.8
592.733	597
593.142	574.6
593.551	586.4
593.96	620.4
594.369	575.2
594.8	576.2
595.209	585
595.618	567.8
596.028	578
596.437	568.4
596.847	586.2
597.256	590
597.687	585.6
598.097	586
598.507	570.2
598.917	579.2
599.327	588.4
599.736	586.2
600.146	591.6
600.556	585.2
600.988	592.6
601.398	574
601.808	594.6
602.219	579
602.629	579.8
603.039	581.4
603.45	612.4
603.86	578.6
604.271	595.4
604.703	580
605.114	571.4
605.525	585.2
605.935	583
606.346	602.4
606.757	586.2
607.168	585
607.579	577.4
607.99	585.8
608.402	589.6
608.813	585
609.224	584.6
609.636	578.6
610.047	580
610.48	576
610.892	585
611.303	593.8
611.715	583.6
612.127	577.8
612.539	583.8
612.95	597.2
613.362	579
613.774	579.4
614.186	572.2
614.599	577.2
615.011	588.8
615.423	585.2
615.835	583.2
616.248	572.8
616.66	583.6
617.073	571
617.485	580.8
617.898	591.8
618.311	584.4
618.723	588
619.136	614.4
619.549	586.8
619.962	598.2
620.375	584.6
620.788	587.4
621.201	573.4
621.614	582
622.028	588.8
622.441	584.2
622.854	596.8
623.268	585
623.681	587.8
624.095	586.4
624.509	587.4
624.922	589
625.336	572
625.728	581.2
626.142	589.6
626.556	605
626.97	582.4
627.384	577
627.799	577.2
628.213	598.6
628.627	576.6
629.041	579.4
629.456	582.2
629.87	579.8
630.285	588.6
630.699	586.4
631.093	581
631.507	590.6
631.922	587.2
632.337	594.6
632.752	575.2
633.167	579.6
633.582	579.2
633.997	585.4
634.412	579.4
634.806	578
635.221	571.4
635.637	593.4
636.052	574.8
636.468	581.2
636.883	596.4
637.299	579.2
637.715	560.8
638.109	579.6
638.525	574
638.941	594
639.357	597.8
639.773	592.2
640.189	579.4
640.584	583.8
641	578.6
641.416	568.4
641.832	579.6
642.249	579
642.665	576
643.06	587.6
643.477	592.8
643.894	573
644.31	572.4
644.727	579
645.123	580
645.54	569.8
645.957	571.4
646.374	588.4
646.77	571.2
647.187	601.4
647.604	578.2
648.021	567.8
648.439	571.2
648.835	582
649.252	579.8
649.67	579.2
650.088	573.2
650.484	578.8
650.902	582.4
651.32	585.8
651.738	573.8
652.134	588.8
652.552	590.2
652.971	590.4
653.389	578.4
653.786	587
654.204	594.6
654.622	576
655.019	585.2
655.438	576.8
655.857	587
656.275	586.4
656.673	580.4
657.091	582.6
657.51	576
657.908	585.8
658.327	592.2
658.746	573.6
659.144	578.6
659.563	599.4
659.982	582.4
660.38	573.6
660.8	578
661.219	591.6
661.617	587.2
662.037	578.8
662.457	592.4
662.855	569.8
663.275	607.8
663.695	578.6
664.094	579.2
664.514	580.6
664.934	572.6
665.333	579
665.753	577.8
666.152	567.8
666.572	567.6
666.993	583.6
667.392	576.6
667.812	577.2
668.212	575.6
668.632	586.4
669.053	581.6
669.453	582.4
669.874	584.6
670.273	587.8
670.694	567.4
671.116	587.6
671.515	591.8
671.937	576
672.337	578.4
672.758	579.6
673.158	591.4
673.58	571.2
673.98	581
674.402	590.8
674.824	583.6
675.224	571.4
675.646	570.8
676.047	586.8
676.469	585
676.869	577.8
677.292	585.2
677.693	572.4
678.115	581.8
678.516	585
678.939	581.6
679.34	582.2
679.762	588.4
680.164	579.8
680.586	574.6
680.988	583.2
681.411	604
681.812	575.6
682.236	574.8
682.637	572.2
683.061	577.2
683.462	587.8
683.864	583.4
684.288	578
684.69	575
685.114	583.2
685.516	588.2
685.94	564.6
686.342	587
686.766	580.4
687.168	580.8
687.571	596.6
687.995	589.4
688.398	568.4
688.822	578.2
689.225	594.8
689.628	597
690.052	575.4
690.456	578.6
690.88	576.6
691.284	570
691.687	580.8
692.112	570
692.515	565.4
692.919	582
693.344	574
693.747	574.8
694.173	578.8
694.577	590
694.98	582.2
695.406	579.8
695.81	592.6
696.214	583.8
696.64	587.8
697.044	579
697.448	585.6
697.874	578
698.279	574.6
698.684	568.6
699.11	570.8
699.514	573.8
699.919	571.6
700.324	571.4
700.75	572.2
701.156	575
701.561	580.6
701.987	580.6
702.393	584.8
702.798	586.6
703.203	576.4
703.63	574
704.036	568.6
704.442	579.4
704.847	575.2
705.274	578
705.68	582
706.086	589.6
706.492	564
706.92	574.6
707.326	582
707.732	574.4
708.139	567.8
708.545	581.6
708.973	576.4
709.38	574.8
709.786	568
710.193	592
710.6	583.6
711.028	571.2
711.435	575.6
711.842	578.2
712.249	576.2
712.656	578
713.064	588
713.492	569
713.9	579
714.307	582.4
714.715	575
715.123	580.2
715.53	580.8
715.938	584.2
716.367	582.4
716.775	573.6
717.184	572
717.592	571.6
718	588
718.408	612
718.816	617.6
719.225	579.4
719.633	591.2
720.042	572
720.472	577
720.881	592.4
721.29	584.8
721.699	570.8
722.108	582.2
722.517	579
722.926	584.2
723.335	582
723.744	580.8
724.154	584.4
724.563	577.2
724.973	578
725.382	584.2
725.792	575.6
726.202	572.8
726.612	599
727.022	581.2
727.432	570.6
779.813	571.6
780.223	610.8
780.634	575
781.044	569.4
781.454	576.4
781.865	587.8
782.276	562.4
782.686	590.2
783.097	583
783.508	578.2
783.919	575.2
784.33	585.2
784.741	590.8
785.152	572.8
785.563	562.4
785.974	560
786.386	584.8
786.776	566.2
787.188	572.2
787.599	570
788.011	579.8
788.423	572.6
788.835	571.8
789.247	569
789.659	574.4
790.071	575
790.483	611
790.874	577
791.286	575.6
791.699	568
792.111	574.8
792.524	577.6
792.937	582.8
793.349	562.6
793.741	561.4
794.154	558.8
794.567	590.6
794.98	578.6
795.393	561.2
795.785	581.6
796.198	570.6
796.612	570.6
797.026	570.8
797.439	564.2
797.831	576.6
798.245	568
798.659	565.4
799.073	580
799.487	571.6
799.88	574.4
800.294	570.4
800.708	574.6
801.123	574.6
801.516	587.2
801.93	552
802.345	564
802.76	576.8
803.153	589.2
803.568	586.4
803.983	581.2
804.377	584.2
804.792	570
805.207	568.2
805.601	570
806.016	599.4
806.432	568
806.826	605.2
807.242	592.6
807.658	571.4
808.052	574.8
808.468	574.2
808.884	569
809.279	582.2
809.695	587.2
810.111	601.2
810.506	581.2
810.922	595.4
811.339	566
811.734	577.6
812.151	570.8
812.546	568.8
812.963	577.4
813.38	580.4
813.776	580.2
814.193	594.4
814.589	573
815.006	572.6
815.402	571.6
815.82	573.4
816.237	578
816.633	578.2
817.051	570
817.448	578.8
817.866	560.2
818.262	592.4
818.68	575.6
819.077	572
819.495	575.4
819.892	615.8
820.311	571.8
820.708	576.2
821.127	577.2
821.524	586
821.943	577
822.34	583
822.759	580.8
823.157	576.2
823.576	582.6
823.974	581.8
824.393	618.4
824.791	578.6
825.189	564
825.609	570
826.007	575.4
826.427	565.2
826.826	577.8
827.246	569.4
827.644	561.6
828.043	579.4
828.463	567.2
828.862	582
829.261	582.6
829.682	561.2
830.081	589
830.502	573.8
830.901	576.4
831.301	585.6
831.722	565.2
832.121	571.4
832.521	579.4
832.943	571.2
833.342	576.8
833.742	562.8
834.164	572.2
834.564	561.2
834.965	570.2
835.386	569
835.787	573.2
836.188	577.2
836.588	571.2
837.01	576.2
837.411	560.8
837.812	577.4
838.213	583
838.636	570.8
839.037	631.4
839.438	576.6
839.84	577
840.263	575.6
840.664	585.8
841.066	570.2
841.468	572.4
841.891	570.4
842.293	581
842.695	576
843.098	585.4
843.5	574.8
843.902	575.2
844.326	577.8
844.729	567.8
845.131	581.4
845.534	576
845.937	586
846.34	591.2
846.764	565.4
847.167	569.2
847.571	560.2
847.974	571.4
848.377	572.4
848.781	616.6
849.184	582.8
849.588	567
849.992	569
850.396	572.8
850.821	587.6
851.225	577.4
851.63	575.6
852.034	582.6
852.438	576.8
852.843	597
853.247	567.8
853.652	561.4
854.057	590.4
854.462	581
854.867	567.8
855.272	605.6
855.677	575.8
856.082	573.2
856.487	571.4
856.893	577.8
857.298	571.4
