#lambda/nm	C1
208.295	538.2
208.67	486.2
209.045	449
209.419	437
209.794	606.4
210.169	592.6
210.544	706.4
210.919	611.6
211.295	599.4
211.67	610.2
212.045	603
212.421	599
212.796	643
213.172	599
213.547	600.6
213.923	611.4
214.299	601
214.675	614.2
215.051	610.2
215.427	617.2
215.803	614.6
216.179	611.8
216.555	599.8
216.932	611
217.308	613.4
217.684	605
218.061	609.6
218.438	609.2
218.814	602.6
219.191	610.8
219.568	597.8
219.945	603.6
220.322	607
220.699	614.4
221.076	614.6
221.453	614
221.83	609.8
222.208	594
222.585	607.4
222.962	606.6
223.34	603.8
223.717	607.2
224.095	601
224.473	608.4
224.851	601.6
225.229	603
225.607	625.8
225.985	597
226.363	606.4
226.741	606
227.119	601.8
227.497	618
227.876	592.4
228.254	616.8
228.633	608
229.011	608.4
229.39	610.4
229.769	603.2
230.148	608.8
230.527	622.6
230.905	607.6
231.284	603.4
231.664	603.6
232.043	616
232.422	610.6
232.801	596
233.181	609.6
233.56	607.4
233.94	610.2
234.319	592.4
234.699	594.8
235.079	641.2
235.458	637.2
235.838	619.2
236.218	597
236.598	595.6
236.978	589.4
237.358	596.4
237.738	603.8
238.119	611.8
238.499	596
238.88	606.2
239.26	618.6
239.641	593.2
240.021	592.8
240.402	596
240.783	596.2
241.163	602.6
241.544	599
241.925	599.4
242.306	613.8
242.687	603.4
243.069	609.4
243.45	609
243.831	601.6
244.212	603.2
244.594	635.6
244.975	614.6
245.357	606.6
245.739	601.2
246.12	602.4
246.502	614.4
246.884	603.2
247.266	603.8
247.648	606.8
248.03	619.6
248.412	599.2
248.794	605.6
249.176	601.8
249.559	614.8
249.941	592.4
250.323	599.2
250.706	602.6
251.089	604.8
251.471	607.4
251.854	610.2
252.237	604.6
252.62	624.8
253.002	604
253.385	601.4
253.769	616.8
254.152	604
254.535	609.4
254.918	599.4
255.301	603.8
255.685	605.6
256.068	604.6
256.452	628
256.835	608
257.219	614
257.603	615.4
257.986	594.2
258.37	605.2
258.754	596.8
259.138	613.2
259.522	615.2
259.906	605.2
260.29	612.6
260.675	607
261.059	602.8
261.443	601.2
261.828	611.8
262.212	607.6
262.597	601.4
262.981	605.8
263.366	608
263.751	608.4
264.136	599
264.521	606.4
264.906	590.8
265.291	607.2
265.676	595.8
266.061	602.2
266.446	622.6
266.831	604.2
267.217	623.2
267.602	600
267.987	606.4
268.373	606.4
268.759	610
269.144	606.4
269.53	602.8
269.916	601.4
270.302	606.4
270.688	610.2
271.074	608.6
271.46	617
271.846	637.8
272.232	609.6
272.618	597
273.004	600.4
273.391	618.8
273.777	616.4
274.164	609.6
274.55	615.4
274.937	603.6
275.324	598.8
275.71	608.6
276.097	619.4
276.484	594.6
276.871	616.6
277.258	610.2
277.645	586.8
278.032	608.8
278.419	602
278.807	604.4
279.194	601.2
279.581	597.6
279.969	609.6
280.356	604.8
280.744	609
281.131	621.6
281.519	617.8
281.907	597.4
282.295	606.8
282.682	616.8
283.07	607.2
283.458	609
283.846	615.4
284.235	618
284.623	617.8
285.011	598.2
285.399	614.6
285.788	610.8
286.176	599.2
286.565	616.8
286.953	599.6
287.342	606.8
287.731	603.6
288.119	595.6
288.508	605.2
288.897	607.8
289.286	598.2
289.675	600.8
290.064	612
290.453	600
290.821	602
291.21	620
291.599	606.2
291.989	600.4
292.378	613.8
292.768	629.8
293.157	612.2
293.547	613.4
293.936	600.4
294.326	603
294.716	602.6
295.106	607
295.496	613.2
295.886	617
296.276	606.6
296.666	596.4
297.056	606.4
297.446	596.8
297.836	617.2
298.227	604
298.617	604.8
299.008	613.8
299.398	604.4
299.789	596.6
300.179	612.2
300.57	610
300.961	606.6
301.352	607.2
301.742	616.6
302.133	604.8
302.524	610.8
302.915	612.2
303.307	597.4
303.698	612.4
304.089	620
304.48	603.2
304.872	612.8
305.263	598.8
305.655	598.8
306.046	611.4
306.438	608.8
306.829	599.8
307.221	627.6
307.613	609
308.005	617.6
308.397	618.8
308.789	636.2
309.181	628
309.573	622.8
309.965	617.8
310.357	602.6
310.749	613
311.142	600.6
311.534	601.8
311.926	609.4
312.319	603.2
312.711	591.8
313.104	620.8
313.497	596.2
313.889	633
314.282	623.4
314.675	622.2
315.068	618.8
315.461	606
315.854	634.2
316.247	623.6
316.64	608.2
317.033	613.8
317.405	617
317.798	603.2
318.192	614.2
318.585	598.6
318.979	608.2
319.372	602.4
319.766	605.4
320.16	619.8
320.553	614.8
320.947	626.6
321.341	613
321.735	608.4
322.129	597
322.523	634.6
322.917	593.8
323.311	617.2
323.705	606.2
324.099	610.4
324.494	616.8
324.888	612.4
325.282	601.2
325.677	621.8
326.071	606.2
326.466	610.2
326.861	614
327.255	611.4
327.65	622
328.045	621
328.44	611.8
328.835	606.2
329.23	603
329.625	639
330.02	595.4
330.415	636.4
330.81	618.2
331.206	607.6
331.601	605
331.996	621.4
332.37	628.6
332.766	600.4
333.161	627.4
333.557	608
333.953	605.2
334.348	908.2
334.744	615
335.14	595.6
335.536	611.2
335.932	618
336.328	599
336.724	618.2
337.12	599.8
337.516	607.4
337.913	603.4
338.309	610.6
338.705	605
339.102	608.4
339.498	602.4
339.895	619
340.291	593.8
340.688	611.6
341.085	600.4
341.481	606.2
341.878	609.4
342.275	627.4
342.672	597.8
343.069	598.8
343.466	591.6
343.842	613.4
344.239	599.2
344.636	607
345.033	598.2
345.431	601.6
345.828	604
346.225	593
346.623	639
347.02	603.4
347.418	617.4
347.816	608.6
348.213	596.6
348.611	613.6
349.009	594.8
349.407	611.4
349.805	596
350.203	599
350.601	611
350.999	606.2
351.397	653.8
351.795	598.4
352.193	608
352.57	607.8
352.969	616
353.367	597.6
353.766	604.2
354.164	604.4
354.563	612.6
354.961	608.4
355.36	601.4
355.759	597
356.158	595.6
356.557	599.8
356.956	595.8
357.355	594.4
357.754	602.4
358.153	609.8
358.552	621.6
358.951	601.2
359.35	618.6
359.75	589.8
360.149	596.4
360.527	592.6
360.926	595.6
361.326	605.6
361.726	598.8
362.125	594.6
362.525	606.4
362.925	595.2
363.325	597
363.724	594.2
364.124	598.2
364.524	597
364.924	599.6
365.324	609.2
365.725	584.2
366.125	604.8
366.525	604
366.904	593.4
367.304	581.6
367.705	615.8
368.105	608.6
368.506	596
368.906	607.6
369.307	596.4
369.708	599.2
370.108	589.8
370.509	607
370.91	591.8
371.311	594.2
371.712	602.2
372.113	595.8
372.514	586.8
372.894	599.4
373.295	591.8
373.696	612.4
374.097	602.6
374.499	621.4
374.9	604.8
375.301	596.4
375.703	601.4
376.105	591.6
376.506	603.2
376.908	606
377.309	601.6
377.711	599.2
378.113	598
378.493	595.8
378.895	594.2
379.297	602
379.699	588
380.102	595.8
380.504	597.2
380.906	591
381.308	613.8
381.71	607
382.113	607.4
382.515	600.2
382.918	596.6
383.299	596.8
383.701	600.8
384.104	598.6
384.507	579.6
384.909	600.4
385.312	592.6
385.715	586.6
386.118	595.6
386.521	590.6
386.924	607.6
387.327	593.8
387.709	584.6
388.112	583.6
388.515	598.4
388.918	597.6
389.322	605.8
389.725	591.8
390.129	616.8
390.532	603.6
390.936	597.6
391.339	592
391.743	600.6
392.125	589.2
392.529	608.4
392.933	602.8
393.337	595
393.74	593.6
394.144	595.8
394.548	597.2
394.953	595
395.357	600.6
395.761	593.4
396.144	600.2
396.548	597.4
396.952	595.6
397.357	594.6
397.761	592.4
398.166	599.2
398.57	603.2
398.975	581.6
399.379	607.6
399.763	644.8
400.168	602.2
400.572	593.2
400.977	599.4
401.382	612.2
401.787	610.4
402.192	615.8
402.597	605.6
403.002	586.4
403.386	607.4
403.791	608.8
404.197	598.8
404.602	600.6
405.007	595
405.413	591.6
405.818	602.2
406.224	597.4
406.608	594
407.014	587.8
407.42	606.6
407.825	592.8
408.231	602.6
408.637	601.4
409.043	612.8
409.449	588.4
409.834	596.8
410.24	590.4
410.646	609.2
411.052	602.6
411.458	602.8
411.865	604.2
412.271	610
412.677	600.2
413.062	606.2
413.469	586.4
413.875	619.8
414.282	615.6
414.689	595.6
415.095	604.4
415.502	597.2
415.888	598.2
416.294	586.2
416.701	632.8
417.108	594.8
417.515	604
417.923	606.8
418.33	621.4
418.715	605.8
419.123	597
419.53	599.2
419.937	597.4
420.345	608
420.752	590.4
421.16	619.2
421.546	603.8
421.953	604.8
422.361	593.4
422.769	596
423.177	589
423.585	622
423.992	611.8
424.379	607.8
424.787	610.2
425.195	617
425.603	596.6
426.011	616.8
426.419	608.2
426.806	602.6
427.214	602.6
427.623	610
428.031	622
428.44	605.4
428.848	606.8
429.235	618.8
429.644	603
430.053	603
430.461	611.8
430.87	623.2
431.279	604.2
431.666	597.4
432.075	607.4
432.484	606.8
432.893	598
433.302	610.6
433.711	633.8
434.099	605.4
434.508	597.4
434.918	591.6
435.327	597.8
435.737	607
436.125	599.4
436.534	599.8
436.944	601.4
437.353	604.2
437.763	618.4
438.173	595.6
438.561	611.8
438.971	582
439.381	593.2
439.791	606.8
440.201	572.6
440.589	602.4
440.999	604.6
441.409	596.8
441.819	577.4
442.23	609.6
442.619	608.6
443.029	598.2
443.439	603.4
443.85	609.6
444.26	609.2
444.649	606.6
445.06	602.2
445.471	591.8
445.881	605.6
446.292	608.4
446.682	615
447.092	591.2
447.503	636.6
447.914	604.8
448.325	604.6
448.715	598.6
449.126	588.2
449.537	593.8
449.948	597.8
450.338	599.8
450.75	607.4
451.161	595.2
451.572	600.2
451.984	589.6
452.374	590.4
452.786	593.4
453.197	597.2
453.609	600.8
453.999	590
454.411	595
454.823	609.8
455.235	598.2
455.647	591.6
456.037	601.2
456.449	587.4
456.862	602.2
457.274	593.2
457.665	588.6
458.077	599.2
458.489	619
458.902	595
459.293	598.4
459.705	595
460.118	586.2
460.53	599.2
460.921	594.6
461.334	598
461.747	594.4
462.16	603
462.551	615.6
462.964	601.4
463.377	583.8
463.79	591.8
464.182	606.6
464.595	592
465.008	587.8
465.421	602.4
465.813	595
466.226	596
466.64	581.6
467.053	636
467.445	593.8
467.859	605
468.272	601.4
468.686	613.4
469.078	594.2
469.492	585.4
469.906	590.2
470.298	604.2
470.712	584.4
471.126	642.2
471.54	578
471.933	591.2
472.347	590
472.761	588.8
473.175	587.6
473.568	587.8
473.982	578.8
474.397	597.4
474.79	596.6
475.204	596.2
475.619	591.2
476.033	589.4
476.426	592.8
476.841	583.8
477.256	617.4
477.649	584.6
478.064	579.6
478.479	585.6
478.872	587.2
479.287	582.2
479.702	579.8
480.118	596.2
480.511	590.4
480.927	600.4
481.342	587
481.736	601.8
482.151	585.8
482.566	600.2
482.96	596.8
483.376	594.4
483.792	593.4
484.186	592.2
484.602	581
485.017	585.2
485.412	592.6
485.827	591.8
486.243	593
486.638	610.6
487.054	602.4
487.47	605.4
487.865	588.8
488.281	584.2
488.697	587.8
489.092	592
489.508	579.2
489.925	600
490.32	590
490.736	597.6
491.153	589.8
491.548	593.8
491.964	598.4
492.381	584
492.776	598.4
493.193	586.6
493.61	595.4
494.006	597
494.422	595.4
494.84	582
495.235	607.2
495.652	585.2
496.069	591.6
496.465	588.4
496.883	586.2
497.3	614.4
497.696	589
498.113	599.2
498.509	586.6
498.927	574
499.344	585.2
499.741	583.8
500.158	598.4
500.576	595
500.973	594
501.39	578.2
501.787	576.6
502.205	585.4
502.623	591.8
503.02	580.2
503.438	585.4
503.856	588.6
504.253	588.8
504.671	587.2
505.068	580.8
505.486	591.2
505.905	606
506.302	589
506.72	605.2
507.118	580.8
507.536	591
507.955	580.2
508.352	593
508.771	602.6
509.169	604.6
509.587	586
510.006	588.8
510.404	579.2
510.823	582.4
511.221	581.6
511.64	589.6
512.038	606.8
512.457	580.6
512.877	589.4
513.275	582.4
513.694	592.2
514.092	579.8
514.512	592.4
514.91	593.6
515.33	584.8
515.749	591
516.148	585.8
516.568	587.8
516.966	579.6
517.386	583
517.785	580
518.205	581
518.603	579.8
519.024	582.4
519.444	580.4
519.843	594
520.263	594.6
520.662	590.4
521.082	583.6
521.481	582.8
521.902	580.4
522.301	593
522.722	589
523.121	591.6
523.542	581
523.963	588.6
524.362	590.6
524.783	589.2
525.183	588
525.604	594.2
526.003	584.6
526.425	583.6
526.824	594.6
527.246	594.2
527.646	592.2
528.067	588
528.467	582.4
528.888	594
529.289	588.6
529.71	585.4
530.11	587.8
530.532	586.2
530.932	579.4
531.354	568
531.755	614.4
532.176	591
532.577	586.6
532.999	589.6
533.4	581.4
533.822	593
534.223	596.6
534.645	588.4
535.046	587.2
535.468	589.6
535.869	593.2
536.292	578.2
536.693	620.2
537.115	587.2
537.516	581.2
537.939	586
538.34	603.4
538.742	595.6
539.165	589.4
539.566	584.6
539.989	577
540.391	580
540.814	587
541.216	592.6
541.639	589.8
542.041	602.8
542.464	589
542.866	581
543.268	584.2
543.691	589.4
544.093	603.6
544.517	609.6
544.919	589.6
545.343	602.4
545.745	579.6
546.147	592
546.571	584.2
546.974	582.6
547.398	583.2
547.8	596.6
548.224	583.4
548.627	585.2
549.03	592
549.454	578
549.857	581.6
550.281	583
550.684	583
551.087	597.2
551.512	595.2
551.915	586.4
552.34	585.2
552.743	579.4
553.146	597
553.571	585
553.975	603.2
554.399	579.4
554.803	625
555.207	587.8
555.632	580.6
556.036	588.8
556.461	578.8
556.865	580
557.268	586.6
557.694	572.2
558.098	597.6
558.502	590.4
558.927	586.2
559.332	588.6
559.736	586.2
560.162	595.4
560.566	586
560.992	600.2
561.396	585.8
561.801	590.4
562.227	588.2
562.631	590
563.036	577.2
563.462	594.4
563.867	587.2
564.272	575.4
564.698	594.6
565.103	571.4
565.508	600
565.935	585.8
566.34	591.2
566.745	605.6
567.172	590
567.577	595
567.982	596.6
568.409	591.2
568.815	571.8
569.22	590.8
569.626	590
570.053	571.6
570.459	586.6
570.865	592.4
571.292	589.4
571.698	590.8
572.104	577.8
572.531	582.2
572.937	595.6
573.343	584
573.75	584.2
574.177	582.2
574.583	587.2
574.99	586.6
575.396	584.6
575.824	583.4
576.231	589.8
576.637	588.8
577.065	599.4
577.472	581.2
577.879	579.8
578.286	602
578.714	574.4
579.121	582.4
579.528	591.6
579.935	593.8
580.364	585.6
580.771	576.8
581.178	577.2
581.585	590
582.014	589.6
582.421	581
582.829	586
583.236	591
583.644	582.6
584.073	587
584.481	583.6
584.889	578
585.296	590.4
585.726	585.4
586.134	574.4
586.542	584
586.95	597
587.358	581
587.787	580.2
588.196	582.4
588.604	577.2
589.012	578.8
589.421	581.4
589.851	573
590.259	574
590.668	572.2
591.076	613.2
591.485	573.4
591.894	578.8
592.324	595
592.733	603.6
593.142	576
593.551	580
593.96	611.6
594.369	574.8
594.8	570.4
595.209	582.8
595.618	571.4
596.028	569
596.437	575.6
596.847	586.6
597.256	585
597.687	583
598.097	585.6
598.507	568.6
598.917	589
599.327	589.2
599.736	582.4
600.146	600
600.556	590.2
600.988	590.8
601.398	578.8
601.808	596.2
602.219	574.2
602.629	582
603.039	583.2
603.45	615.2
603.86	588.2
604.271	595.4
604.703	583.8
605.114	587.6
605.525	587.2
605.935	586.2
606.346	610
606.757	589.4
607.168	585.2
607.579	589.4
607.99	601
608.402	584.6
608.813	588.6
609.224	579.4
609.636	575.4
610.047	585.2
610.48	596.6
610.892	586.2
611.303	589
611.715	586.2
612.127	577.6
612.539	576.4
612.95	586.2
613.362	569.8
613.774	574.4
614.186	593.2
614.599	578.8
615.011	591.4
615.423	583.4
615.835	577.4
616.248	568
616.66	584.2
617.073	576.6
617.485	581.2
617.898	584.6
618.311	585.8
618.723	579
619.136	609.8
619.549	596
619.962	600.4
620.375	583.4
620.788	588.4
621.201	578
621.614	588.2
622.028	583.2
622.441	586
622.854	595.8
623.268	577.8
623.681	585.8
624.095	589.4
624.509	595
624.922	583.6
625.336	573
625.728	581.2
626.142	590.2
626.556	595.4
626.97	590.4
627.384	575.4
627.799	577.4
628.213	589.4
628.627	575.2
629.041	578.8
629.456	579.2
629.87	588
630.285	589.2
630.699	591
631.093	580.4
631.507	585.2
631.922	586
632.337	595.4
632.752	579
633.167	587.4
633.582	578.2
633.997	582.4
634.412	581
634.806	586.6
635.221	572.6
635.637	591
636.052	572.6
636.468	586.2
636.883	603.4
637.299	575.2
637.715	568.6
638.109	586.8
638.525	576.2
638.941	600.4
639.357	582.2
639.773	593
640.189	578.4
640.584	575.8
641	584.4
641.416	572.4
641.832	588
642.249	578
642.665	587.8
643.06	589.2
643.477	578
643.894	572.2
644.31	580.8
644.727	579.8
645.123	585.6
645.54	570.4
645.957	585
646.374	592.2
646.77	589.8
647.187	611.2
647.604	587.4
648.021	568
648.439	573.8
648.835	590.6
649.252	585.8
649.67	591.4
650.088	580.2
650.484	583.8
650.902	596.6
651.32	586.2
651.738	582.8
652.134	583
652.552	596.6
652.971	584.4
653.389	579.4
653.786	593.4
654.204	603
654.622	584.8
655.019	578.6
655.438	592
655.857	579
656.275	587.2
656.673	571
657.091	591.8
657.51	591.2
657.908	589.8
658.327	587.8
658.746	571.2
659.144	592.6
659.563	590.4
659.982	589
660.38	569.2
660.8	586.6
661.219	591.4
661.617	584
662.037	576.8
662.457	592
662.855	573
663.275	610.8
663.695	585.2
664.094	585
664.514	575.2
664.934	577
665.333	590.6
665.753	579.8
666.152	579.2
666.572	573.8
666.993	590.6
667.392	577.6
667.812	577.8
668.212	574.4
668.632	589.2
669.053	575.4
669.453	580.8
669.874	582.6
670.273	582.6
670.694	573
671.116	587.4
671.515	587.8
671.937	571.6
672.337	575.2
672.758	583.4
673.158	583.4
673.58	568
673.98	575.4
674.402	582.2
674.824	572.4
675.224	576.6
675.646	573.6
676.047	573.4
676.469	580
676.869	587.8
677.292	577.8
677.693	580
678.115	584
678.516	592
678.939	582
679.34	580.8
679.762	590
680.164	585.6
680.586	581.4
680.988	578.2
681.411	597
681.812	584.8
682.236	572
682.637	572.6
683.061	573
683.462	582.4
683.864	584.4
684.288	589.4
684.69	564.6
685.114	583.6
685.516	579.8
685.94	571
686.342	590.2
686.766	574.6
687.168	575
687.571	601.6
687.995	583.6
688.398	571
688.822	578.6
689.225	594
689.628	590.8
690.052	582.8
690.456	587.8
690.88	579.4
691.284	571.2
691.687	587.4
692.112	573.4
692.515	576.2
692.919	585.4
693.344	580.6
693.747	577.8
694.173	578.6
694.577	586.8
694.98	575.4
695.406	581.2
695.81	577.8
696.214	579
696.64	587.8
697.044	573.6
697.448	587.8
697.874	581.8
698.279	579.2
698.684	577.2
699.11	574
699.514	582.4
699.919	579.8
700.324	568
700.75	572.6
701.156	577
701.561	594.2
701.987	582.8
702.393	591.4
702.798	590.6
703.203	581.2
703.63	572.2
704.036	584.2
704.442	583.2
704.847	572.4
705.274	572.2
705.68	585.2
706.086	585.2
706.492	575.4
706.92	580.4
707.326	588.8
707.732	573.4
708.139	571.2
708.545	569.6
708.973	569.8
709.38	575.2
709.786	574.4
710.193	590
710.6	583
711.028	568.4
711.435	578.2
711.842	575.8
712.249	572.2
712.656	567.2
713.064	584.4
713.492	573.2
713.9	577
714.307	580
714.715	576
715.123	578.8
715.53	581.6
715.938	591.2
716.367	578.8
716.775	584.4
717.184	570.6
717.592	580.4
718	592.8
718.408	609.8
718.816	619.4
719.225	582.6
719.633	575.2
720.042	576.8
720.472	580
720.881	600.2
721.29	586.4
721.699	575.2
722.108	578
722.517	582.4
722.926	573
723.335	581.4
723.744	569.4
724.154	571.4
724.563	577.6
724.973	573.6
725.382	570.6
725.792	579.2
726.202	568.6
726.612	593
727.022	580.8
727.432	567.8
779.813	572
780.223	615.4
780.634	564.4
781.044	571.6
781.454	568.2
781.865	583.6
782.276	566.4
782.686	582.2
783.097	573.4
783.508	574
783.919	578.2
784.33	591.4
784.741	588.2
785.152	565.4
785.563	577
785.974	573
786.386	580.2
786.776	572.4
787.188	576
787.599	569.4
788.011	591.6
788.423	578.6
788.835	575.4
789.247	570.2
789.659	579.2
790.071	576
790.483	612
790.874	570.6
791.286	580.6
791.699	571.6
792.111	580.2
792.524	580
792.937	578.6
793.349	566.4
793.741	573.4
794.154	572
794.567	591.2
794.98	575.6
795.393	564.2
795.785	591.4
796.198	572.2
796.612	577.6
797.026	578.4
797.439	565.6
797.831	582
798.245	564
798.659	568.2
799.073	577.2
799.487	572.6
799.88	580.2
800.294	571.2
800.708	578.2
801.123	582.6
801.516	592.6
801.93	564.8
802.345	564
802.76	573.4
803.153	597.2
803.568	602.6
803.983	581.8
804.377	579.2
804.792	566.8
805.207	560.8
805.601	577.8
806.016	604.2
806.432	569.2
806.826	601.2
807.242	589
807.658	587.8
808.052	571.8
808.468	581.6
808.884	570.6
809.279	571.6
809.695	578.4
810.111	593.8
810.506	582.2
810.922	596
811.339	574.4
811.734	586.6
812.151	571
812.546	576.4
812.963	568.6
813.38	584.8
813.776	579.8
814.193	595.4
814.589	569.8
815.006	567.4
815.402	566.8
815.82	571.8
816.237	574
816.633	574.2
817.051	565.2
817.448	580
817.866	564.4
818.262	600.4
818.68	574.4
819.077	566
819.495	573.2
819.892	610.6
820.311	574.2
820.708	573.6
821.127	577.6
821.524	584
821.943	576.8
822.34	583.4
822.759	573.6
823.157	582.4
823.576	592.2
823.974	577.2
824.393	622
824.791	570.2
825.189	565.4
825.609	578.6
826.007	579
826.427	566.2
826.826	576.4
827.246	572.6
827.644	561.6
828.043	587.4
828.463	574.6
828.862	586
829.261	576
829.682	571
830.081	587.2
830.502	574
830.901	583.2
831.301	592.2
831.722	572
832.121	576.2
832.521	569.8
832.943	571.6
833.342	571.6
833.742	563.8
834.164	565.2
834.564	567.8
834.965	575.6
835.386	570.2
835.787	579.6
836.188	574.4
836.588	573.6
837.01	579.2
837.411	568.6
837.812	578.8
838.213	569.2
838.636	574.2
839.037	636.6
839.438	579.2
839.84	580
840.263	575.8
840.664	579.8
841.066	576.4
841.468	569.4
841.891	564.4
842.293	584.8
842.695	582.6
843.098	589.8
843.5	571.4
843.902	579.6
844.326	571.2
844.729	572.8
845.131	586.8
845.534	571.6
845.937	580.8
846.34	586.4
846.764	567.2
847.167	572.2
847.571	568.6
847.974	575.2
848.377	572.6
848.781	617.6
849.184	587.8
849.588	576
849.992	572.8
850.396	579.8
850.821	585.8
851.225	579.2
851.63	570.2
852.034	583.6
852.438	565.6
852.843	598.2
853.247	572.8
853.652	566.8
854.057	580.6
854.462	575.6
854.867	573.4
855.272	601.2
855.677	575
856.082	564.6
856.487	565.6
