#lambda/nm	C1
208.295	541.4
208.67	483.2
209.045	443.4
209.419	440.4
209.794	605.4
210.169	593.4
210.544	702.2
210.919	613.4
211.295	599.4
211.67	610.8
212.045	601.6
212.421	606
212.796	634.4
213.172	598
213.547	597.8
213.923	607.2
214.299	599.2
214.675	603.2
215.051	608
215.427	613
215.803	630.2
216.179	601.4
216.555	596.2
216.932	607.6
217.308	603.2
217.684	603.6
218.061	603.8
218.438	603.2
218.814	596.6
219.191	616
219.568	605.6
219.945	597.6
220.322	612.2
220.699	611.4
221.076	615.6
221.453	602.6
221.83	597
222.208	603.2
222.585	598.6
222.962	597.4
223.34	601.8
223.717	604.2
224.095	600.8
224.473	596.2
224.851	587.6
225.229	592
225.607	615
225.985	597.4
226.363	609
226.741	603.2
227.119	605.2
227.497	614.8
227.876	597.4
228.254	610.8
228.633	615
229.011	608.6
229.39	605.4
229.769	602.2
230.148	610
230.527	620
230.905	601
231.284	609.4
231.664	596
232.043	613.6
232.422	611.8
232.801	602.8
233.181	603.2
233.56	595.2
233.94	593.8
234.319	585.2
234.699	600
235.079	647.8
235.458	634.6
235.838	614.8
236.218	596
236.598	590.8
236.978	595.2
237.358	597.8
237.738	597.4
238.119	599.2
238.499	593.6
238.88	602.8
239.26	626
239.641	594.6
240.021	599.2
240.402	597.6
240.783	596.4
241.163	605.2
241.544	602.2
241.925	597
242.306	615
242.687	603.4
243.069	604.2
243.45	607
243.831	604.6
244.212	604.4
244.594	633.6
244.975	618.6
245.357	600.4
245.739	602.4
246.12	603
246.502	611.2
246.884	599.8
247.266	600.8
247.648	605.4
248.03	626.6
248.412	603
248.794	602.4
249.176	601.2
249.559	612.4
249.941	599.8
250.323	602.2
250.706	600.4
251.089	600.6
251.471	603.4
251.854	603.2
252.237	603
252.62	612.6
253.002	604.4
253.385	600.2
253.769	618
254.152	602.2
254.535	620.8
254.918	603.4
255.301	596.6
255.685	596.4
256.068	590
256.452	623.2
256.835	606.8
257.219	607.6
257.603	608.2
257.986	591.6
258.37	602.8
258.754	593
259.138	608.2
259.522	613
259.906	606.4
260.29	608.8
260.675	603.6
261.059	607.6
261.443	590.4
261.828	606.6
262.212	605.2
262.597	592
262.981	590.8
263.366	603.4
263.751	597.8
264.136	597.6
264.521	602.4
264.906	598.2
265.291	608
265.676	595.2
266.061	605.4
266.446	615.2
266.831	598.8
267.217	618.2
267.602	604.6
267.987	602.2
268.373	602.4
268.759	612.4
269.144	617.2
269.53	599.4
269.916	601.6
270.302	597.8
270.688	602.4
271.074	602.2
271.46	619.2
271.846	618.8
272.232	603.8
272.618	597.2
273.004	603.8
273.391	608
273.777	619
274.164	608.6
274.55	610.8
274.937	606.4
275.324	606.8
275.71	603.8
276.097	606.2
276.484	597
276.871	606.4
277.258	603.6
277.645	589.6
278.032	597.4
278.419	598
278.807	603
279.194	595.8
279.581	602.2
279.969	606.2
280.356	603
280.744	597
281.131	626.8
281.519	609.6
281.907	597.8
282.295	594.6
282.682	611.4
283.07	605
283.458	608.2
283.846	604.6
284.235	614.4
284.623	613.2
285.011	590.8
285.399	608.2
285.788	601
286.176	592.2
286.565	613.8
286.953	588.8
287.342	598.4
287.731	589.4
288.119	594.6
288.508	599.2
288.897	602.4
289.286	589.2
289.675	602.4
290.064	607.8
290.453	604.2
290.821	600
291.21	609
291.599	598.8
291.989	603.4
292.378	608.6
292.768	619.6
293.157	604.2
293.547	607
293.936	606
294.326	599.6
294.716	607
295.106	599.4
295.496	606.6
295.886	617.6
296.276	610.4
296.666	603.4
297.056	592
297.446	590.2
297.836	619
298.227	615.8
298.617	606.8
299.008	609
299.398	607.2
299.789	590.4
300.179	607.4
300.57	603.4
300.961	600.6
301.352	606.8
301.742	614.8
302.133	600.2
302.524	602.8
302.915	609.8
303.307	596.6
303.698	620.2
304.089	610
304.48	600.6
304.872	607
305.263	602.2
305.655	595.8
306.046	610.8
306.438	600.6
306.829	598
307.221	611.6
307.613	604.8
308.005	619.2
308.397	618.8
308.789	618.6
309.181	631.2
309.573	626
309.965	612.4
310.357	606.8
310.749	611
311.142	591.2
311.534	601.2
311.926	608.8
312.319	607.2
312.711	596.8
313.104	617.6
313.497	610.4
313.889	646.8
314.282	615
314.675	627.8
315.068	602
315.461	603.2
315.854	632.4
316.247	619.6
316.64	600.2
317.033	601.4
317.405	618
317.798	599
318.192	614.8
318.585	600.2
318.979	619.6
319.372	595
319.766	603.6
320.16	618.8
320.553	614.8
320.947	622.8
321.341	607.2
321.735	603.6
322.129	588.4
322.523	631.8
322.917	600.8
323.311	618.8
323.705	607
324.099	613
324.494	619.4
324.888	617.8
325.282	612.8
325.677	615.2
326.071	611.2
326.466	619.4
326.861	605.4
327.255	613.8
327.65	622.4
328.045	617.6
328.44	607.4
328.835	600.4
329.23	596.4
329.625	626.4
330.02	593.8
330.415	626.8
330.81	603.2
331.206	604.4
331.601	594.8
331.996	614.8
332.37	619.8
332.766	594.2
333.161	627.6
333.557	601
333.953	597.8
334.348	917.6
334.744	606.2
335.14	600.2
335.536	606.6
335.932	617.4
336.328	598.4
336.724	622.8
337.12	598
337.516	607.6
337.913	602
338.309	602
338.705	601
339.102	611.2
339.498	601.2
339.895	623.8
340.291	596.8
340.688	613
341.085	590.2
341.481	606
341.878	602.4
342.275	621.4
342.672	605.4
343.069	592.8
343.466	600
343.842	612.2
344.239	597.8
344.636	607.2
345.033	592.6
345.431	597
345.828	606.8
346.225	596.2
346.623	638
347.02	603.6
347.418	610
347.816	619.8
348.213	597.6
348.611	609.6
349.009	595.6
349.407	613.8
349.805	596.8
350.203	588.4
350.601	610
350.999	602.8
351.397	655.2
351.795	592.2
352.193	609.8
352.57	607
352.969	612.4
353.367	597
353.766	595
354.164	598.4
354.563	606.6
354.961	607.2
355.36	597
355.759	598.6
356.158	590.4
356.557	596.2
356.956	596.2
357.355	591.4
357.754	605.2
358.153	602.4
358.552	622.4
358.951	601.2
359.35	614
359.75	589.2
360.149	596.8
360.527	589.2
360.926	595
361.326	599.6
361.726	599.4
362.125	594.6
362.525	612.6
362.925	599.8
363.325	601
363.724	609.6
364.124	595.2
364.524	585
364.924	598.4
365.324	607.2
365.725	594.6
366.125	601.2
366.525	594.4
366.904	588.2
367.304	583.2
367.705	618
368.105	609.8
368.506	594.8
368.906	600.4
369.307	597.2
369.708	593.8
370.108	587
370.509	613
370.91	594.6
371.311	590.4
371.712	608.8
372.113	593.2
372.514	586.8
372.894	591.8
373.295	593.4
373.696	609.6
374.097	603
374.499	615.8
374.9	594.2
375.301	584.4
375.703	600.8
376.105	585
376.506	596.6
376.908	602.8
377.309	589
377.711	603.6
378.113	591.6
378.493	594.8
378.895	586.2
379.297	605.2
379.699	577.4
380.102	600.8
380.504	595.2
380.906	599
381.308	620
381.71	587.8
382.113	604.6
382.515	601.2
382.918	591.2
383.299	588.4
383.701	604.6
384.104	598.8
384.507	570
384.909	592.4
385.312	577
385.715	587.2
386.118	585.2
386.521	583
386.924	597.8
387.327	583.4
387.709	580
388.112	581.8
388.515	589.8
388.918	595
389.322	599.6
389.725	585.8
390.129	622.4
390.532	601
390.936	593.6
391.339	584.6
391.743	596.8
392.125	589
392.529	606
392.933	608.8
393.337	604.6
393.74	604.8
394.144	593.2
394.548	586.8
394.953	596.8
395.357	607.6
395.761	597.4
396.144	593.8
396.548	596
396.952	598.4
397.357	591.2
397.761	592.2
398.166	587.2
398.57	588.8
398.975	592.2
399.379	597
399.763	635.2
400.168	597.6
400.572	596.6
400.977	591.2
401.382	618
401.787	603.6
402.192	603.2
402.597	606.2
403.002	580.4
403.386	604.2
403.791	607.2
404.197	589
404.602	596
405.007	596.4
405.413	592.2
405.818	597.4
406.224	589.6
406.608	583.6
407.014	581.2
407.42	610.6
407.825	594.8
408.231	600.2
408.637	603.6
409.043	604.6
409.449	594.2
409.834	592.4
410.24	596.6
410.646	608.8
411.052	603.8
411.458	598.2
411.865	597.6
412.271	608.2
412.677	597.2
413.062	600
413.469	593.6
413.875	615.2
414.282	611.4
414.689	602.2
415.095	609.2
415.502	590.8
415.888	600.2
416.294	586.4
416.701	637
417.108	593.8
417.515	607.6
417.923	604
418.33	617
418.715	607.6
419.123	596.6
419.53	594.2
419.937	608.2
420.345	618.2
420.752	598.8
421.16	614
421.546	599
421.953	603.8
422.361	587.2
422.769	597
423.177	587.6
423.585	613.4
423.992	619
424.379	610.2
424.787	608.4
425.195	612.4
425.603	599.2
426.011	606
426.419	609
426.806	601.4
427.214	601.6
427.623	616.4
428.031	615.8
428.44	596.6
428.848	605
429.235	608.6
429.644	604.4
430.053	596.4
430.461	606.8
430.87	619.6
431.279	610.4
431.666	597.4
432.075	602
432.484	608.6
432.893	588.8
433.302	617.2
433.711	639.4
434.099	607
434.508	592.6
434.918	585
435.327	600
435.737	600
436.125	594.6
436.534	597.6
436.944	597.6
437.353	595.8
437.763	604
438.173	589
438.561	610.8
438.971	580.6
439.381	588.2
439.791	599.4
440.201	586.8
440.589	589.6
440.999	605.8
441.409	598.4
441.819	592
442.23	601.2
442.619	601.2
443.029	589.2
443.439	603.6
443.85	603.8
444.26	612.8
444.649	602.8
445.06	594
445.471	583
445.881	593.6
446.292	607.8
446.682	604.8
447.092	588.4
447.503	637.6
447.914	596.8
448.325	590
448.715	590.8
449.126	596
449.537	599
449.948	598
450.338	590.8
450.75	602.2
451.161	595.8
451.572	599.8
451.984	590.2
452.374	570.4
452.786	595
453.197	598.2
453.609	606.2
453.999	585.8
454.411	586.8
454.823	599
455.235	602
455.647	597.6
456.037	592.2
456.449	584.2
456.862	594.2
457.274	591.8
457.665	587.6
458.077	591.2
458.489	616.2
458.902	598
459.293	590
459.705	592.4
460.118	583.8
460.53	595.2
460.921	588.8
461.334	602.8
461.747	595.4
462.16	598
462.551	606.2
462.964	590
463.377	585
463.79	591
464.182	601
464.595	593.8
465.008	596.8
465.421	590.4
465.813	590
466.226	599.6
466.64	593.8
467.053	637.4
467.445	601.4
467.859	605.4
468.272	601.2
468.686	596.4
469.078	586.6
469.492	579.2
469.906	591.2
470.298	599.2
470.712	589.2
471.126	638.2
471.54	577.6
471.933	583.8
472.347	591
472.761	588.8
473.175	574.2
473.568	578.2
473.982	588.6
474.397	587.6
474.79	592.2
475.204	597.8
475.619	585.2
476.033	586.8
476.426	591.2
476.841	580.8
477.256	603.6
477.649	577.8
478.064	574.8
478.479	587.4
478.872	577.2
479.287	567.4
479.702	581
480.118	581.2
480.511	587.6
480.927	589.6
481.342	579.6
481.736	583.2
482.151	577.4
482.566	596.4
482.96	588.6
483.376	593
483.792	576
484.186	583
484.602	577
485.017	592.2
485.412	582
485.827	593.6
486.243	582.6
486.638	606.6
487.054	597.6
487.47	596.6
487.865	590.6
488.281	584.8
488.697	576
489.092	585
489.508	586.6
489.925	598.8
490.32	571.8
490.736	590
491.153	588.2
491.548	595.8
491.964	595.6
492.381	583.4
492.776	592.4
493.193	586.8
493.61	597
494.006	598.2
494.422	592.4
494.84	583.6
495.235	594
495.652	583.6
496.069	581.4
496.465	584.2
496.883	585.8
497.3	607.6
497.696	586.6
498.113	593.8
498.509	575.8
498.927	581.8
499.344	585.4
499.741	583.2
500.158	595.8
500.576	597.6
500.973	590.6
501.39	582.2
501.787	582.6
502.205	586
502.623	582
503.02	577.4
503.438	589.2
503.856	580
504.253	592.6
504.671	586.4
505.068	579
505.486	585.6
505.905	597.8
506.302	590.2
506.72	597
507.118	581
507.536	586.4
507.955	587
508.352	591.2
508.771	591.2
509.169	588.2
509.587	586.2
510.006	585.2
510.404	579.6
510.823	583.6
511.221	582.2
511.64	586.2
512.038	597
512.457	578.4
512.877	589
513.275	579.6
513.694	584.6
514.092	577.2
514.512	592.2
514.91	592.4
515.33	591
515.749	592.4
516.148	589.4
516.568	601.2
516.966	590
517.386	582
517.785	596.8
518.205	584
518.603	580.8
519.024	586.6
519.444	589.4
519.843	592.8
520.263	599
520.662	591
521.082	586.8
521.481	583.4
521.902	589
522.301	589.6
522.722	593.6
523.121	586.2
523.542	584.4
523.963	587.6
524.362	589.4
524.783	585.8
525.183	584.6
525.604	589.6
526.003	569
526.425	574.8
526.824	590.4
527.246	587.2
527.646	594.6
528.067	579.8
528.467	586
528.888	589.8
529.289	583.2
529.71	585.6
530.11	581.4
530.532	574.4
530.932	577.8
531.354	579.6
531.755	612.6
532.176	588.8
532.577	581.4
532.999	585.2
533.4	577.4
533.822	593.4
534.223	602.4
534.645	590.6
535.046	579.8
535.468	585.2
535.869	594.6
536.292	588
536.693	612.6
537.115	590.2
537.516	585.2
537.939	582
538.34	602
538.742	593
539.165	581.4
539.566	591.2
539.989	587.4
540.391	584
540.814	585.6
541.216	582
541.639	587
542.041	594.8
542.464	581.2
542.866	587.2
543.268	581
543.691	585.8
544.093	594.8
544.517	603
544.919	580.4
545.343	597
545.745	583.4
546.147	585.2
546.571	579.6
546.974	575.8
547.398	581.6
547.8	603.4
548.224	584.4
548.627	577
549.03	604.4
549.454	578.6
549.857	573.2
550.281	576.2
550.684	585.8
551.087	603.2
551.512	583.2
551.915	593
552.34	587
552.743	571.6
553.146	582.8
553.571	591
553.975	606.4
554.399	580
554.803	624.2
555.207	585.4
555.632	583.2
556.036	586.8
556.461	578
556.865	587.2
557.268	575.6
557.694	576.2
558.098	592.8
558.502	586.8
558.927	578.2
559.332	586.6
559.736	579.8
560.162	593.2
560.566	584.8
560.992	586
561.396	575.4
561.801	577.6
562.227	586.8
562.631	578.6
563.036	583.4
563.462	591.4
563.867	581.4
564.272	577.2
564.698	586.4
565.103	579.4
565.508	604.4
565.935	584
566.34	579
566.745	589
567.172	576.8
567.577	612.6
567.982	599.8
568.409	590.6
568.815	576.6
569.22	576.8
569.626	591.8
570.053	563.2
570.459	585.2
570.865	582
571.292	594.6
571.698	588.8
572.104	577.8
572.531	578.6
572.937	585.8
573.343	585.2
573.75	584.2
574.177	582.4
574.583	580.4
574.99	587
575.396	582.6
575.824	585.4
576.231	591.2
576.637	571.4
577.065	600.6
577.472	572.6
577.879	573.4
578.286	599.6
578.714	572
579.121	576.8
579.528	582.8
579.935	592
580.364	583.8
580.771	561.4
581.178	565.2
581.585	579.2
582.014	585.2
582.421	579.4
582.829	578.8
583.236	593.8
583.644	576.8
584.073	579
584.481	582.2
584.889	573.6
585.296	589.2
585.726	578.4
586.134	569.8
586.542	577
586.95	593
587.358	578
587.787	582.8
588.196	586
588.604	577.6
589.012	585
589.421	581
589.851	577.2
590.259	581.4
590.668	575.2
591.076	620.4
591.485	584.8
591.894	587.2
592.324	596.8
592.733	594.4
593.142	562
593.551	586.2
593.96	610
594.369	575
594.8	581.4
595.209	576.2
595.618	569.2
596.028	576
596.437	567.8
596.847	585.2
597.256	586
597.687	585.2
598.097	584
598.507	572
598.917	586
599.327	591
599.736	580
600.146	588
600.556	578.6
600.988	592
601.398	580.8
601.808	585.8
602.219	572.4
602.629	587.8
603.039	592.4
603.45	600.8
603.86	584.8
604.271	596
604.703	584.8
605.114	584.6
605.525	586
605.935	584
606.346	601
606.757	587.8
607.168	585.2
607.579	587.2
607.99	585.4
608.402	580.4
608.813	585
609.224	584.2
609.636	575.2
610.047	582.6
610.48	583.2
610.892	581
611.303	584.8
611.715	578.8
612.127	576
612.539	580.4
612.95	583.8
613.362	582
613.774	574.8
614.186	572.8
614.599	578.6
615.011	588.8
615.423	581
615.835	579.4
616.248	572.6
616.66	587.4
617.073	580.8
617.485	575.6
617.898	589.6
618.311	579.4
618.723	585
619.136	605.8
619.549	602.2
619.962	604.4
620.375	587.8
620.788	582.2
621.201	574.8
621.614	595.4
622.028	576.6
622.441	591
622.854	597.4
623.268	567.4
623.681	583.4
624.095	579.4
624.509	585.8
624.922	578
625.336	566
625.728	578.4
626.142	592.8
626.556	595.8
626.97	594
627.384	580.2
627.799	581
628.213	599.8
628.627	583.8
629.041	579.2
629.456	582
629.87	580.8
630.285	580.2
630.699	591.2
631.093	575.6
631.507	576.6
631.922	582
632.337	586.4
632.752	577.4
633.167	582.6
633.582	587.6
633.997	573.4
634.412	573.6
634.806	585.8
635.221	570.4
635.637	589.8
636.052	576.8
636.468	583
636.883	599
637.299	586.4
637.715	570
638.109	581.6
638.525	568.2
638.941	599.4
639.357	583.6
639.773	593
640.189	578.2
640.584	577
641	582.2
641.416	570.6
641.832	584.8
642.249	582.6
642.665	582.2
643.06	587.8
643.477	584
643.894	574.8
644.31	583.4
644.727	573.4
645.123	580.6
645.54	578.4
645.957	584.6
646.374	590.2
646.77	577.8
647.187	610.4
647.604	586.8
648.021	571.8
648.439	568.8
648.835	585
649.252	582.4
649.67	584
650.088	579.2
650.484	588.8
650.902	585
651.32	588
651.738	576
652.134	585.4
652.552	588.8
652.971	585.4
653.389	578.6
653.786	591.4
654.204	601.2
654.622	577.2
655.019	572.8
655.438	579.8
655.857	576.4
656.275	584.4
656.673	585.2
657.091	594
657.51	583.4
657.908	590.6
658.327	589.6
658.746	571.2
659.144	582.6
659.563	590.6
659.982	580.4
660.38	563.4
660.8	580.6
661.219	589.4
661.617	576.6
662.037	578.8
662.457	589.2
662.855	568.2
663.275	606.8
663.695	579.2
664.094	576.6
664.514	580
664.934	576.8
665.333	582.8
665.753	578.8
666.152	567.6
666.572	573
666.993	585.6
667.392	573
667.812	579
668.212	575.4
668.632	587.2
669.053	574.2
669.453	587.4
669.874	575.6
670.273	581
670.694	563.4
671.116	582.2
671.515	577.2
671.937	571.6
672.337	572.8
672.758	581.2
673.158	584.6
673.58	564.2
673.98	576.4
674.402	578.4
674.824	573.2
675.224	570.4
675.646	568.4
676.047	566.8
676.469	573
676.869	578.6
677.292	572.8
677.693	567.4
678.115	574.2
678.516	573.6
678.939	578.4
679.34	578.4
679.762	588
680.164	581.6
680.586	568.4
680.988	580.2
681.411	595
681.812	584
682.236	568
682.637	572
683.061	571.2
683.462	586
683.864	569.6
684.288	579
684.69	569.8
685.114	588.2
685.516	585
685.94	569.2
686.342	590.2
686.766	575.6
687.168	581.4
687.571	595.6
687.995	575.2
688.398	571.4
688.822	579.4
689.225	585
689.628	603.2
690.052	582.4
690.456	590.8
690.88	576.8
691.284	565.8
691.687	587.6
692.112	567.4
692.515	575.8
692.919	584.2
693.344	574
693.747	576.4
694.173	569
694.577	589.6
694.98	584.6
695.406	581.8
695.81	583.4
696.214	581.4
696.64	579.8
697.044	581.8
697.448	592
697.874	575
698.279	575.6
698.684	571.4
699.11	574
699.514	573
699.919	583
700.324	578.8
700.75	577.8
701.156	576.2
701.561	586
701.987	586.6
702.393	583.4
702.798	590.8
703.203	585
703.63	568.8
704.036	581.2
704.442	575
704.847	575.6
705.274	577
705.68	574.8
706.086	584.6
706.492	569.2
706.92	578
707.326	581.8
707.732	577
708.139	573
708.545	575.6
708.973	581.2
709.38	585.6
709.786	569.4
710.193	600.2
710.6	587.2
711.028	569.8
711.435	576.8
711.842	573.6
712.249	571.8
712.656	579.2
713.064	587.2
713.492	573
713.9	574.8
714.307	581.2
714.715	578.6
715.123	582.8
715.53	574.2
715.938	583.6
716.367	578
716.775	578.8
717.184	571
717.592	574.4
718	582
718.408	603.6
718.816	608.4
719.225	579.4
719.633	571.2
720.042	569.4
720.472	577
720.881	593.4
721.29	577.8
721.699	570
722.108	582.6
722.517	578.8
722.926	572.6
723.335	583.8
723.744	571.8
724.154	570.4
724.563	577.8
724.973	576.2
725.382	575
725.792	570.4
726.202	565.4
726.612	591.6
727.022	573.4
727.432	563.6
779.813	571
780.223	606.8
780.634	571.6
781.044	563.2
781.454	580.2
781.865	590.6
782.276	565.6
782.686	584.6
783.097	567.2
783.508	576
783.919	575.4
784.33	584.4
784.741	583.4
785.152	570
785.563	574.6
785.974	572.2
786.386	580.2
786.776	572.8
787.188	568.2
787.599	571
788.011	586.6
788.423	581.8
788.835	579.6
789.247	556.2
789.659	568
790.071	574.8
790.483	620
790.874	573.8
791.286	579.8
791.699	575.6
792.111	576.2
792.524	572
792.937	568.6
793.349	568.2
793.741	564.6
794.154	574.2
794.567	599.2
794.98	580
795.393	562.2
795.785	587.6
796.198	575.6
796.612	575.6
797.026	569
797.439	566.6
797.831	573.2
798.245	560.8
798.659	577.4
799.073	570.8
799.487	569.8
799.88	577.6
800.294	574.2
800.708	574.4
801.123	568.8
801.516	590
801.93	570.2
802.345	565.2
802.76	576.4
803.153	587
803.568	586.4
803.983	575.8
804.377	578.2
804.792	566
805.207	564.8
805.601	574.4
806.016	605.8
806.432	570.4
806.826	600.8
807.242	584.6
807.658	574
808.052	568.6
808.468	576.8
808.884	561.8
809.279	571.8
809.695	581.4
810.111	590.2
810.506	572.4
810.922	588.8
811.339	571.2
811.734	576.2
812.151	571.4
812.546	573.2
812.963	571
813.38	572
813.776	568.8
814.193	586.6
814.589	571.6
815.006	574
815.402	563.2
815.82	565.4
816.237	566
816.633	575.2
817.051	571.2
817.448	574.8
817.866	563.4
818.262	589.2
818.68	570.8
819.077	574.8
819.495	567.2
819.892	605
820.311	569.8
820.708	573.8
821.127	561.2
821.524	579.6
821.943	574.4
822.34	584.4
822.759	570.2
823.157	564.6
823.576	580.8
823.974	574
824.393	617
824.791	569.6
825.189	561.8
825.609	569.2
826.007	564.2
826.427	565.4
826.826	574.2
827.246	573.4
827.644	559.8
828.043	588.2
828.463	564.6
828.862	578
829.261	574.4
829.682	557.8
830.081	577.2
830.502	561.2
830.901	581.8
831.301	586.4
831.722	559.8
832.121	570.2
832.521	570.4
832.943	573.6
833.342	570
833.742	560
834.164	566
834.564	569.6
834.965	576.2
835.386	571.4
835.787	574.6
836.188	567.6
836.588	578.4
837.01	579.2
837.411	559.6
837.812	581.8
838.213	571.2
838.636	575.2
839.037	637
839.438	572
839.84	572.2
840.263	580
840.664	573.6
841.066	576.4
841.468	583
841.891	569
842.293	582
842.695	581.2
843.098	579.2
843.5	567.4
843.902	576.2
844.326	573.4
844.729	575.8
845.131	587.2
845.534	574.6
845.937	584.2
846.34	585.6
846.764	572.8
847.167	569
847.571	562.4
847.974	569.2
848.377	571.2
848.781	613.4
849.184	588
849.588	573.8
849.992	576.2
850.396	581.4
850.821	595.2
851.225	577.6
851.63	577.2
852.034	589
852.438	574.6
852.843	639.2
853.247	566.2
853.652	561.2
854.057	582.8
854.462	577.4
854.867	582.2
855.272	598
855.677	581.6
856.082	569.4
856.487	570.6
856.893	579.8
857.298	568.8
