#lambda/nm	C1
208.295	573.8
208.67	505.6
209.045	471
209.419	466.6
209.794	582
210.169	569.2
210.544	656.6
210.919	581.6
211.295	565.4
211.67	582
212.045	579
212.421	574
212.796	607.8
213.172	572
213.547	574.2
213.923	578.8
214.299	570.2
214.675	584
215.051	582.2
215.427	582.2
215.803	588.2
216.179	584.6
216.555	572.6
216.932	580.6
217.308	584.2
217.684	579
218.061	580.6
218.438	578.8
218.814	577
219.191	585.6
219.568	570
219.945	580.8
220.322	580.4
220.699	581
221.076	583
221.453	585.2
221.83	573.2
222.208	568.4
222.585	570.4
222.962	573
223.34	578.4
223.717	576.6
224.095	575.2
224.473	575.6
224.851	573.2
225.229	575
225.607	587.8
225.985	569.8
226.363	591.2
226.741	576.6
227.119	577.8
227.497	590.8
227.876	566.2
228.254	584.2
228.633	582.8
229.011	576.4
229.39	580.8
229.769	578.2
230.148	584.4
230.527	591
230.905	580.8
231.284	585.8
231.664	574.8
232.043	587.6
232.422	586.4
232.801	575.4
233.181	579.2
233.56	571
233.94	573.4
234.319	574
234.699	580.2
235.079	603
235.458	607.4
235.838	591
236.218	566.8
236.598	566.4
236.978	566
237.358	570.6
237.738	574.8
238.119	572
238.499	562.2
238.88	577
239.26	581
239.641	568
240.021	573.8
240.402	575.4
240.783	567.4
241.163	577.6
241.544	581.2
241.925	573.4
242.306	590.2
242.687	585.8
243.069	573.4
243.45	579.4
243.831	571.6
244.212	572.2
244.594	608
244.975	586.6
245.357	578.4
245.739	575.2
246.12	580.2
246.502	591.4
246.884	576.2
247.266	579.2
247.648	582.2
248.03	590.6
248.412	571
248.794	582.6
249.176	580
249.559	576.2
249.941	572.8
250.323	569.8
250.706	572
251.089	580.2
251.471	573.6
251.854	575.4
252.237	577.4
252.62	587.8
253.002	576
253.385	576.8
253.769	595
254.152	575.8
254.535	584.6
254.918	570.6
255.301	576.2
255.685	584.2
256.068	575
256.452	590.2
256.835	583.8
257.219	581.2
257.603	600
257.986	571
258.37	579
258.754	567.8
259.138	582.2
259.522	581.2
259.906	575.8
260.29	573
260.675	572.4
261.059	582.2
261.443	572.2
261.828	581
262.212	585.2
262.597	571.4
262.981	574.2
263.366	590
263.751	577.8
264.136	571.2
264.521	575.4
264.906	573
265.291	586.8
265.676	571.2
266.061	579.8
266.446	588.8
266.831	573.2
267.217	590.4
267.602	578.6
267.987	575.8
268.373	576.4
268.759	578.4
269.144	580.2
269.53	573.6
269.916	567.2
270.302	568
270.688	580.4
271.074	568.4
271.46	582.4
271.846	590.2
272.232	573
272.618	566.6
273.004	575.4
273.391	583.4
273.777	579.4
274.164	586.2
274.55	587.6
274.937	575.8
275.324	576.4
275.71	578.6
276.097	582
276.484	567.4
276.871	575.8
277.258	577.2
277.645	562.2
278.032	573.2
278.419	570.8
278.807	569
279.194	567.2
279.581	572.8
279.969	579.8
280.356	574.4
280.744	576.2
281.131	598.6
281.519	588.2
281.907	579
282.295	571.8
282.682	586.6
283.07	576
283.458	582
283.846	579.8
284.235	582.4
284.623	579
285.011	566
285.399	572.8
285.788	571.8
286.176	569
286.565	584.6
286.953	577.8
287.342	570.8
287.731	569.4
288.119	569
288.508	568.6
288.897	576.8
289.286	564.4
289.675	580.6
290.064	586.2
290.453	575.4
290.821	579.4
291.21	578.4
291.599	581.4
291.989	577.2
292.378	583.8
292.768	593.4
293.157	578.4
293.547	585.2
293.936	576.8
294.326	576.4
294.716	577.4
295.106	572.6
295.496	581.6
295.886	589.6
296.276	578.8
296.666	573.6
297.056	572
297.446	566.8
297.836	580.6
298.227	573.4
298.617	576
299.008	584
299.398	582.8
299.789	581
300.179	572.8
300.57	589
300.961	566.2
301.352	568.6
301.742	577.8
302.133	574.2
302.524	575.2
302.915	573
303.307	574.2
303.698	581.4
304.089	572.2
304.48	568.2
304.872	572.8
305.263	568.2
305.655	574.8
306.046	581.6
306.438	574.8
306.829	574.8
307.221	580
307.613	578
308.005	587.4
308.397	589.2
308.789	592.8
309.181	595.6
309.573	586.8
309.965	580.4
310.357	579.8
310.749	587.4
311.142	563.8
311.534	577.8
311.926	574.6
312.319	569.2
312.711	575.2
313.104	588.4
313.497	570.8
313.889	603.8
314.282	596
314.675	596
315.068	589
315.461	582.4
315.854	602.8
316.247	579.8
316.64	577
317.033	570.8
317.405	580.8
317.798	570.2
318.192	578.2
318.585	569.2
318.979	576.8
319.372	574
319.766	566.8
320.16	585.8
320.553	587.8
320.947	589.6
321.341	570
321.735	572.4
322.129	564.6
322.523	593.8
322.917	572.6
323.311	586.2
323.705	578
324.099	576.8
324.494	585.4
324.888	583.4
325.282	570.2
325.677	587.2
326.071	579.4
326.466	578.2
326.861	579
327.255	584
327.65	583.8
328.045	584.6
328.44	585.8
328.835	576.2
329.23	577.6
329.625	592.4
330.02	570.6
330.415	591.2
330.81	584.4
331.206	579.8
331.601	568.6
331.996	578
332.37	592.6
332.766	576.2
333.161	593.6
333.557	576.6
333.953	580.2
334.348	790
334.744	583.4
335.14	568
335.536	576
335.932	591.8
336.328	571.8
336.724	581.4
337.12	577
337.516	580.8
337.913	575.6
338.309	591
338.705	575.4
339.102	590.2
339.498	576
339.895	585.6
340.291	571.8
340.688	588
341.085	577.2
341.481	574.6
341.878	576.6
342.275	585.2
342.672	569.8
343.069	570.8
343.466	570.6
343.842	579.4
344.239	578
344.636	577
345.033	571
345.431	563.2
345.828	576.4
346.225	567.4
346.623	611
347.02	570.8
347.418	577.4
347.816	587.2
348.213	571.4
348.611	580
349.009	572.6
349.407	581.6
349.805	567.6
350.203	568.6
350.601	587.6
350.999	562.2
351.397	616.8
351.795	569.6
352.193	582.8
352.57	576.4
352.969	576.8
353.367	566.8
353.766	567.6
354.164	572.4
354.563	583.2
354.961	577.4
355.36	569
355.759	575.8
356.158	567.4
356.557	567.4
356.956	572.6
357.355	565.8
357.754	572.4
358.153	575.6
358.552	590.2
358.951	570.4
359.35	584.8
359.75	570.4
360.149	570.2
360.527	564.4
360.926	565.4
361.326	568.6
361.726	572
362.125	567.4
362.525	579.2
362.925	571.2
363.325	577.2
363.724	570.8
364.124	570.4
364.524	564.4
364.924	569.2
365.324	572.6
365.725	561.6
366.125	576.2
366.525	575.4
366.904	574.4
367.304	555.8
367.705	591
368.105	575.8
368.506	571.2
368.906	572
369.307	572.6
369.708	575.2
370.108	564.8
370.509	576.4
370.91	569.2
371.311	569.2
371.712	570.4
372.113	564.8
372.514	564.6
372.894	571.4
373.295	565.6
373.696	577.4
374.097	580.6
374.499	576.8
374.9	568.2
375.301	554.4
375.703	565
376.105	570.2
376.506	570.8
376.908	567
377.309	574.2
377.711	569.4
378.113	565
378.493	574.8
378.895	566
379.297	574.6
379.699	561.6
380.102	570.4
380.504	572.6
380.906	566.6
381.308	592.4
381.71	565.6
382.113	576
382.515	561.2
382.918	570.8
383.299	563.4
383.701	573.6
384.104	568.2
384.507	553.4
384.909	570.8
385.312	565.2
385.715	562.2
386.118	567
386.521	560.2
386.924	572
387.327	561.2
387.709	557.2
388.112	557.4
388.515	566.2
388.918	572.2
389.322	578.6
389.725	566.4
390.129	588.8
390.532	570.4
390.936	562.4
391.339	562.4
391.743	565.6
392.125	565.8
392.529	573.2
392.933	570.4
393.337	571.6
393.74	566
394.144	572
394.548	562.4
394.953	561.6
395.357	568.6
395.761	562
396.144	569
396.548	566
396.952	569.4
397.357	568.4
397.761	563
398.166	564.8
398.57	566.6
398.975	568
399.379	573
399.763	605.2
400.168	560.4
400.572	564.2
400.977	561.6
401.382	587.8
401.787	576.2
402.192	580.6
402.597	579.4
403.002	554.2
403.386	583.6
403.791	579
404.197	564.2
404.602	573.4
405.007	574.2
405.413	564.4
405.818	566.6
406.224	563.8
406.608	566.6
407.014	558.4
407.42	579.6
407.825	568.2
408.231	572.8
408.637	569.4
409.043	576
409.449	566.6
409.834	557.2
410.24	569.4
410.646	579.6
411.052	576.2
411.458	574.6
411.865	574.2
412.271	580
412.677	562.6
413.062	565.8
413.469	560.8
413.875	589.8
414.282	586.6
414.689	570.4
415.095	569.2
415.502	563.8
415.888	565.2
416.294	560.4
416.701	599.2
417.108	568.8
417.515	571.2
417.923	567
418.33	585.4
418.715	574.2
419.123	565.4
419.53	562.8
419.937	573
420.345	584.6
420.752	562.8
421.16	578
421.546	573.4
421.953	573
422.361	568.8
422.769	573.8
423.177	561.8
423.585	593
423.992	582.6
424.379	579.4
424.787	573.4
425.195	584
425.603	564.2
426.011	579.8
426.419	574
426.806	566.2
427.214	569
427.623	586.4
428.031	581.8
428.44	569.8
428.848	582.6
429.235	581.6
429.644	575.6
430.053	574.8
430.461	582.4
430.87	585
431.279	578.8
431.666	571.8
432.075	569.4
432.484	574.2
432.893	576.8
433.302	592.4
433.711	593
434.099	580.4
434.508	573
434.918	569.8
435.327	577.2
435.737	562.6
436.125	575.4
436.534	571.2
436.944	569.6
437.353	569.8
437.763	585.8
438.173	565.4
438.561	573.8
438.971	559.4
439.381	573
439.791	566.4
440.201	554.6
440.589	570.4
440.999	580.4
441.409	567.8
441.819	568.2
442.23	577.6
442.619	577.2
443.029	575.6
443.439	571.4
443.85	574.8
444.26	582.8
444.649	579.2
445.06	573.2
445.471	564.6
445.881	567.6
446.292	587.2
446.682	596.8
447.092	568
447.503	616.4
447.914	577.8
448.325	580.4
448.715	574.4
449.126	573
449.537	577
449.948	574.4
450.338	572.6
450.75	578.2
451.161	572.6
451.572	576.8
451.984	571.2
452.374	563.2
452.786	572
453.197	578.8
453.609	585.4
453.999	559.8
454.411	556.6
454.823	586.6
455.235	573.6
455.647	569
456.037	569
456.449	562.6
456.862	576.2
457.274	571
457.665	564.2
458.077	580
458.489	592
458.902	568.6
459.293	571.6
459.705	568.6
460.118	567.8
460.53	574.8
460.921	568
461.334	570.4
461.747	566.6
462.16	579.6
462.551	585.2
462.964	573.2
463.377	556.6
463.79	569.8
464.182	570.8
464.595	559.4
465.008	566.4
465.421	569.8
465.813	559.8
466.226	567.4
466.64	566.2
467.053	598.2
467.445	570.8
467.859	577.4
468.272	570
468.686	577
469.078	562.6
469.492	557.8
469.906	566.2
470.298	570.2
470.712	557.8
471.126	596.2
471.54	558.2
471.933	558.2
472.347	558.6
472.761	555.6
473.175	560.2
473.568	553.8
473.982	559.2
474.397	570.4
474.79	566.8
475.204	568
475.619	561.2
476.033	574
476.426	563.8
476.841	561.4
477.256	579.8
477.649	563.4
478.064	553.2
478.479	560.2
478.872	556.2
479.287	549.8
479.702	554.2
480.118	563
480.511	568.4
480.927	559.8
481.342	559.6
481.736	564.8
482.151	566
482.566	569.8
482.96	556.6
483.376	573
483.792	558.4
484.186	563
484.602	558.4
485.017	564.8
485.412	561.6
485.827	573.6
486.243	565.8
486.638	579.6
487.054	569.8
487.47	578
487.865	564.2
488.281	569.4
488.697	561.6
489.092	565.2
489.508	560.4
489.925	567.6
490.32	552.8
490.736	567.2
491.153	570
491.548	571.8
491.964	568.4
492.381	558.8
492.776	563.4
493.193	569.2
493.61	568.6
494.006	566.2
494.422	571
494.84	554.4
495.235	569.8
495.652	568.6
496.069	568.8
496.465	551
496.883	563
497.3	587.6
497.696	560.4
498.113	565.8
498.509	554.2
498.927	564
499.344	555.8
499.741	557.2
500.158	575.4
500.576	569
500.973	557.4
501.39	556.8
501.787	557
502.205	554.6
502.623	557.8
503.02	549
503.438	550
503.856	561
504.253	559
504.671	565.6
505.068	555.4
505.486	561.4
505.905	577.8
506.302	559
506.72	571
507.118	558.2
507.536	559.8
507.955	564.4
508.352	564.2
508.771	564.2
509.169	565
509.587	564.2
510.006	564.6
510.404	558.4
510.823	556.6
511.221	563.8
511.64	550.2
512.038	566.6
512.457	563.8
512.877	560
513.275	549.8
513.694	563.2
514.092	562
514.512	561.4
514.91	565.8
515.33	564.2
515.749	562.6
516.148	566.2
516.568	566.2
516.966	560.6
517.386	559.8
517.785	563.6
518.205	559.8
518.603	560
519.024	561.4
519.444	565.2
519.843	574
520.263	565.6
520.662	565.6
521.082	564.6
521.481	560.4
521.902	561.6
522.301	557.8
522.722	570.6
523.121	567.6
523.542	557.4
523.963	556.6
524.362	560.8
524.783	565.6
525.183	562.6
525.604	565.6
526.003	558.4
526.425	556
526.824	573.2
527.246	571.4
527.646	571.2
528.067	572.2
528.467	565.4
528.888	569.2
529.289	566.4
529.71	563
530.11	569
530.532	563
530.932	563.2
531.354	553
531.755	585.2
532.176	572.6
532.577	563.8
532.999	563.4
533.4	557.8
533.822	561.4
534.223	574.4
534.645	563
535.046	556.6
535.468	570.4
535.869	567.6
536.292	558.8
536.693	588.2
537.115	556.2
537.516	558.2
537.939	563.2
538.34	579.8
538.742	572.8
539.165	558.4
539.566	567.2
539.989	559.6
540.391	556
540.814	559.8
541.216	566.8
541.639	568.6
542.041	570.4
542.464	553
542.866	557.2
543.268	559.4
543.691	566
544.093	562.4
544.517	574.4
544.919	561.8
545.343	591.6
545.745	555.6
546.147	557
546.571	561
546.974	550.8
547.398	558
547.8	576.6
548.224	554.6
548.627	551.6
549.03	566.8
549.454	559.2
549.857	555.4
550.281	563
550.684	565.8
551.087	575
551.512	569.2
551.915	563
552.34	561
552.743	556.2
553.146	561.6
553.571	560.4
553.975	585.2
554.399	562.8
554.803	596
555.207	558
555.632	557.8
556.036	559.8
556.461	558.8
556.865	560.8
557.268	557.4
557.694	556.8
558.098	560
558.502	565.4
558.927	551.4
559.332	564.6
559.736	561.6
560.162	567.6
560.566	564.4
560.992	566.8
561.396	559.6
561.801	558
562.227	560.8
562.631	566.4
563.036	554
563.462	571.2
563.867	557.6
564.272	549.4
564.698	565.6
565.103	549.2
565.508	575.2
565.935	567
566.34	559.2
566.745	565
567.172	562.2
567.577	577.6
567.982	563.6
568.409	562.2
568.815	560.8
569.22	558.4
569.626	561.2
570.053	549.2
570.459	557.8
570.865	567.6
571.292	564
571.698	564.8
572.104	544.4
572.531	551.6
572.937	565.8
573.343	558
573.75	550.6
574.177	558.8
574.583	553.6
574.99	557.2
575.396	557.4
575.824	562.8
576.231	558.6
576.637	555.6
577.065	576.6
577.472	552.4
577.879	551.6
578.286	571.4
578.714	553
579.121	549
579.528	561
579.935	570.8
580.364	550.2
580.771	547
581.178	553.8
581.585	561
582.014	564.2
582.421	545.2
582.829	554.4
583.236	564
583.644	557
584.073	560.8
584.481	557.4
584.889	552.2
585.296	562.6
585.726	558.4
586.134	551.8
586.542	550
586.95	576.4
587.358	556.6
587.787	558
588.196	570.2
588.604	562.2
589.012	563.6
589.421	544.8
589.851	555.8
590.259	558
590.668	553.2
591.076	579
591.485	548.2
591.894	562.6
592.324	575.2
592.733	571
593.142	556
593.551	561.2
593.96	579.4
594.369	553
594.8	551.2
595.209	561.2
595.618	552
596.028	554.4
596.437	559.8
596.847	569.6
597.256	565
597.687	563.6
598.097	562.2
598.507	557.8
598.917	557.2
599.327	572
599.736	569.6
600.146	565
600.556	564
600.988	568.4
601.398	562.2
601.808	573.4
602.219	562.6
602.629	561.6
603.039	571.4
603.45	585.2
603.86	564.2
604.271	573.4
604.703	563.8
605.114	562.8
605.525	564.2
605.935	572
606.346	582
606.757	568.6
607.168	567.8
607.579	559.8
607.99	569.8
608.402	568.4
608.813	572.4
609.224	571.4
609.636	563.4
610.047	566.6
610.48	557.6
610.892	574.8
611.303	574.8
611.715	569
612.127	562.6
612.539	568.8
612.95	569
613.362	560.4
613.774	559.4
614.186	564.6
614.599	561.6
615.011	579.6
615.423	567.2
615.835	561.4
616.248	555.8
616.66	578.6
617.073	569.2
617.485	566.4
617.898	575.8
618.311	569.4
618.723	562.6
619.136	587.8
619.549	578.8
619.962	579.2
620.375	567.2
620.788	573
621.201	567.6
621.614	574.6
622.028	569.2
622.441	567.2
622.854	576.8
623.268	561.6
623.681	574.8
624.095	572.8
624.509	575.4
624.922	569.8
625.336	557.4
625.728	565
626.142	572.4
626.556	577.8
626.97	569.8
627.384	561.4
627.799	570.6
628.213	577.8
628.627	569
629.041	572.4
629.456	565.4
629.87	570.2
630.285	573.4
630.699	581.4
631.093	568.8
631.507	573.4
631.922	571.6
632.337	583.4
632.752	559.6
633.167	560
633.582	564.4
633.997	570.4
634.412	569.4
634.806	568.4
635.221	559.8
635.637	574.4
636.052	558.6
636.468	568
636.883	579.8
637.299	562.8
637.715	559.8
638.109	569.6
638.525	555.6
638.941	572.4
639.357	573
639.773	579.6
640.189	557.4
640.584	567
641	563.4
641.416	559
641.832	564.8
642.249	564.6
642.665	565.2
643.06	568.2
643.477	569
643.894	554.8
644.31	567.6
644.727	569.2
645.123	561.6
645.54	564.6
645.957	566
646.374	569.4
646.77	563.8
647.187	594
647.604	565
648.021	556.4
648.439	563
648.835	567.4
649.252	561
649.67	566.8
650.088	563.4
650.484	568.2
650.902	565
651.32	568
651.738	563.8
652.134	566
652.552	583.8
652.971	576.6
653.389	566.4
653.786	574.6
654.204	577
654.622	553.6
655.019	561.4
655.438	570.2
655.857	566.4
656.275	571.4
656.673	555.2
657.091	564.2
657.51	559.8
657.908	563.8
658.327	581
658.746	557.2
659.144	570.6
659.563	573
659.982	573.8
660.38	555
660.8	559.8
661.219	565
661.617	564
662.037	555
662.457	563.2
662.855	547.8
663.275	583
663.695	560.4
664.094	554.6
664.514	567.2
664.934	558
665.333	570.8
665.753	553
666.152	553.2
666.572	554.6
666.993	568.6
667.392	553.4
667.812	555.4
668.212	559.4
668.632	569.6
669.053	549.2
669.453	563.6
669.874	562.8
670.273	558
670.694	548.8
671.116	564
671.515	563.6
671.937	552.4
672.337	546.4
672.758	551
673.158	556.8
673.58	552.6
673.98	556.2
674.402	567.6
674.824	558
675.224	547.6
675.646	548.6
676.047	551
676.469	559
676.869	561.2
677.292	555
677.693	549
678.115	555.8
678.516	558.6
678.939	553.2
679.34	550.6
679.762	561.2
680.164	555.6
680.586	553
680.988	564
681.411	570.8
681.812	553
682.236	548
682.637	547.6
683.061	548.2
683.462	561.6
683.864	557.8
684.288	564
684.69	549.4
685.114	561.2
685.516	560.6
685.94	554
686.342	567.2
686.766	555.6
687.168	554.6
687.571	570.2
687.995	559.4
688.398	554
688.822	559.8
689.225	563.6
689.628	571.8
690.052	555.6
690.456	551.8
690.88	548.6
691.284	548.4
691.687	561.6
692.112	549
692.515	551.4
692.919	557.6
693.344	554
693.747	549.2
694.173	548.8
694.577	559.2
694.98	554.4
695.406	558
695.81	555.2
696.214	559
696.64	559.2
697.044	555.2
697.448	563.4
697.874	547
698.279	548.8
698.684	547
699.11	548.4
699.514	546.2
699.919	546.8
700.324	547.4
700.75	549.2
701.156	554
701.561	564.4
701.987	552.2
702.393	561.4
702.798	564.2
703.203	550.6
703.63	549.2
704.036	549.4
704.442	556.8
704.847	545.2
705.274	545.2
705.68	553.8
706.086	559.8
706.492	542.6
706.92	556.4
707.326	558.6
707.732	552.2
708.139	546.4
708.545	543.8
708.973	542.4
709.38	551
709.786	543.2
710.193	564.8
710.6	546.8
711.028	546.6
711.435	548.6
711.842	552.2
712.249	554.2
712.656	557.2
713.064	554.4
713.492	546
713.9	553.8
714.307	559
714.715	547.2
715.123	554.4
715.53	557
715.938	557.4
716.367	553.6
716.775	550
717.184	545.2
717.592	549
718	556.8
718.408	577.4
718.816	585.2
719.225	558.4
719.633	553.4
720.042	549.2
720.472	549.2
720.881	565.6
721.29	557
721.699	546
722.108	552.8
722.517	547
722.926	549.4
723.335	561
723.744	558.2
724.154	549.2
724.563	554.2
724.973	555.6
725.382	553.6
725.792	555
726.202	553.6
726.612	570.6
727.022	553
727.432	555
779.813	546.6
780.223	595
780.634	545
781.044	552.4
781.454	553.4
781.865	560.6
782.276	541.4
782.686	560
783.097	547.8
783.508	548.6
783.919	551.8
784.33	549.6
784.741	558.6
785.152	546.6
785.563	545.8
785.974	545
786.386	550.8
786.776	546.6
787.188	553.2
787.599	547
788.011	551.8
788.423	551.4
788.835	547.8
789.247	539.6
789.659	548.4
790.071	552
790.483	581.4
790.874	544.6
791.286	546.4
791.699	543.8
792.111	549.4
792.524	555.4
792.937	553.8
793.349	547.8
793.741	540.8
794.154	543.4
794.567	564.6
794.98	553.4
795.393	541
795.785	564.6
796.198	550.2
796.612	557
797.026	547
797.439	536.2
797.831	539.8
798.245	544.2
798.659	549
799.073	549.8
799.487	545.2
799.88	548.8
800.294	548.4
800.708	551.8
801.123	552.6
801.516	564.8
801.93	550
802.345	536.6
802.76	553
803.153	561.8
803.568	557
803.983	558.2
804.377	554.2
804.792	544.2
805.207	543.8
805.601	559.4
806.016	575.4
806.432	553
806.826	576.2
807.242	567.2
807.658	554.6
808.052	552.2
808.468	548.6
808.884	547
809.279	544
809.695	557.2
810.111	565.4
810.506	554.8
810.922	556
811.339	538.6
811.734	548.2
812.151	549
812.546	547.8
812.963	545.8
813.38	551.2
813.776	550
814.193	561.2
814.589	541.4
815.006	538.4
815.402	541.6
815.82	545.2
816.237	545.4
816.633	547.8
817.051	540.2
817.448	548
817.866	543.6
818.262	557.6
818.68	543.6
819.077	543.8
819.495	537
819.892	579.4
820.311	544.4
820.708	536.8
821.127	542.4
821.524	556.6
821.943	545.8
822.34	560.6
822.759	552.8
823.157	541
823.576	564.2
823.974	551.4
824.393	558.4
824.791	548.4
825.189	538.8
825.609	546.6
826.007	541
826.427	541.8
826.826	546.8
827.246	553
827.644	544
828.043	553.4
828.463	548.4
828.862	560.8
829.261	559
829.682	541.4
830.081	553.2
830.502	547.8
830.901	552.2
831.301	554.4
831.722	546.4
832.121	545
832.521	550.2
832.943	550.2
833.342	551.4
833.742	539.6
834.164	545.6
834.564	548.4
834.965	543.2
835.386	543
835.787	549.4
836.188	542.8
836.588	553.8
837.01	548.6
837.411	541.2
837.812	548.6
838.213	554.6
838.636	539.6
839.037	601.2
839.438	541.8
839.84	550.6
840.263	555.2
840.664	544.6
841.066	549.2
841.468	543
841.891	538
842.293	552.4
842.695	553
843.098	546.4
843.5	542
843.902	556.4
844.326	551.6
844.729	549.8
845.131	551.8
845.534	546.6
845.937	554.2
846.34	555.6
846.764	541
847.167	555.6
847.571	540.8
847.974	544.8
848.377	546.4
848.781	585.6
849.184	549
849.588	540
849.992	544.2
850.396	551.2
850.821	562.4
851.225	546.4
851.63	542.2
852.034	554.4
852.438	547.8
852.843	564.4
853.247	534.4
853.652	536.2
854.057	557.4
854.462	543.6
854.867	547.6
855.272	569.6
855.677	553.4
856.082	544.6
856.487	536
