#lambda/nm	C1
208.295	547
208.67	489.8
209.045	456.6
209.419	455
209.794	596.6
210.169	589.4
210.544	690.2
210.919	611
211.295	587.2
211.67	597.4
212.045	596.8
212.421	584.2
212.796	623.4
213.172	597
213.547	597.8
213.923	601
214.299	592.6
214.675	612.2
215.051	600.4
215.427	604.4
215.803	615.2
216.179	603.2
216.555	591.6
216.932	605.2
217.308	591.2
217.684	597.8
218.061	595.4
218.438	605.2
218.814	595
219.191	599.2
219.568	591
219.945	588.8
220.322	600
220.699	599.4
221.076	596.6
221.453	597
221.83	581.4
222.208	599
222.585	589.4
222.962	601
223.34	600.2
223.717	602.8
224.095	590.8
224.473	592
224.851	590.8
225.229	585.6
225.607	610
225.985	589.6
226.363	596.8
226.741	594.6
227.119	592.6
227.497	604.8
227.876	580.2
228.254	598.8
228.633	597.4
229.011	600.2
229.39	598.8
229.769	600.2
230.148	601.2
230.527	608.2
230.905	595.2
231.284	599
231.664	592.4
232.043	609.8
232.422	609
232.801	591
233.181	596.8
233.56	593.4
233.94	605
234.319	579.4
234.699	593
235.079	628
235.458	628.2
235.838	609.6
236.218	592
236.598	594.6
236.978	591.6
237.358	589.4
237.738	593.8
238.119	603.2
238.499	594.2
238.88	598.2
239.26	606.6
239.641	586.4
240.021	596.8
240.402	591.2
240.783	590
241.163	598.8
241.544	603.8
241.925	596.8
242.306	604
242.687	602.8
243.069	598.8
243.45	600.6
243.831	598.8
244.212	597
244.594	625
244.975	600.8
245.357	602.4
245.739	590.4
246.12	595.2
246.502	610.2
246.884	602.2
247.266	593.2
247.648	596.4
248.03	619.8
248.412	595
248.794	589.2
249.176	586
249.559	603.2
249.941	585.6
250.323	589
250.706	588.6
251.089	593.6
251.471	589.6
251.854	584.8
252.237	594
252.62	602.2
253.002	595
253.385	597
253.769	606.4
254.152	595.2
254.535	596.6
254.918	589.6
255.301	603.4
255.685	596.4
256.068	589.8
256.452	617
256.835	606.2
257.219	596.2
257.603	609.8
257.986	589
258.37	599.8
258.754	582.2
259.138	612.2
259.522	602.2
259.906	594.8
260.29	599
260.675	596.8
261.059	596.4
261.443	584.4
261.828	601.2
262.212	596.8
262.597	576.8
262.981	589.2
263.366	597.4
263.751	595
264.136	582
264.521	591.2
264.906	584.2
265.291	600.4
265.676	594
266.061	600.8
266.446	599.6
266.831	593.6
267.217	602.8
267.602	590.8
267.987	600
268.373	592.4
268.759	604.2
269.144	602.6
269.53	590.8
269.916	587.2
270.302	591.2
270.688	598
271.074	590.8
271.46	603.8
271.846	622.6
272.232	594
272.618	589.2
273.004	603.6
273.391	609
273.777	607.8
274.164	598
274.55	610.6
274.937	599
275.324	601.2
275.71	601.8
276.097	596.2
276.484	597.2
276.871	604.2
277.258	599
277.645	583.6
278.032	598.8
278.419	590.8
278.807	604.8
279.194	587.2
279.581	587.2
279.969	601.4
280.356	600.4
280.744	604.8
281.131	617.8
281.519	606.6
281.907	587.2
282.295	590.8
282.682	606
283.07	602.6
283.458	603.4
283.846	607.8
284.235	611.4
284.623	605.4
285.011	590.8
285.399	605.2
285.788	594.2
286.176	580.2
286.565	607.6
286.953	597.2
287.342	593.8
287.731	586.6
288.119	585.6
288.508	593.8
288.897	598.2
289.286	585.6
289.675	594.4
290.064	599
290.453	598.4
290.821	593.2
291.21	614.4
291.599	586
291.989	595.8
292.378	596
292.768	616.6
293.157	599.4
293.547	603.8
293.936	594.4
294.326	592.8
294.716	593.2
295.106	586.2
295.496	599.6
295.886	604.2
296.276	590.4
296.666	594
297.056	590
297.446	592
297.836	610
298.227	597.8
298.617	600.2
299.008	606.4
299.398	597.8
299.789	593.2
300.179	599.8
300.57	606
300.961	599.6
301.352	594
301.742	608.8
302.133	602.8
302.524	597.8
302.915	593.4
303.307	587.8
303.698	609.4
304.089	599.6
304.48	595.8
304.872	605
305.263	600.6
305.655	589.8
306.046	604.2
306.438	601
306.829	593.8
307.221	600
307.613	603.8
308.005	604.8
308.397	607.4
308.789	616.6
309.181	619.4
309.573	614.2
309.965	610.2
310.357	591.2
310.749	601.2
311.142	587.8
311.534	597.2
311.926	600.4
312.319	600.2
312.711	593.8
313.104	612.2
313.497	596.8
313.889	624.4
314.282	606
314.675	623.4
315.068	599
315.461	596.8
315.854	622.2
316.247	601.8
316.64	594
317.033	597.4
317.405	608.6
317.798	600.6
318.192	602
318.585	589.4
318.979	598
319.372	593
319.766	591
320.16	607.2
320.553	606.8
320.947	610.8
321.341	591
321.735	588.8
322.129	583.6
322.523	622.8
322.917	597.2
323.311	606
323.705	598.6
324.099	598.8
324.494	610.8
324.888	604.2
325.282	602.4
325.677	608.2
326.071	603.6
326.466	603.8
326.861	594.8
327.255	605.2
327.65	605
328.045	609.6
328.44	604.6
328.835	600.6
329.23	591
329.625	610.2
330.02	599
330.415	625.4
330.81	593.2
331.206	596
331.601	595
331.996	611.6
332.37	613.6
332.766	593.8
333.161	611.6
333.557	605
333.953	597.8
334.348	910.6
334.744	605.8
335.14	597.8
335.536	589.8
335.932	604.2
336.328	593
336.724	601
337.12	594.8
337.516	600.4
337.913	599.2
338.309	612
338.705	591.2
339.102	602.8
339.498	593.4
339.895	607.8
340.291	592.6
340.688	604.8
341.085	580.8
341.481	595
341.878	595.4
342.275	609.4
342.672	589.8
343.069	592.4
343.466	581.6
343.842	606.8
344.239	591.8
344.636	595.2
345.033	584
345.431	584
345.828	589.2
346.225	594
346.623	623.8
347.02	591.4
347.418	601.6
347.816	607.6
348.213	583.8
348.611	601.2
349.009	590.8
349.407	601.6
349.805	588.6
350.203	582
350.601	607.2
350.999	586
351.397	640.2
351.795	593.4
352.193	601
352.57	597
352.969	606.2
353.367	586.6
353.766	588.4
354.164	589
354.563	601.4
354.961	592.8
355.36	593.4
355.759	595.2
356.158	586.2
356.557	588.8
356.956	591.4
357.355	584.2
357.754	598.2
358.153	601.8
358.552	609.2
358.951	591
359.35	597.4
359.75	586.8
360.149	581
360.527	581.2
360.926	578.2
361.326	588.2
361.726	583.4
362.125	579.2
362.525	597.6
362.925	583
363.325	589.2
363.724	585.8
364.124	578
364.524	579.8
364.924	583.6
365.324	595.8
365.725	575.6
366.125	599.4
366.525	588.2
366.904	581.6
367.304	574.2
367.705	604
368.105	600
368.506	586
368.906	591.8
369.307	587.2
369.708	593.4
370.108	583.2
370.509	593.4
370.91	587
371.311	594
371.712	590.2
372.113	595.8
372.514	578.4
372.894	593.2
373.295	588.2
373.696	601.4
374.097	596.8
374.499	608.6
374.9	593
375.301	583.4
375.703	589.8
376.105	582.6
376.506	602.4
376.908	599.2
377.309	590.6
377.711	587.2
378.113	582.4
378.493	595
378.895	578.8
379.297	601.4
379.699	573.6
380.102	592.8
380.504	584.8
380.906	585.4
381.308	613.6
381.71	593.2
382.113	596.8
382.515	590.6
382.918	595.6
383.299	590
383.701	598.4
384.104	590.2
384.507	572.4
384.909	582.8
385.312	579.4
385.715	582.2
386.118	589
386.521	585.2
386.924	596.4
387.327	590.6
387.709	583
388.112	584
388.515	587.8
388.918	586.8
389.322	590.8
389.725	583.4
390.129	603.4
390.532	591.4
390.936	589.4
391.339	584.8
391.743	588.2
392.125	589.8
392.529	598.6
392.933	604
393.337	594.4
393.74	593.8
394.144	589.6
394.548	582.8
394.953	590.6
395.357	600.2
395.761	585
396.144	587
396.548	595
396.952	586.6
397.357	586
397.761	585
398.166	593
398.57	593.8
398.975	577.6
399.379	594.4
399.763	630
400.168	588.4
400.572	593.8
400.977	587
401.382	600
401.787	594.2
402.192	606
402.597	602.6
403.002	576.4
403.386	604.8
403.791	606.8
404.197	583.4
404.602	583.8
405.007	585
405.413	583.2
405.818	586
406.224	582.6
406.608	581.6
407.014	580.8
407.42	603.8
407.825	586.4
408.231	597.6
408.637	591
409.043	599
409.449	584.6
409.834	584.6
410.24	588.6
410.646	609
411.052	594.2
411.458	596.8
411.865	592.4
412.271	591.4
412.677	587.6
413.062	588.6
413.469	578.8
413.875	617.6
414.282	603.2
414.689	591.8
415.095	600.6
415.502	589
415.888	590.6
416.294	572.2
416.701	621.2
417.108	582.6
417.515	597.2
417.923	580.2
418.33	611.8
418.715	588.4
419.123	585.2
419.53	580.2
419.937	587
420.345	602.8
420.752	586.2
421.16	593.4
421.546	593.2
421.953	595
422.361	579.8
422.769	593
423.177	586.6
423.585	614
423.992	614.4
424.379	602
424.787	604.8
425.195	607.8
425.603	593
426.011	601
426.419	603.4
426.806	593
427.214	601.2
427.623	608.8
428.031	607.2
428.44	598.6
428.848	601.2
429.235	602.6
429.644	598
430.053	591
430.461	605.4
430.87	612.8
431.279	602.6
431.666	587.8
432.075	590.2
432.484	596.2
432.893	589.2
433.302	612.4
433.711	622.6
434.099	598.4
434.508	598.6
434.918	586.2
435.327	599.8
435.737	597.8
436.125	592.8
436.534	590.2
436.944	593.2
437.353	599.6
437.763	615.8
438.173	588.6
438.561	596.2
438.971	581.4
439.381	590.6
439.791	588.8
440.201	571.2
440.589	580
440.999	600.2
441.409	589.4
441.819	578.2
442.23	595.2
442.619	596.8
443.029	592.6
443.439	588.8
443.85	601
444.26	603.4
444.649	594
445.06	587.2
445.471	584.8
445.881	592.4
446.292	606.8
446.682	606.4
447.092	581.2
447.503	629.8
447.914	589
448.325	585.2
448.715	594
449.126	581.6
449.537	585
449.948	585.2
450.338	591
450.75	590.8
451.161	587.2
451.572	598.4
451.984	588.4
452.374	577.6
452.786	593.4
453.197	585.4
453.609	596.6
453.999	575.8
454.411	586.2
454.823	597.6
455.235	593
455.647	587.6
456.037	585
456.449	575.2
456.862	585.2
457.274	582
457.665	576.6
458.077	582.8
458.489	607.4
458.902	585
459.293	580.4
459.705	580.8
460.118	585.6
460.53	580.4
460.921	579
461.334	585
461.747	584.4
462.16	589
462.551	591.6
462.964	591.2
463.377	573.8
463.79	573.2
464.182	591.8
464.595	580.8
465.008	588.8
465.421	588.2
465.813	574.6
466.226	588.4
466.64	582
467.053	614
467.445	586.4
467.859	594.8
468.272	587.2
468.686	592
469.078	585.2
469.492	581
469.906	589.2
470.298	587.6
470.712	577.6
471.126	629.2
471.54	578.6
471.933	579.4
472.347	580.2
472.761	581.6
473.175	579.4
473.568	581.2
473.982	581.2
474.397	587.4
474.79	585.4
475.204	592
475.619	587.4
476.033	586.6
476.426	585.4
476.841	574.2
477.256	599.4
477.649	580.8
478.064	579.4
478.479	574.8
478.872	571.2
479.287	570.8
479.702	574.4
480.118	582.2
480.511	579.4
480.927	580.2
481.342	576.8
481.736	582.2
482.151	577.6
482.566	591.4
482.96	587.4
483.376	593.4
483.792	573
484.186	581.2
484.602	576
485.017	581.2
485.412	575.8
485.827	581.2
486.243	589
486.638	600
487.054	586.6
487.47	593.6
487.865	577.4
488.281	582.6
488.697	574.2
489.092	581.8
489.508	578.2
489.925	585
490.32	581.4
490.736	582.2
491.153	582.4
491.548	581.2
491.964	592.4
492.381	565.8
492.776	591.4
493.193	583
493.61	588.8
494.006	577
494.422	578.2
494.84	575.6
495.235	582.8
495.652	579
496.069	578.8
496.465	568.2
496.883	579.4
497.3	596.8
497.696	577.2
498.113	590.8
498.509	570.2
498.927	578.8
499.344	574.4
499.741	569.2
500.158	586.8
500.576	586.6
500.973	580.8
501.39	570.4
501.787	576.4
502.205	589.6
502.623	574.4
503.02	576.8
503.438	576
503.856	584.6
504.253	576.6
504.671	582.2
505.068	575.8
505.486	582.4
505.905	599.2
506.302	579.4
506.72	587
507.118	567.6
507.536	577
507.955	580.4
508.352	584.2
508.771	588
509.169	590
509.587	574.4
510.006	589.2
510.404	573
510.823	580.2
511.221	578
511.64	578.2
512.038	587.2
512.457	572.6
512.877	575.8
513.275	568.2
513.694	581.2
514.092	576.8
514.512	584.6
514.91	582.6
515.33	576.8
515.749	580
516.148	588
516.568	583.2
516.966	572.8
517.386	575.4
517.785	579.4
518.205	576.4
518.603	574
519.024	575.4
519.444	582
519.843	583.8
520.263	588.4
520.662	584.2
521.082	571.4
521.481	580.2
521.902	578.2
522.301	581.2
522.722	575.8
523.121	577.6
523.542	587.2
523.963	570.4
524.362	582
524.783	584
525.183	571
525.604	576.2
526.003	575.8
526.425	583.8
526.824	582.2
527.246	578.8
527.646	583.8
528.067	579.8
528.467	581.6
528.888	584.2
529.289	579.4
529.71	576.6
530.11	575.4
530.532	578
530.932	565.4
531.354	580.4
531.755	606.4
532.176	587.8
532.577	575.6
532.999	572.8
533.4	576.6
533.822	596.6
534.223	590.8
534.645	581.2
535.046	584
535.468	578.2
535.869	597.6
536.292	576.8
536.693	610.4
537.115	573.4
537.516	579.6
537.939	575.2
538.34	591.6
538.742	584.2
539.165	581.6
539.566	587.2
539.989	573.4
540.391	567.6
540.814	575.4
541.216	583.8
541.639	579.2
542.041	576.4
542.464	576.4
542.866	572
543.268	565.6
543.691	584.6
544.093	579.2
544.517	590.8
544.919	576.2
545.343	590.2
545.745	564.2
546.147	577.4
546.571	572.4
546.974	576.8
547.398	579.2
547.8	586.6
548.224	568.4
548.627	568.6
549.03	580.2
549.454	573.8
549.857	565.4
550.281	570
550.684	575
551.087	591.6
551.512	580.6
551.915	583.6
552.34	576.2
552.743	576
553.146	569.4
553.571	573.6
553.975	591
554.399	574.8
554.803	614
555.207	571.6
555.632	568
556.036	576.6
556.461	565.6
556.865	575.2
557.268	566.4
557.694	571
558.098	577.8
558.502	583.6
558.927	574
559.332	578.6
559.736	574.8
560.162	581.8
560.566	572.4
560.992	583.2
561.396	571.6
561.801	573
562.227	575
562.631	580.8
563.036	574.6
563.462	585.6
563.867	581.8
564.272	571.2
564.698	582.4
565.103	569.8
565.508	594
565.935	577.6
566.34	577.4
566.745	591
567.172	577.8
567.577	597.2
567.982	583.2
568.409	576.4
568.815	576
569.22	579.2
569.626	581.6
570.053	563.8
570.459	585.8
570.865	577.2
571.292	579.2
571.698	578
572.104	566.4
572.531	577
572.937	587.6
573.343	568.6
573.75	574.8
574.177	586.2
574.583	587.4
574.99	570
575.396	582.6
575.824	569
576.231	582
576.637	570.6
577.065	600.8
577.472	572.2
577.879	575.6
578.286	591
578.714	575
579.121	575.2
579.528	573.2
579.935	578.8
580.364	577.4
580.771	564.6
581.178	575.8
581.585	578.2
582.014	583
582.421	573.2
582.829	571.2
583.236	582.8
583.644	567.4
584.073	574.8
584.481	580.8
584.889	571.6
585.296	589.8
585.726	576.8
586.134	569.8
586.542	577
586.95	594.4
587.358	565.4
587.787	581.8
588.196	587.6
588.604	573.6
589.012	580.6
589.421	573.6
589.851	570.4
590.259	581.2
590.668	569.4
591.076	605.6
591.485	566
591.894	579
592.324	586
592.733	588
593.142	569
593.551	567
593.96	574.8
594.369	570.8
594.8	567
595.209	571.2
595.618	560
596.028	569.2
596.437	561.8
596.847	572.4
597.256	573
597.687	584.6
598.097	575.8
598.507	565.8
598.917	576
599.327	588.2
599.736	582.2
600.146	580.4
600.556	577.6
600.988	589.6
601.398	576.2
601.808	588.6
602.219	571.4
602.629	574
603.039	574.6
603.45	593.8
603.86	572.2
604.271	594.6
604.703	581.2
605.114	568
605.525	579.2
605.935	583.8
606.346	593.2
606.757	579.6
607.168	587.8
607.579	571.2
607.99	590.4
608.402	584.6
608.813	579
609.224	579.4
609.636	563.2
610.047	573.2
610.48	574.2
610.892	580
611.303	582.4
611.715	570.8
612.127	568.6
612.539	581
612.95	570.6
613.362	563.8
613.774	565.8
614.186	570
614.599	569.8
615.011	578.4
615.423	566.6
615.835	569.6
616.248	570.2
616.66	577.8
617.073	566.4
617.485	574.8
617.898	587.8
618.311	573.4
618.723	570.8
619.136	597.6
619.549	581.6
619.962	594.2
620.375	574.6
620.788	582.4
621.201	575
621.614	581
622.028	574.4
622.441	580.8
622.854	584.6
623.268	573.4
623.681	590.6
624.095	577.8
624.509	585.4
624.922	590.6
625.336	559
625.728	579
626.142	577.8
626.556	592
626.97	582
627.384	573.4
627.799	576.8
628.213	584
628.627	576.2
629.041	570.4
629.456	568.4
629.87	581.6
630.285	583.4
630.699	585.8
631.093	578.4
631.507	575
631.922	579
632.337	584.4
632.752	568.2
633.167	576.4
633.582	573
633.997	570.2
634.412	564.6
634.806	578.2
635.221	567.6
635.637	588.8
636.052	568
636.468	577.6
636.883	593.8
637.299	576.6
637.715	559.2
638.109	572.6
638.525	565.2
638.941	584.8
639.357	566.4
639.773	584.6
640.189	571.2
640.584	572.2
641	576
641.416	568.2
641.832	567.4
642.249	567.8
642.665	569.2
643.06	575.8
643.477	585
643.894	554.2
644.31	574.4
644.727	572.4
645.123	569.6
645.54	564.6
645.957	573.6
646.374	586
646.77	577.2
647.187	592.8
647.604	575.2
648.021	560.6
648.439	566.6
648.835	576.2
649.252	570.6
649.67	570.6
650.088	575.4
650.484	578
650.902	572.6
651.32	579.8
651.738	577.4
652.134	571.8
652.552	585
652.971	572.8
653.389	568
653.786	575
654.204	583.4
654.622	564.4
655.019	570.8
655.438	564.2
655.857	567.6
656.275	574.4
656.673	561
657.091	573.6
657.51	568.6
657.908	582
658.327	582
658.746	557
659.144	574.8
659.563	578.8
659.982	575.8
660.38	567.8
660.8	573.8
661.219	577.4
661.617	582.2
662.037	573.4
662.457	587.8
662.855	561.8
663.275	592.6
663.695	569
664.094	574
664.514	576.4
664.934	566.2
665.333	579
665.753	574
666.152	565.6
666.572	572.6
666.993	584.4
667.392	567.2
667.812	572.4
668.212	568.8
668.632	577
669.053	567.8
669.453	574.4
669.874	573.6
670.273	576.2
670.694	571.4
671.116	577.8
671.515	578.4
671.937	571.4
672.337	578.6
672.758	573.6
673.158	583.4
673.58	566.4
673.98	566.6
674.402	577
674.824	568.6
675.224	565.6
675.646	569.6
676.047	571
676.469	569.8
676.869	580.6
677.292	579.2
677.693	569.2
678.115	570.2
678.516	577.4
678.939	573.4
679.34	566.6
679.762	584
680.164	574.4
680.586	572
680.988	579.6
681.411	592
681.812	571
682.236	564.4
682.637	565.6
683.061	567
683.462	571
683.864	570.4
684.288	574.4
684.69	560.6
685.114	570.6
685.516	572.6
685.94	564.2
686.342	576.2
686.766	561
687.168	575.4
687.571	585
687.995	573.6
688.398	562.2
688.822	571.8
689.225	577.8
689.628	579.6
690.052	562.8
690.456	572.4
690.88	569.2
691.284	560.6
691.687	575
692.112	562.8
692.515	563.6
692.919	576.6
693.344	568.4
693.747	568.2
694.173	571.6
694.577	576.8
694.98	573
695.406	565
695.81	574.2
696.214	569.8
696.64	577
697.044	575.4
697.448	576.6
697.874	572.4
698.279	576
698.684	562.2
699.11	556.2
699.514	566.6
699.919	567.2
700.324	562.8
700.75	574.2
701.156	572.8
701.561	579.2
701.987	567.2
702.393	580.4
702.798	580
703.203	573.4
703.63	576.6
704.036	572.2
704.442	571.6
704.847	565.2
705.274	571
705.68	574.4
706.086	570.4
706.492	565
706.92	566.2
707.326	580.4
707.732	563.8
708.139	565.8
708.545	564.8
708.973	567
709.38	560
709.786	561
710.193	584.2
710.6	566.8
711.028	564.2
711.435	560
711.842	564.4
712.249	564.8
712.656	562.2
713.064	573
713.492	563
713.9	565.8
714.307	578
714.715	566
715.123	567.2
715.53	572.8
715.938	581.4
716.367	572.4
716.775	569.2
717.184	564.4
717.592	569.2
718	571.2
718.408	597.6
718.816	610.8
719.225	575.4
719.633	572.2
720.042	570.6
720.472	566.6
720.881	584.4
721.29	577.8
721.699	562.2
722.108	569.4
722.517	576.2
722.926	565.6
723.335	574.2
723.744	571
724.154	576
724.563	573.6
724.973	575.6
725.382	564.4
725.792	564.6
726.202	563.2
726.612	585.4
727.022	571.6
727.432	566
779.813	560.8
780.223	602.6
780.634	576.8
781.044	564.6
781.454	568
781.865	576.2
782.276	564.4
782.686	573.2
783.097	562.4
783.508	575.2
783.919	573.2
784.33	575.6
784.741	579.2
785.152	569.6
785.563	558.8
785.974	559.2
786.386	572
786.776	565.4
787.188	569.2
787.599	559
788.011	572.2
788.423	570.6
788.835	562.6
789.247	565
789.659	561
790.071	561.6
790.483	598.2
790.874	566.8
791.286	571.2
791.699	570.4
792.111	571.2
792.524	564.6
792.937	566.8
793.349	559
793.741	562.2
794.154	560.2
794.567	579
794.98	564
795.393	554
795.785	573
796.198	558.6
796.612	565.6
797.026	570.2
797.439	551.4
797.831	566.2
798.245	564.2
798.659	567.4
799.073	568
799.487	556.6
799.88	562.2
800.294	565.6
800.708	568.6
801.123	559.8
801.516	576.6
801.93	550.6
802.345	544.8
802.76	568.2
803.153	581.4
803.568	568.8
803.983	570.8
804.377	566.8
804.792	546.8
805.207	551.6
805.601	564
806.016	594.6
806.432	559.8
806.826	592.8
807.242	578.2
807.658	563.6
808.052	564.6
808.468	563.2
808.884	567
809.279	566.8
809.695	585.8
810.111	590.4
810.506	577.6
810.922	580.8
811.339	559.6
811.734	573.6
812.151	563.6
812.546	560.4
812.963	559.6
813.38	570
813.776	563.6
814.193	584
814.589	564.8
815.006	558.6
815.402	563
815.82	571.2
816.237	578.4
816.633	568
817.051	563.2
817.448	566.6
817.866	560.4
818.262	578.8
818.68	571.4
819.077	567.8
819.495	569.6
819.892	594.6
820.311	560.2
820.708	553.4
821.127	569
821.524	577
821.943	567.4
822.34	583.2
822.759	571.2
823.157	574.2
823.576	570
823.974	574.4
824.393	601.8
824.791	561
825.189	559
825.609	563.6
826.007	564.8
826.427	554.8
826.826	566.6
827.246	575.8
827.644	558.8
828.043	570.4
828.463	568.4
828.862	569.2
829.261	564.4
829.682	557.8
830.081	574.8
830.502	558.4
830.901	563.6
831.301	581.4
831.722	554.4
832.121	561.2
832.521	556.4
832.943	569.6
833.342	570.2
833.742	558
834.164	563.4
834.564	560.8
834.965	565.2
835.386	559.8
835.787	563
836.188	564
836.588	565.2
837.01	566.4
837.411	558.4
837.812	567.4
838.213	569
838.636	566.6
839.037	626.8
839.438	571.6
839.84	570.2
840.263	575.4
840.664	571.8
841.066	566.2
841.468	563.6
841.891	560.2
842.293	570.4
842.695	571
843.098	569.4
843.5	569.4
843.902	569
844.326	573.8
844.729	569.6
845.131	580.6
845.534	571.8
845.937	578.2
846.34	577.2
846.764	555
847.167	569.6
847.571	560.6
847.974	561.6
848.377	562.4
848.781	610.4
849.184	578.4
849.588	564.2
849.992	565.6
850.396	572
850.821	583.2
851.225	577.6
851.63	563.4
852.034	579.4
852.438	564.2
852.843	630.2
853.247	552.6
853.652	553.2
854.057	581.8
854.462	569.2
854.867	566.2
855.272	589.8
855.677	571
856.082	556.4
856.487	555.6
