#lambda/nm	C1
208.295	536.6
208.67	480.6
209.045	445.6
209.419	448
209.794	606.2
210.169	601.4
210.544	702.6
210.919	619
211.295	593.6
211.67	609.2
212.045	605.4
212.421	605.6
212.796	642.8
213.172	601.8
213.547	602.2
213.923	608.2
214.299	598.6
214.675	606.2
215.051	609.4
215.427	613.4
215.803	626.4
216.179	614.4
216.555	602.2
216.932	619.6
217.308	603.8
217.684	608.6
218.061	615.6
218.438	609
218.814	607.2
219.191	607.4
219.568	600
219.945	603.6
220.322	614.6
220.699	604.4
221.076	608.6
221.453	607.8
221.83	596
222.208	605
222.585	608.4
222.962	609.4
223.34	611.4
223.717	606
224.095	603
224.473	611
224.851	610.2
225.229	599
225.607	617.8
225.985	596.6
226.363	603.4
226.741	607
227.119	597.2
227.497	616
227.876	597.2
228.254	614.8
228.633	603.8
229.011	610.8
229.39	613.4
229.769	610
230.148	604.2
230.527	635
230.905	602.8
231.284	612
231.664	602.6
232.043	623.4
232.422	610
232.801	606.8
233.181	606.6
233.56	601.8
233.94	604.6
234.319	591.4
234.699	602.8
235.079	640
235.458	642
235.838	616.6
236.218	602.8
236.598	594.8
236.978	593.8
237.358	602
237.738	605.4
238.119	605.8
238.499	595
238.88	605.2
239.26	615.6
239.641	595.4
240.021	595.8
240.402	605
240.783	598.8
241.163	599
241.544	611
241.925	605.6
242.306	615.6
242.687	612.4
243.069	610
243.45	615.2
243.831	597.4
244.212	604
244.594	635.2
244.975	614
245.357	607
245.739	603.8
246.12	604.4
246.502	622.4
246.884	600.6
247.266	599.4
247.648	605.4
248.03	621
248.412	602
248.794	615.4
249.176	600.8
249.559	612.4
249.941	598.8
250.323	595
250.706	596
251.089	604
251.471	611.2
251.854	606.6
252.237	592.8
252.62	609.6
253.002	599.8
253.385	606.4
253.769	616.6
254.152	606.2
254.535	605.4
254.918	593.6
255.301	606.8
255.685	608
256.068	595.8
256.452	628.2
256.835	612.8
257.219	606.8
257.603	627.2
257.986	598.6
258.37	620
258.754	597.8
259.138	626.4
259.522	619.6
259.906	603.6
260.29	601.6
260.675	600.2
261.059	604.6
261.443	593.4
261.828	615.2
262.212	612
262.597	598.4
262.981	605.8
263.366	607.4
263.751	605.2
264.136	605
264.521	602.4
264.906	605.2
265.291	614.8
265.676	594
266.061	615.2
266.446	624.6
266.831	607
267.217	616.2
267.602	610.2
267.987	604
268.373	600.2
268.759	615.8
269.144	613.2
269.53	606.6
269.916	601.2
270.302	600
270.688	604.6
271.074	608.4
271.46	612.6
271.846	632
272.232	599
272.618	598.8
273.004	599.8
273.391	622.8
273.777	625.2
274.164	609.4
274.55	622
274.937	615.8
275.324	602.4
275.71	608.6
276.097	610.4
276.484	602.2
276.871	608.4
277.258	608.6
277.645	588.8
278.032	599
278.419	602.8
278.807	603
279.194	602
279.581	592.6
279.969	611.2
280.356	610.8
280.744	615.8
281.131	633
281.519	614.2
281.907	605.2
282.295	603.8
282.682	617.4
283.07	603.6
283.458	616.6
283.846	620.8
284.235	614.8
284.623	616
285.011	605.4
285.399	615
285.788	611.4
286.176	589.4
286.565	615.8
286.953	601.2
287.342	609.2
287.731	606.6
288.119	603.2
288.508	605.8
288.897	611.4
289.286	593.2
289.675	615.8
290.064	618.4
290.453	604.8
290.821	608.8
291.21	617.8
291.599	601
291.989	607.4
292.378	613.8
292.768	620.2
293.157	613.4
293.547	611
293.936	608.8
294.326	605.8
294.716	608.4
295.106	603
295.496	615.8
295.886	615.8
296.276	598.6
296.666	597.4
297.056	593.4
297.446	598.2
297.836	621.6
298.227	610.8
298.617	614.4
299.008	619
299.398	602.4
299.789	602.8
300.179	612.2
300.57	616
300.961	612.6
301.352	606.2
301.742	616
302.133	609.2
302.524	612.2
302.915	605.2
303.307	605.8
303.698	617.8
304.089	615.4
304.48	609.4
304.872	609
305.263	608.2
305.655	598.8
306.046	615.2
306.438	610.8
306.829	600.4
307.221	622.6
307.613	614
308.005	622.6
308.397	620
308.789	631
309.181	633
309.573	623
309.965	618.6
310.357	606.8
310.749	615.4
311.142	602.2
311.534	606.8
311.926	613.2
312.319	608
312.711	607
313.104	620.2
313.497	610.2
313.889	643
314.282	627.6
314.675	626.6
315.068	606.6
315.461	609.6
315.854	642.2
316.247	615.6
316.64	604.6
317.033	612
317.405	609.4
317.798	605.8
318.192	612
318.585	605
318.979	615.6
319.372	601.2
319.766	611.4
320.16	615
320.553	617.8
320.947	627.4
321.341	605.2
321.735	602.6
322.129	597.2
322.523	629.8
322.917	601
323.311	621.2
323.705	611.6
324.099	614.2
324.494	624.4
324.888	613.2
325.282	608.4
325.677	615.8
326.071	606.8
326.466	621.2
326.861	612.8
327.255	618.4
327.65	616.8
328.045	619.4
328.44	612.6
328.835	614.2
329.23	606.8
329.625	627.2
330.02	598.4
330.415	620.4
330.81	609
331.206	606.6
331.601	607.2
331.996	612
332.37	623
332.766	601.2
333.161	625.2
333.557	606.4
333.953	615.4
334.348	940
334.744	604.2
335.14	607
335.536	603.6
335.932	619
336.328	608.4
336.724	615.6
337.12	609.4
337.516	604.8
337.913	607
338.309	625.2
338.705	605.4
339.102	623
339.498	602
339.895	618.4
340.291	603.6
340.688	611
341.085	596.4
341.481	605.2
341.878	599.2
342.275	622.6
342.672	592.2
343.069	600
343.466	591
343.842	612.8
344.239	594
344.636	601.6
345.033	595.6
345.431	601
345.828	599.6
346.225	606.6
346.623	630.2
347.02	604
347.418	605
347.816	620.4
348.213	603.8
348.611	610.4
349.009	601.4
349.407	612.2
349.805	595.2
350.203	589
350.601	608
350.999	600
351.397	661.6
351.795	601
352.193	615.6
352.57	611.6
352.969	617.8
353.367	593.6
353.766	590.6
354.164	603.8
354.563	609.6
354.961	604.8
355.36	593.8
355.759	606
356.158	593.6
356.557	592.6
356.956	592.8
357.355	592.2
357.754	607
358.153	613.2
358.552	619.8
358.951	606.6
359.35	612.6
359.75	600.4
360.149	593.6
360.527	590.4
360.926	590.8
361.326	605.8
361.726	596.6
362.125	596
362.525	619.6
362.925	603.4
363.325	605.2
363.724	605.8
364.124	597.4
364.524	596.4
364.924	591.4
365.324	616.6
365.725	590
366.125	599.4
366.525	600.8
366.904	590.4
367.304	581
367.705	617.8
368.105	620
368.506	602.4
368.906	593.6
369.307	599.2
369.708	601.2
370.108	596.2
370.509	605.2
370.91	595.6
371.311	597.4
371.712	599.8
372.113	596
372.514	592.4
372.894	601.8
373.295	596.2
373.696	615.2
374.097	610.4
374.499	622.8
374.9	601.2
375.301	585.6
375.703	593.8
376.105	591.8
376.506	616.4
376.908	603.4
377.309	605.2
377.711	600.8
378.113	600.8
378.493	598.2
378.895	592
379.297	604.4
379.699	581.8
380.102	604.6
380.504	596.8
380.906	595
381.308	614.8
381.71	592
382.113	602.2
382.515	599.4
382.918	599.4
383.299	599
383.701	602
384.104	601.2
384.507	583.4
384.909	601.4
385.312	583.2
385.715	592
386.118	603
386.521	584.6
386.924	610.4
387.327	599
387.709	590.8
388.112	581
388.515	589.2
388.918	597.2
389.322	603.4
389.725	594.8
390.129	622.8
390.532	600.8
390.936	594.6
391.339	580.6
391.743	597.8
392.125	597.2
392.529	609
392.933	607
393.337	603.8
393.74	599.2
394.144	601.6
394.548	595
394.953	598
395.357	605.6
395.761	598
396.144	599.4
396.548	593
396.952	599.8
397.357	597.2
397.761	598
398.166	593.4
398.57	603.6
398.975	599.4
399.379	599.8
399.763	639.4
400.168	605.8
400.572	595.8
400.977	598.2
401.382	616.8
401.787	607.8
402.192	615
402.597	615.6
403.002	582.4
403.386	608.4
403.791	622.6
404.197	589.8
404.602	603.2
405.007	602.8
405.413	596.4
405.818	605.6
406.224	591.6
406.608	601.6
407.014	596.8
407.42	616.2
407.825	595.6
408.231	607.4
408.637	605.2
409.043	614.8
409.449	601.8
409.834	583
410.24	599.6
410.646	610.2
411.052	606
411.458	601.8
411.865	605.8
412.271	611.2
412.677	590.8
413.062	609.8
413.469	593.6
413.875	622.4
414.282	614.4
414.689	603
415.095	600
415.502	595.8
415.888	606.4
416.294	584.2
416.701	641
417.108	594.2
417.515	605.4
417.923	598.4
418.33	617
418.715	608.6
419.123	597
419.53	600.6
419.937	599.4
420.345	623.2
420.752	600
421.16	615.6
421.546	602.2
421.953	610.6
422.361	599.6
422.769	594.6
423.177	589
423.585	624.8
423.992	622.2
424.379	610.2
424.787	614
425.195	620.4
425.603	597.8
426.011	608
426.419	613.4
426.806	604.6
427.214	611.2
427.623	614
428.031	620.4
428.44	603
428.848	614
429.235	614.6
429.644	592.4
430.053	605
430.461	611.4
430.87	622.2
431.279	603.8
431.666	600.8
432.075	603.8
432.484	608.2
432.893	600.8
433.302	610.8
433.711	636.4
434.099	608
434.508	598.4
434.918	594.6
435.327	610.6
435.737	603.8
436.125	601.6
436.534	604.2
436.944	604.2
437.353	603.8
437.763	621.6
438.173	581.6
438.561	610.2
438.971	583
439.381	601.4
439.791	601.6
440.201	580.8
440.589	598.6
440.999	602.8
441.409	597
441.819	584
442.23	602
442.619	604.4
443.029	608.8
443.439	597.6
443.85	601.4
444.26	621.6
444.649	607.8
445.06	596.6
445.471	590.4
445.881	592.4
446.292	614
446.682	624.6
447.092	581
447.503	644.6
447.914	599.6
448.325	593
448.715	598.4
449.126	593.6
449.537	599.8
449.948	600.6
450.338	595
450.75	604.6
451.161	594.2
451.572	601.8
451.984	592.2
452.374	581.8
452.786	592.6
453.197	601.8
453.609	606.6
453.999	589.8
454.411	582.6
454.823	607.8
455.235	599.8
455.647	601.4
456.037	601.2
456.449	587
456.862	597.2
457.274	598
457.665	591.6
458.077	598.4
458.489	626
458.902	598.6
459.293	600.4
459.705	599
460.118	588.6
460.53	588.4
460.921	593
461.334	596.4
461.747	601.4
462.16	606.6
462.551	605.4
462.964	598.4
463.377	586.6
463.79	587.8
464.182	599
464.595	581.4
465.008	600.6
465.421	593.2
465.813	588.2
466.226	597.8
466.64	592
467.053	639.4
467.445	599.8
467.859	611.8
468.272	597.4
468.686	606.4
469.078	600
469.492	577.8
469.906	596.4
470.298	603.2
470.712	583.6
471.126	633.6
471.54	583.4
471.933	588
472.347	602
472.761	592.4
473.175	583.6
473.568	592.2
473.982	586.8
474.397	592.2
474.79	592.8
475.204	597
475.619	601.2
476.033	595.8
476.426	589.2
476.841	583.6
477.256	614
477.649	580.6
478.064	579.6
478.479	581.4
478.872	586.2
479.287	578.2
479.702	586.8
480.118	590.8
480.511	590.6
480.927	581.4
481.342	583.6
481.736	595.8
482.151	583.2
482.566	598.2
482.96	589.2
483.376	606.6
483.792	584.6
484.186	600.6
484.602	587.6
485.017	589.2
485.412	590.8
485.827	589.2
486.243	588.2
486.638	609.6
487.054	598.8
487.47	600.4
487.865	591.8
488.281	591.2
488.697	595.2
489.092	593.4
489.508	586
489.925	595.2
490.32	595.2
490.736	598.4
491.153	591
491.548	589.8
491.964	606
492.381	578
492.776	594.6
493.193	587.2
493.61	592.2
494.006	586.4
494.422	595.8
494.84	586
495.235	602.6
495.652	601.4
496.069	588.8
496.465	584.2
496.883	596.8
497.3	620.2
497.696	589.6
498.113	598.8
498.509	581
498.927	581.2
499.344	584.2
499.741	582.8
500.158	599.4
500.576	601.2
500.973	592.2
501.39	585.4
501.787	585.4
502.205	595.4
502.623	583.8
503.02	576
503.438	593.6
503.856	579.4
504.253	595.8
504.671	594
505.068	586.8
505.486	588.6
505.905	602.6
506.302	599.4
506.72	601.2
507.118	590.8
507.536	587.8
507.955	588.2
508.352	593.8
508.771	597.2
509.169	598.4
509.587	590.8
510.006	593.4
510.404	576.8
510.823	588.2
511.221	582.8
511.64	582
512.038	599.2
512.457	584.6
512.877	590.4
513.275	589
513.694	588.8
514.092	588.4
514.512	586.8
514.91	599.8
515.33	595.4
515.749	593.4
516.148	594.2
516.568	598
516.966	592.6
517.386	589
517.785	593.2
518.205	588.2
518.603	575
519.024	578.2
519.444	582
519.843	601.6
520.263	603.6
520.662	588.4
521.082	586.4
521.481	598.2
521.902	584.8
522.301	591.8
522.722	598.6
523.121	586.4
523.542	589.6
523.963	588.4
524.362	593
524.783	589.6
525.183	583.4
525.604	583.4
526.003	584
526.425	581.8
526.824	590
527.246	600.2
527.646	598.6
528.067	594
528.467	584.2
528.888	596.8
529.289	583.6
529.71	577.4
530.11	590.6
530.532	587.6
530.932	580.6
531.354	582.8
531.755	610.6
532.176	588.2
532.577	585.8
532.999	581.8
533.4	586
533.822	592.4
534.223	597
534.645	582.6
535.046	578.4
535.468	582.4
535.869	595.2
536.292	575.2
536.693	615.6
537.115	581.4
537.516	584.4
537.939	584
538.34	610.8
538.742	597
539.165	588.2
539.566	584.8
539.989	583.8
540.391	589.4
540.814	588.2
541.216	587
541.639	588.8
542.041	591.4
542.464	579.2
542.866	582.8
543.268	577.8
543.691	595.4
544.093	593.6
544.517	609.6
544.919	581.6
545.343	609
545.745	587.6
546.147	582.6
546.571	588.8
546.974	579.8
547.398	590
547.8	603.2
548.224	586
548.627	580.6
549.03	588.8
549.454	582.6
549.857	569.8
550.281	577.6
550.684	577.6
551.087	597.2
551.512	592.8
551.915	590.2
552.34	594.6
552.743	581.6
553.146	593
553.571	595.2
553.975	604.8
554.399	582.6
554.803	630
555.207	581
555.632	584.4
556.036	586.8
556.461	575.2
556.865	584.2
557.268	588.2
557.694	578
558.098	596.4
558.502	590.2
558.927	577.6
559.332	582.4
559.736	583.8
560.162	590
560.566	582.6
560.992	596
561.396	580.6
561.801	582.2
562.227	598
562.631	581.8
563.036	588.6
563.462	595.2
563.867	585.6
564.272	571.8
564.698	588.8
565.103	580
565.508	605.8
565.935	584.8
566.34	579.8
566.745	601
567.172	583.4
567.577	597.8
567.982	599.4
568.409	588.8
568.815	580.2
569.22	586.6
569.626	597
570.053	580.6
570.459	597.6
570.865	597.8
571.292	590.6
571.698	590.6
572.104	571.4
572.531	588.4
572.937	591.4
573.343	578
573.75	585.2
574.177	580
574.583	595.4
574.99	576.8
575.396	590.6
575.824	584.4
576.231	590.6
576.637	576.8
577.065	608.8
577.472	576.6
577.879	585.4
578.286	601.2
578.714	582.8
579.121	580.2
579.528	591.2
579.935	589.2
580.364	589.2
580.771	574
581.178	574
581.585	588.8
582.014	594.4
582.421	582.6
582.829	578.4
583.236	598.6
583.644	578.4
584.073	582.4
584.481	591.2
584.889	579.2
585.296	585.8
585.726	590.6
586.134	576.4
586.542	577
586.95	597.8
587.358	573.2
587.787	583.4
588.196	595.4
588.604	579.8
589.012	580.6
589.421	583
589.851	579.2
590.259	590.6
590.668	582.4
591.076	615.2
591.485	578
591.894	593.4
592.324	595.6
592.733	597.2
593.142	578
593.551	591
593.96	587
594.369	572.8
594.8	576.2
595.209	580.2
595.618	573.6
596.028	583.6
596.437	581.2
596.847	581.8
597.256	589.8
597.687	589.8
598.097	593.6
598.507	574.6
598.917	591.8
599.327	590.4
599.736	577.8
600.146	594.4
600.556	587.2
600.988	592
601.398	580.4
601.808	590.2
602.219	576.8
602.629	588.6
603.039	590.6
603.45	605.6
603.86	593.2
604.271	602.6
604.703	590
605.114	575.8
605.525	586.8
605.935	588.2
606.346	606.2
606.757	587.8
607.168	584.8
607.579	574.8
607.99	595.2
608.402	587.2
608.813	585.4
609.224	581.4
609.636	576
610.047	592.8
610.48	587
610.892	597
611.303	589.2
611.715	580.2
612.127	577.6
612.539	581
612.95	585.8
613.362	578
613.774	574.2
614.186	578
614.599	576.8
615.011	595.2
615.423	579.8
615.835	577
616.248	568.8
616.66	593
617.073	576.8
617.485	578.8
617.898	588.4
618.311	581.2
618.723	579
619.136	596.4
619.549	601
619.962	609.6
620.375	579.2
620.788	585.8
621.201	570.6
621.614	586.6
622.028	584
622.441	594
622.854	602.2
623.268	584.8
623.681	589.8
624.095	589.6
624.509	594.2
624.922	589.6
625.336	578.2
625.728	588.8
626.142	590.2
626.556	596.6
626.97	583.8
627.384	581.8
627.799	584.6
628.213	592.2
628.627	580
629.041	577.4
629.456	589.2
629.87	583
630.285	588.6
630.699	588.4
631.093	585.8
631.507	586
631.922	586.2
632.337	585.8
632.752	570.4
633.167	579.4
633.582	579.6
633.997	570.6
634.412	578.2
634.806	589.8
635.221	576
635.637	587.8
636.052	569
636.468	578.4
636.883	592.2
637.299	577
637.715	559.6
638.109	580.6
638.525	569.4
638.941	594.6
639.357	586.8
639.773	592.8
640.189	573.4
640.584	577.2
641	584.8
641.416	565
641.832	577.8
642.249	580.8
642.665	580.4
643.06	585.2
643.477	591.4
643.894	566
644.31	582
644.727	576.2
645.123	581.8
645.54	576.2
645.957	590.4
646.374	590
646.77	578.6
647.187	603
647.604	582.2
648.021	579.4
648.439	574.6
648.835	587.4
649.252	580.2
649.67	581.2
650.088	574.8
650.484	584
650.902	589.4
651.32	595
651.738	582
652.134	586.2
652.552	601.2
652.971	593.4
653.389	582.6
653.786	598.4
654.204	604
654.622	575.8
655.019	585.4
655.438	586.4
655.857	579.8
656.275	589.2
656.673	577.8
657.091	583
657.51	570.6
657.908	586
658.327	590.8
658.746	573.2
659.144	575.2
659.563	593.4
659.982	581.4
660.38	578.2
660.8	579.2
661.219	586.4
661.617	591.2
662.037	585.8
662.457	591.6
662.855	568.4
663.275	614
663.695	584.2
664.094	575.4
664.514	584.4
664.934	577.2
665.333	581.8
665.753	576
666.152	573
666.572	574.2
666.993	595.2
667.392	581.2
667.812	578.6
668.212	584
668.632	588.6
669.053	586.4
669.453	582.8
669.874	577.6
670.273	581.8
670.694	567.4
671.116	595.2
671.515	585.6
671.937	581.8
672.337	568.8
672.758	584.4
673.158	585
673.58	570.8
673.98	586.2
674.402	590.2
674.824	584.2
675.224	580.2
675.646	573.4
676.047	579.2
676.469	585.6
676.869	586.6
677.292	581.6
677.693	575.6
678.115	576
678.516	578.6
678.939	587
679.34	580.6
679.762	587.6
680.164	586.4
680.586	586.8
680.988	584.6
681.411	607.2
681.812	575
682.236	582.4
682.637	577.8
683.061	570.4
683.462	587
683.864	585.6
684.288	591
684.69	572.4
685.114	585.6
685.516	590.2
685.94	577.8
686.342	587.6
686.766	569.2
687.168	575.4
687.571	590.8
687.995	587.2
688.398	566.8
688.822	579.4
689.225	599.6
689.628	597.6
690.052	583
690.456	594.4
690.88	575
691.284	568
691.687	578.6
692.112	567.4
692.515	572.6
692.919	585.2
693.344	586.6
693.747	576.4
694.173	572.8
694.577	590.2
694.98	573
695.406	581.2
695.81	582.6
696.214	591.2
696.64	582.8
697.044	586
697.448	587.4
697.874	581.2
698.279	580.6
698.684	570.8
699.11	576.4
699.514	580.2
699.919	575.8
700.324	574.6
700.75	582.8
701.156	580.6
701.561	587.6
701.987	581.6
702.393	588
702.798	592.6
703.203	579.8
703.63	579.8
704.036	577
704.442	581.2
704.847	570.6
705.274	587.4
705.68	585.4
706.086	589
706.492	572.4
706.92	581
707.326	590.6
707.732	580.4
708.139	577.2
708.545	572.2
708.973	575.2
709.38	583.4
709.786	573
710.193	592.2
710.6	582.4
711.028	580.2
711.435	579.6
711.842	579.4
712.249	576.6
712.656	586
713.064	581.6
713.492	570.6
713.9	569
714.307	584.2
714.715	581.8
715.123	580.6
715.53	579.8
715.938	591.8
716.367	577.8
716.775	583.8
717.184	563.8
717.592	569.4
718	586.8
718.408	605.8
718.816	622.2
719.225	572.6
719.633	580.6
720.042	571.6
720.472	573.8
720.881	604
721.29	577.2
721.699	570
722.108	578.4
722.517	581.4
722.926	574
723.335	591.6
723.744	583.6
724.154	579.8
724.563	583.6
724.973	587.8
725.382	577.8
725.792	575.8
726.202	570.6
726.612	591
727.022	575.2
727.432	560.2
779.813	572.8
780.223	626
780.634	574.2
781.044	568
781.454	567.4
781.865	585.6
782.276	562.2
782.686	585.2
783.097	580.6
783.508	576.6
783.919	581
784.33	590
784.741	588.8
785.152	570
785.563	565.4
785.974	573.2
786.386	585.4
786.776	567.4
787.188	580
787.599	572.4
788.011	583
788.423	581.6
788.835	572
789.247	570.4
789.659	575
790.071	573.4
790.483	611.8
790.874	575.2
791.286	583.4
791.699	572.4
792.111	577.8
792.524	582.4
792.937	577.6
793.349	576.2
793.741	573.8
794.154	569
794.567	595
794.98	578.8
795.393	565.6
795.785	594.6
796.198	573.8
796.612	576.4
797.026	576
797.439	566.6
797.831	572.8
798.245	566.8
798.659	577.6
799.073	566.2
799.487	575.2
799.88	582.8
800.294	579.8
800.708	581.8
801.123	582.6
801.516	592.4
801.93	569.6
802.345	572.2
802.76	575.6
803.153	586.2
803.568	587.2
803.983	584.8
804.377	576.6
804.792	568.4
805.207	560.2
805.601	572.8
806.016	603.4
806.432	568
806.826	607
807.242	583
807.658	572.4
808.052	572.4
808.468	575.4
808.884	572.8
809.279	575.2
809.695	585.8
810.111	598
810.506	576
810.922	593.6
811.339	572.6
811.734	586
812.151	567.4
812.546	582.6
812.963	568
813.38	579.2
813.776	581.8
814.193	595.4
814.589	569.8
815.006	570.4
815.402	575.4
815.82	563.8
816.237	571
816.633	583
817.051	572.6
817.448	574
817.866	565.4
818.262	589
818.68	569.6
819.077	572
819.495	579.2
819.892	617.6
820.311	563.6
820.708	571.6
821.127	573.6
821.524	581.4
821.943	575.8
822.34	587.4
822.759	579
823.157	576.8
823.576	592
823.974	586
824.393	608.4
824.791	575.6
825.189	568.6
825.609	570.6
826.007	576.4
826.427	565.4
826.826	574.8
827.246	575.8
827.644	571.2
828.043	585
828.463	574.6
828.862	582.6
829.261	575.4
829.682	568
830.081	580.8
830.502	572.2
830.901	579
831.301	586.6
831.722	567
832.121	570.2
832.521	567.2
832.943	576.2
833.342	577.2
833.742	559.6
834.164	573
834.564	571.4
834.965	567.6
835.386	574.2
835.787	567.8
836.188	576.4
836.588	577.4
837.01	585
837.411	569.6
837.812	578.4
838.213	580.4
838.636	575
839.037	634.6
839.438	577
839.84	574.6
840.263	580.2
840.664	575.6
841.066	570.8
841.468	579
841.891	569.4
842.293	577
842.695	580.2
843.098	589.8
843.5	575
843.902	582
844.326	581.6
844.729	569.6
845.131	590.2
845.534	575.4
845.937	579.2
846.34	589.2
846.764	575
847.167	576.8
847.571	573.8
847.974	581.2
848.377	575
848.781	614.2
849.184	583.6
849.588	575.4
849.992	576.4
850.396	575.4
850.821	591
851.225	577.6
851.63	568.4
852.034	595.6
852.438	577.2
852.843	589.8
853.247	570.8
853.652	574.8
854.057	591.2
854.462	584.2
854.867	583.2
855.272	604.2
855.677	581.4
856.082	566
856.487	564
