#lambda/nm	C1
208.295	547.8
208.67	488.4
209.045	456.2
209.419	445.2
209.794	600
210.169	584.2
210.544	691.6
210.919	606.2
211.295	589.2
211.67	599.8
212.045	599
212.421	579.4
212.796	631.6
213.172	598.4
213.547	595.8
213.923	595.4
214.299	595.4
214.675	603.8
215.051	603.6
215.427	608
215.803	619.6
216.179	604.4
216.555	588.4
216.932	603.4
217.308	605
217.684	599
218.061	596.4
218.438	602.6
218.814	595.6
219.191	604.8
219.568	589.2
219.945	586.8
220.322	598.6
220.699	601.6
221.076	603.2
221.453	598.8
221.83	593.2
222.208	591.8
222.585	603.2
222.962	599.2
223.34	596.6
223.717	598
224.095	599.4
224.473	595.6
224.851	593.2
225.229	589.2
225.607	612.8
225.985	588.6
226.363	602.2
226.741	595.2
227.119	602.6
227.497	610.2
227.876	585
228.254	604.8
228.633	593.4
229.011	605.6
229.39	600.4
229.769	600.6
230.148	605.4
230.527	615.2
230.905	597.4
231.284	603
231.664	591.8
232.043	608.2
232.422	598.4
232.801	590.4
233.181	601.6
233.56	601
233.94	590.4
234.319	591.2
234.699	594.4
235.079	630.2
235.458	633.4
235.838	609.6
236.218	595.4
236.598	583.6
236.978	592.6
237.358	590.8
237.738	593.4
238.119	596.6
238.499	591.8
238.88	597.2
239.26	615.6
239.641	591.6
240.021	590
240.402	594.4
240.783	589
241.163	598
241.544	595.4
241.925	591.6
242.306	607.6
242.687	597.8
243.069	591.4
243.45	610
243.831	593.8
244.212	592
244.594	628.2
244.975	601.6
245.357	602.2
245.739	590.2
246.12	596.2
246.502	609
246.884	593.8
247.266	591.8
247.648	599.2
248.03	616.2
248.412	596
248.794	596
249.176	588.2
249.559	604
249.941	588
250.323	585.4
250.706	593.4
251.089	592
251.471	595.2
251.854	600
252.237	596.4
252.62	602
253.002	597.6
253.385	594.8
253.769	611.6
254.152	597.6
254.535	610
254.918	587.8
255.301	597.2
255.685	597.2
256.068	590
256.452	618.2
256.835	604.2
257.219	606.4
257.603	610.6
257.986	599.2
258.37	603.2
258.754	590.6
259.138	598
259.522	604.4
259.906	595.8
260.29	606.8
260.675	606.6
261.059	605
261.443	583.6
261.828	607
262.212	596.6
262.597	589
262.981	593.6
263.366	607.8
263.751	597
264.136	593
264.521	592.4
264.906	579.2
265.291	603.2
265.676	590.4
266.061	607
266.446	606.2
266.831	601.8
267.217	614.6
267.602	595
267.987	598.6
268.373	591.8
268.759	605.8
269.144	603
269.53	595.6
269.916	594.4
270.302	597.4
270.688	608.6
271.074	595.4
271.46	605.2
271.846	624.8
272.232	602
272.618	590.4
273.004	596.2
273.391	603.8
273.777	600.8
274.164	602.2
274.55	607.6
274.937	602.6
275.324	587.8
275.71	609
276.097	610.8
276.484	588.4
276.871	594
277.258	604.6
277.645	587.4
278.032	595.4
278.419	592.2
278.807	605
279.194	590.6
279.581	590.2
279.969	607
280.356	594.4
280.744	603.6
281.131	618.4
281.519	603.8
281.907	593.2
282.295	590.6
282.682	606.2
283.07	599.6
283.458	603
283.846	605.2
284.235	604
284.623	602.6
285.011	596.8
285.399	603.4
285.788	593.4
286.176	580.6
286.565	604.2
286.953	597.8
287.342	587
287.731	588
288.119	592.4
288.508	587
288.897	591.2
289.286	584.8
289.675	597.6
290.064	608.4
290.453	592.2
290.821	600.2
291.21	612.6
291.599	585.2
291.989	595
292.378	601
292.768	615.8
293.157	597.2
293.547	606.2
293.936	592.4
294.326	595.8
294.716	596.6
295.106	591.4
295.496	597
295.886	605
296.276	592.6
296.666	590.6
297.056	590.8
297.446	584.4
297.836	610.4
298.227	597.8
298.617	597.8
299.008	615.6
299.398	591.6
299.789	594.6
300.179	601.8
300.57	606.2
300.961	591.8
301.352	597.4
301.742	609.4
302.133	592.2
302.524	593
302.915	597.2
303.307	593.4
303.698	614
304.089	604
304.48	599.2
304.872	610
305.263	596.2
305.655	595
306.046	591.8
306.438	595.6
306.829	598.4
307.221	608
307.613	596.8
308.005	602.6
308.397	609
308.789	619.6
309.181	622.6
309.573	618.4
309.965	609.6
310.357	596.8
310.749	614
311.142	589.2
311.534	590.6
311.926	608.6
312.319	600.6
312.711	596.6
313.104	611.2
313.497	598
313.889	634.6
314.282	611.2
314.675	615
315.068	606.6
315.461	605
315.854	615.6
316.247	602
316.64	591
317.033	598
317.405	597.2
317.798	598.6
318.192	596.6
318.585	591.6
318.979	597.4
319.372	586.8
319.766	587.4
320.16	607.2
320.553	603.4
320.947	609.2
321.341	587.2
321.735	604.6
322.129	584.8
322.523	621
322.917	595
323.311	607.8
323.705	598.8
324.099	601.4
324.494	613.8
324.888	603.8
325.282	599.4
325.677	603
326.071	606.6
326.466	613.8
326.861	598.6
327.255	611.8
327.65	612.6
328.045	615
328.44	597.8
328.835	596.2
329.23	593
329.625	621
330.02	596
330.415	613.8
330.81	602.4
331.206	604.2
331.601	595
331.996	602.6
332.37	616.6
332.766	589.8
333.161	616.8
333.557	589
333.953	595.4
334.348	905
334.744	601.2
335.14	592.6
335.536	587
335.932	604.6
336.328	597.2
336.724	604
337.12	596.2
337.516	600.4
337.913	592.6
338.309	609.4
338.705	598
339.102	608.2
339.498	590.6
339.895	607
340.291	600.6
340.688	604.6
341.085	595.8
341.481	597.6
341.878	596.4
342.275	617.8
342.672	596.6
343.069	594.2
343.466	584
343.842	603.2
344.239	584.6
344.636	596
345.033	583.6
345.431	584.4
345.828	589.4
346.225	589.2
346.623	635.6
347.02	595
347.418	602.8
347.816	605
348.213	583.4
348.611	611.6
349.009	590
349.407	610.8
349.805	578.6
350.203	585
350.601	598
350.999	584.8
351.397	633.2
351.795	594.8
352.193	607.4
352.57	603.6
352.969	605.4
353.367	587.4
353.766	587.6
354.164	595
354.563	605.6
354.961	598.4
355.36	589.2
355.759	596
356.158	590.6
356.557	587.8
356.956	579
357.355	578.2
357.754	597.6
358.153	604.2
358.552	618.6
358.951	592.6
359.35	598.6
359.75	589.8
360.149	580.2
360.527	585.8
360.926	587
361.326	601.6
361.726	598.4
362.125	582
362.525	601.6
362.925	590.6
363.325	589.8
363.724	588.6
364.124	581
364.524	580.6
364.924	591
365.324	598
365.725	582.2
366.125	599
366.525	593.6
366.904	577.2
367.304	580
367.705	607.8
368.105	596.2
368.506	591.2
368.906	591
369.307	588
369.708	599.4
370.108	580.2
370.509	596.2
370.91	591.8
371.311	583
371.712	590.6
372.113	588.8
372.514	579
372.894	585.8
373.295	587.2
373.696	602.4
374.097	597
374.499	609.8
374.9	588.8
375.301	584
375.703	592.2
376.105	588.8
376.506	593
376.908	598.2
377.309	598.8
377.711	594.4
378.113	592.6
378.493	589.6
378.895	582
379.297	594
379.699	584.8
380.102	589.4
380.504	587.6
380.906	572.8
381.308	603.8
381.71	591.2
382.113	597
382.515	585
382.918	595.8
383.299	579.4
383.701	595.2
384.104	592
384.507	572.8
384.909	586.4
385.312	581.4
385.715	579.2
386.118	583.6
386.521	573.6
386.924	593.4
387.327	575.6
387.709	581.4
388.112	576.4
388.515	581.6
388.918	577.6
389.322	595.8
389.725	586.2
390.129	604.8
390.532	598.2
390.936	582.4
391.339	590.4
391.743	591.8
392.125	580
392.529	589.8
392.933	597.4
393.337	589.4
393.74	582.6
394.144	587.2
394.548	585.4
394.953	582.8
395.357	593.4
395.761	581
396.144	581.2
396.548	591.2
396.952	579.4
397.357	583.6
397.761	588.4
398.166	590.6
398.57	585.6
398.975	582.4
399.379	588.6
399.763	631.4
400.168	586.8
400.572	599
400.977	596.2
401.382	608.8
401.787	597.6
402.192	601.6
402.597	597.4
403.002	575.4
403.386	600.8
403.791	599.8
404.197	579.6
404.602	594
405.007	586.2
405.413	589
405.818	596
406.224	586.2
406.608	583
407.014	586.4
407.42	605
407.825	586.2
408.231	594.4
408.637	591.4
409.043	600.2
409.449	588.2
409.834	586.8
410.24	591.2
410.646	601.4
411.052	591.8
411.458	591.4
411.865	595.2
412.271	597.6
412.677	596.2
413.062	604.6
413.469	578.2
413.875	606.2
414.282	600
414.689	589.2
415.095	591.6
415.502	577.2
415.888	583.2
416.294	582.8
416.701	622.4
417.108	584.4
417.515	595.2
417.923	586.4
418.33	613.8
418.715	598.4
419.123	596
419.53	581.6
419.937	583.8
420.345	602.6
420.752	591.2
421.16	603.8
421.546	594.2
421.953	595.6
422.361	587.4
422.769	589.4
423.177	587.8
423.585	609.6
423.992	607.4
424.379	606.8
424.787	590.4
425.195	609.8
425.603	596.6
426.011	593.8
426.419	602
426.806	591
427.214	595.2
427.623	597
428.031	610.4
428.44	595.6
428.848	599.4
429.235	603.8
429.644	591.2
430.053	596.6
430.461	610.6
430.87	608.8
431.279	595.6
431.666	587.8
432.075	589.6
432.484	595.6
432.893	582.6
433.302	610.6
433.711	624
434.099	596.4
434.508	585
434.918	583.4
435.327	593.8
435.737	596
436.125	592.6
436.534	598.8
436.944	590.8
437.353	599.6
437.763	610.4
438.173	587
438.561	605.6
438.971	578.2
439.381	587.6
439.791	593.8
440.201	571.6
440.589	590
440.999	596.6
441.409	591.6
441.819	582.2
442.23	600.4
442.619	603.6
443.029	586.6
443.439	593.8
443.85	594.2
444.26	606.4
444.649	595.8
445.06	594.2
445.471	579.2
445.881	584.8
446.292	600.2
446.682	603
447.092	584.8
447.503	633.6
447.914	591.2
448.325	591.2
448.715	597.2
449.126	582.6
449.537	585.4
449.948	585.8
450.338	591.6
450.75	601.8
451.161	590.4
451.572	601
451.984	582.6
452.374	582.8
452.786	584.6
453.197	589.4
453.609	593
453.999	576.8
454.411	581
454.823	595
455.235	595.8
455.647	590.8
456.037	595
456.449	569.6
456.862	585.4
457.274	592.8
457.665	583
458.077	590
458.489	603.4
458.902	588.8
459.293	593.6
459.705	578.4
460.118	576.2
460.53	592.2
460.921	578.6
461.334	583.2
461.747	581.4
462.16	591.8
462.551	600
462.964	590.8
463.377	576.2
463.79	579
464.182	591.6
464.595	572.4
465.008	597.8
465.421	592.4
465.813	583.6
466.226	591.6
466.64	579.2
467.053	618.8
467.445	597.8
467.859	602.2
468.272	588
468.686	594
469.078	583.8
469.492	580
469.906	577.6
470.298	592.6
470.712	586.4
471.126	621.4
471.54	575.8
471.933	578.8
472.347	587.8
472.761	573.6
473.175	585.2
473.568	583.8
473.982	577
474.397	574
474.79	585.6
475.204	591.4
475.619	579
476.033	584.6
476.426	583.2
476.841	575.2
477.256	608.8
477.649	575.2
478.064	571.8
478.479	574
478.872	576.2
479.287	571.6
479.702	572.2
480.118	576.8
480.511	583.6
480.927	580.6
481.342	571.8
481.736	574
482.151	571.6
482.566	590.8
482.96	591.4
483.376	586.2
483.792	573.8
484.186	596
484.602	579
485.017	588.6
485.412	584.4
485.827	581
486.243	585.8
486.638	604.2
487.054	593.8
487.47	590.6
487.865	581
488.281	584
488.697	584.2
489.092	580.8
489.508	575.4
489.925	592.8
490.32	577
490.736	586.6
491.153	577
491.548	585.2
491.964	596.4
492.381	575.2
492.776	589.8
493.193	577.2
493.61	582.8
494.006	588.2
494.422	583.2
494.84	578.6
495.235	588.4
495.652	584.8
496.069	579.4
496.465	575.4
496.883	586.2
497.3	603
497.696	571.2
498.113	588.2
498.509	572.8
498.927	573.4
499.344	566.8
499.741	574.2
500.158	583.4
500.576	597
500.973	580.4
501.39	566.4
501.787	576.6
502.205	577.8
502.623	585.6
503.02	566.8
503.438	572.4
503.856	585.2
504.253	587.4
504.671	582.6
505.068	580.2
505.486	583
505.905	596.4
506.302	580.2
506.72	586.6
507.118	574.4
507.536	580.6
507.955	580.4
508.352	587.4
508.771	584.6
509.169	585
509.587	573.4
510.006	579.8
510.404	571
510.823	571
511.221	575
511.64	578.2
512.038	584.4
512.457	575.4
512.877	578.8
513.275	576.4
513.694	569.8
514.092	579
514.512	582.4
514.91	584.8
515.33	581
515.749	589
516.148	579.6
516.568	582.6
516.966	580
517.386	583.6
517.785	581.2
518.205	576.2
518.603	572.4
519.024	574.4
519.444	586.6
519.843	583
520.263	587.8
520.662	581.6
521.082	579.8
521.481	583.4
521.902	585.4
522.301	586
522.722	585.4
523.121	582.8
523.542	582.6
523.963	577
524.362	583.2
524.783	585
525.183	577.2
525.604	580.2
526.003	575.6
526.425	578
526.824	583.4
527.246	584.6
527.646	591
528.067	575.4
528.467	578.4
528.888	575.6
529.289	573.2
529.71	577.4
530.11	570.4
530.532	578
530.932	567.2
531.354	569.4
531.755	612
532.176	577
532.577	585.8
532.999	587
533.4	578.2
533.822	583
534.223	589.8
534.645	576.2
535.046	575
535.468	579
535.869	589.8
536.292	575.8
536.693	616.8
537.115	580
537.516	568.8
537.939	577
538.34	588
538.742	588.2
539.165	576.8
539.566	580.8
539.989	576
540.391	580.4
540.814	575.2
541.216	583.4
541.639	578.8
542.041	580.4
542.464	576.6
542.866	575.2
543.268	570.6
543.691	586.8
544.093	585.8
544.517	595.6
544.919	570.6
545.343	593.6
545.745	576.8
546.147	582.4
546.571	573.4
546.974	567.2
547.398	577
547.8	593.2
548.224	578.2
548.627	572.6
549.03	583.6
549.454	578.6
549.857	569.4
550.281	567
550.684	575.8
551.087	594.8
551.512	579
551.915	585
552.34	578
552.743	570.2
553.146	582.6
553.571	583.6
553.975	594
554.399	572.2
554.803	617.6
555.207	572
555.632	570.8
556.036	582.8
556.461	571.2
556.865	574
557.268	569.6
557.694	575.8
558.098	580.4
558.502	579.8
558.927	569
559.332	575.2
559.736	584.2
560.162	583.4
560.566	580.2
560.992	578
561.396	579
561.801	576.6
562.227	576.6
562.631	580.4
563.036	577
563.462	584.6
563.867	579.6
564.272	564.8
564.698	568.4
565.103	567.4
565.508	590.6
565.935	581.8
566.34	570.6
566.745	589
567.172	575.8
567.577	589.8
567.982	584.6
568.409	582.6
568.815	574.2
569.22	575.2
569.626	584.2
570.053	568
570.459	581.4
570.865	578
571.292	583.2
571.698	577.8
572.104	569.8
572.531	574
572.937	583.6
573.343	575.8
573.75	574.2
574.177	569.8
574.583	578.8
574.99	575.6
575.396	579.8
575.824	568.4
576.231	578.2
576.637	573.2
577.065	590.8
577.472	572.2
577.879	574.2
578.286	591.6
578.714	577.2
579.121	571.6
579.528	577.6
579.935	575.6
580.364	573.2
580.771	560.4
581.178	571.2
581.585	576.4
582.014	578.8
582.421	566.8
582.829	576.2
583.236	577.4
583.644	567.2
584.073	575.2
584.481	572.8
584.889	566.2
585.296	578.8
585.726	569.2
586.134	571.2
586.542	577.6
586.95	595.6
587.358	570.4
587.787	570.6
588.196	585.6
588.604	571.8
589.012	578.6
589.421	569.6
589.851	569.6
590.259	578.4
590.668	570.6
591.076	605.6
591.485	570.6
591.894	568.4
592.324	590.4
592.733	583.4
593.142	569.4
593.551	575.8
593.96	577.6
594.369	573.8
594.8	565.2
595.209	571.6
595.618	561.2
596.028	576.8
596.437	566.8
596.847	576.8
597.256	581.6
597.687	577.6
598.097	579.2
598.507	571.6
598.917	575.2
599.327	576.8
599.736	574.2
600.146	586.4
600.556	580.4
600.988	589.6
601.398	575.4
601.808	590.2
602.219	560.4
602.629	575.2
603.039	580
603.45	603.2
603.86	577.2
604.271	589.4
604.703	585
605.114	576.4
605.525	576.4
605.935	584.4
606.346	592.4
606.757	579.2
607.168	573
607.579	571.8
607.99	584.6
608.402	584.6
608.813	580.2
609.224	575
609.636	568.6
610.047	586.6
610.48	580.6
610.892	580.2
611.303	587.8
611.715	574.4
612.127	568.8
612.539	581
612.95	577.8
613.362	572.4
613.774	569.4
614.186	571
614.599	575
615.011	591.4
615.423	578
615.835	574.4
616.248	571.2
616.66	577.6
617.073	562
617.485	575
617.898	586.8
618.311	574.8
618.723	576.4
619.136	596.2
619.549	592.8
619.962	602.2
620.375	575.6
620.788	586.8
621.201	575.8
621.614	587
622.028	579
622.441	580.8
622.854	592.4
623.268	583.2
623.681	585
624.095	586
624.509	591.2
624.922	583.6
625.336	573.8
625.728	583
626.142	594
626.556	595.2
626.97	582.8
627.384	573.6
627.799	574
628.213	592.6
628.627	577.2
629.041	574.8
629.456	573
629.87	581.2
630.285	584.2
630.699	587.6
631.093	575.4
631.507	579.8
631.922	580.6
632.337	595.6
632.752	566.4
633.167	575.4
633.582	580.8
633.997	574.4
634.412	577.6
634.806	577.8
635.221	572.2
635.637	591.4
636.052	571.2
636.468	584.4
636.883	598
637.299	572.6
637.715	565
638.109	585.6
638.525	572.8
638.941	591.4
639.357	580.4
639.773	584.2
640.189	575.4
640.584	570.4
641	576.8
641.416	562.6
641.832	572.4
642.249	573.4
642.665	573.4
643.06	581.4
643.477	579.4
643.894	563.2
644.31	569.6
644.727	574.4
645.123	574.6
645.54	572.6
645.957	579.2
646.374	590.4
646.77	571
647.187	605.8
647.604	576.8
648.021	567
648.439	570
648.835	581.8
649.252	578.6
649.67	577.6
650.088	589.4
650.484	579.6
650.902	590.4
651.32	580.2
651.738	573.4
652.134	578.2
652.552	593.8
652.971	576.4
653.389	576.6
653.786	591.4
654.204	588.8
654.622	566.8
655.019	574.8
655.438	582.2
655.857	567
656.275	572.2
656.673	569.6
657.091	574.4
657.51	571
657.908	582.8
658.327	598.2
658.746	565.4
659.144	574.4
659.563	577
659.982	578.4
660.38	561
660.8	571
661.219	584.8
661.617	577.8
662.037	575.4
662.457	579.8
662.855	569.4
663.275	596.6
663.695	576
664.094	573.8
664.514	581.2
664.934	563
665.333	583.6
665.753	571.2
666.152	564.8
666.572	568.6
666.993	584
667.392	563.6
667.812	571.8
668.212	567.4
668.632	579
669.053	572.6
669.453	567.6
669.874	578.2
670.273	573
670.694	564.8
671.116	580.4
671.515	571.4
671.937	572
672.337	572.2
672.758	568.2
673.158	579.8
673.58	554.2
673.98	574.6
674.402	582.6
674.824	568.6
675.224	566.4
675.646	559.6
676.047	575.6
676.469	568.4
676.869	579.6
677.292	579
677.693	570.8
678.115	566.4
678.516	583.6
678.939	570.8
679.34	563.4
679.762	584.6
680.164	574.2
680.586	564.6
680.988	572.6
681.411	588
681.812	576.4
682.236	572
682.637	568.6
683.061	568
683.462	575
683.864	565
684.288	577.4
684.69	567.4
685.114	581.8
685.516	583.6
685.94	557.8
686.342	580.4
686.766	568.2
687.168	561.4
687.571	594.4
687.995	573.2
688.398	561
688.822	575
689.225	587.2
689.628	588.8
690.052	570.6
690.456	576.2
690.88	584
691.284	563.6
691.687	577.6
692.112	566.4
692.515	563.4
692.919	575
693.344	570.4
693.747	569.2
694.173	565
694.577	578.8
694.98	571.8
695.406	566.2
695.81	575.4
696.214	573.4
696.64	574.2
697.044	566.6
697.448	584
697.874	570.6
698.279	573.6
698.684	572.8
699.11	566.8
699.514	561.8
699.919	563.4
700.324	561.8
700.75	564.8
701.156	572.4
701.561	583.4
701.987	576
702.393	576.8
702.798	578.4
703.203	575.8
703.63	569.8
704.036	579.8
704.442	568.6
704.847	560
705.274	568.8
705.68	574.6
706.086	580.6
706.492	564.2
706.92	569.8
707.326	575
707.732	573.6
708.139	568.8
708.545	555.2
708.973	570.4
709.38	568.6
709.786	567.2
710.193	579.2
710.6	570.4
711.028	567.8
711.435	568.8
711.842	569
712.249	575.6
712.656	568.4
713.064	581.6
713.492	562.6
713.9	567.8
714.307	573.6
714.715	569.8
715.123	575.8
715.53	572.6
715.938	574.2
716.367	568.8
716.775	566.2
717.184	563.6
717.592	566.2
718	576
718.408	605.6
718.816	609
719.225	578.2
719.633	567.4
720.042	568.4
720.472	574
720.881	586.2
721.29	572.8
721.699	558.6
722.108	566.4
722.517	577
722.926	566.6
723.335	571.2
723.744	572
724.154	561.6
724.563	566.4
724.973	565.6
725.382	570.8
725.792	568
726.202	559
726.612	581
727.022	571.6
727.432	570
779.813	557.8
780.223	606.4
780.634	570.8
781.044	558.6
781.454	576.6
781.865	573.4
782.276	555.2
782.686	576.2
783.097	564.4
783.508	565.8
783.919	567.6
784.33	577.2
784.741	587.8
785.152	571.2
785.563	555.8
785.974	564
786.386	569
786.776	574.4
787.188	566.8
787.599	564
788.011	574.8
788.423	575.4
788.835	569.2
789.247	559
789.659	563.6
790.071	565.2
790.483	607.4
790.874	563.2
791.286	570.4
791.699	571.4
792.111	562.6
792.524	570.8
792.937	572.8
793.349	568
793.741	565
794.154	554.8
794.567	586.2
794.98	558.4
795.393	559.4
795.785	578
796.198	562.4
796.612	564.4
797.026	559.6
797.439	548.8
797.831	572.2
798.245	564.8
798.659	561.6
799.073	562
799.487	566.6
799.88	569.2
800.294	564.2
800.708	563.8
801.123	565.8
801.516	585
801.93	558.6
802.345	559.6
802.76	568
803.153	574.8
803.568	574
803.983	571.2
804.377	569.6
804.792	555.2
805.207	556.2
805.601	566.4
806.016	599.6
806.432	564.8
806.826	588.4
807.242	576.6
807.658	568.8
808.052	567.6
808.468	562.2
808.884	565.6
809.279	570.6
809.695	576.2
810.111	588.2
810.506	574.4
810.922	581.8
811.339	575.2
811.734	575.2
812.151	563.4
812.546	556.2
812.963	561.8
813.38	569.2
813.776	567.4
814.193	584.4
814.589	557.4
815.006	570.4
815.402	561.4
815.82	568
816.237	567.6
816.633	565.6
817.051	555.8
817.448	559.8
817.866	558.6
818.262	583.2
818.68	563.4
819.077	568.6
819.495	572.4
819.892	601
820.311	555.4
820.708	561.8
821.127	562.8
821.524	576
821.943	566.8
822.34	579.4
822.759	573
823.157	566.8
823.576	576.6
823.974	573.2
824.393	584.2
824.791	558.6
825.189	560.2
825.609	560.6
826.007	557
826.427	565.6
826.826	565
827.246	571.6
827.644	556.6
828.043	569.6
828.463	568.8
828.862	580.4
829.261	576.4
829.682	561.6
830.081	577.8
830.502	553.2
830.901	574
831.301	584.6
831.722	558.2
832.121	560.2
832.521	564.8
832.943	573.6
833.342	568.4
833.742	564.6
834.164	555.6
834.564	563
834.965	565.8
835.386	566
835.787	572.4
836.188	568.8
836.588	565.8
837.01	564.8
837.411	559.4
837.812	575.2
838.213	570.4
838.636	564.2
839.037	625.2
839.438	567
839.84	573
840.263	568.2
840.664	569.2
841.066	567
841.468	570.4
841.891	562.4
842.293	574.6
842.695	571.4
843.098	573.8
843.5	559.8
843.902	575.4
844.326	571.6
844.729	576
845.131	577.6
845.534	567.6
845.937	584.6
846.34	586.6
846.764	562.4
847.167	569
847.571	559.4
847.974	572.6
848.377	566.2
848.781	608.8
849.184	585.6
849.588	561.4
849.992	558.8
850.396	573.8
850.821	583.8
851.225	566.6
851.63	564
852.034	582.6
852.438	559.2
852.843	623.6
853.247	555
853.652	552.8
854.057	585.4
854.462	563.8
854.867	569.2
855.272	592.2
855.677	563.6
