#lambda/nm	C1
208.295	579.2
208.67	505.4
209.045	473.6
209.419	472.8
209.794	585.4
210.169	570.8
210.544	656.2
210.919	584
211.295	570.4
211.67	584.8
212.045	578.8
212.421	573.4
212.796	612.8
213.172	578.2
213.547	570.8
213.923	568.6
214.299	567
214.675	577.8
215.051	583.6
215.427	586.6
215.803	599.6
216.179	579
216.555	571.8
216.932	585
217.308	586.4
217.684	584
218.061	580.6
218.438	577.4
218.814	577.2
219.191	585.4
219.568	573.4
219.945	570.6
220.322	583.8
220.699	578
221.076	586.2
221.453	573.2
221.83	575.8
222.208	574.4
222.585	571.2
222.962	578
223.34	578.2
223.717	575
224.095	564.6
224.473	582.2
224.851	567.6
225.229	572.2
225.607	587.4
225.985	574.2
226.363	581.2
226.741	578
227.119	574
227.497	584.6
227.876	567.6
228.254	578.4
228.633	578.2
229.011	582.2
229.39	570.8
229.769	577.6
230.148	572.4
230.527	594.4
230.905	577.2
231.284	578.4
231.664	570.8
232.043	586.4
232.422	580
232.801	574.6
233.181	574.6
233.56	577.4
233.94	576.6
234.319	573.8
234.699	577
235.079	612.2
235.458	602.2
235.838	586.8
236.218	578.8
236.598	567.4
236.978	573.4
237.358	565.8
237.738	571
238.119	581
238.499	559.8
238.88	573.2
239.26	586.8
239.641	573.2
240.021	574.2
240.402	570
240.783	567.2
241.163	574.2
241.544	578.6
241.925	569.2
242.306	590.4
242.687	583.8
243.069	568
243.45	580.8
243.831	575.8
244.212	568.2
244.594	600.6
244.975	581.6
245.357	579
245.739	564.6
246.12	571.4
246.502	586.8
246.884	577
247.266	574.2
247.648	579
248.03	592
248.412	580.2
248.794	574.2
249.176	570
249.559	579.8
249.941	573.2
250.323	566.2
250.706	570.4
251.089	580.4
251.471	576.4
251.854	579
252.237	576.8
252.62	588.8
253.002	572.4
253.385	576.6
253.769	581
254.152	569.4
254.535	582.4
254.918	574
255.301	573.8
255.685	574.6
256.068	571.2
256.452	591.4
256.835	576.4
257.219	578.6
257.603	586.2
257.986	566.4
258.37	572.4
258.754	564.2
259.138	573.2
259.522	576.4
259.906	566
260.29	575
260.675	569.2
261.059	579.6
261.443	567
261.828	573.6
262.212	571.6
262.597	566.2
262.981	569.8
263.366	576.8
263.751	577.8
264.136	570.4
264.521	574.6
264.906	563.8
265.291	577.4
265.676	569.4
266.061	576.8
266.446	586
266.831	575
267.217	588.4
267.602	579.6
267.987	579.8
268.373	570.4
268.759	579.8
269.144	585.2
269.53	573.6
269.916	572.8
270.302	575
270.688	571.2
271.074	576.4
271.46	581
271.846	591.4
272.232	573.4
272.618	568
273.004	576
273.391	576.8
273.777	583.8
274.164	583.6
274.55	584.8
274.937	582
275.324	559.4
275.71	581
276.097	578.8
276.484	569.4
276.871	579.6
277.258	573.8
277.645	568.2
278.032	574
278.419	577.6
278.807	578.4
279.194	567.6
279.581	563.8
279.969	579
280.356	574.4
280.744	579.8
281.131	601.6
281.519	581.6
281.907	565.2
282.295	571.6
282.682	592.6
283.07	569
283.458	580
283.846	583.2
284.235	578.4
284.623	580.8
285.011	568.8
285.399	578.4
285.788	578.2
286.176	568.2
286.565	576.4
286.953	570
287.342	563.8
287.731	572.4
288.119	559.2
288.508	564.2
288.897	577.2
289.286	564
289.675	579.8
290.064	578.4
290.453	561.4
290.821	573.6
291.21	585.6
291.599	575.8
291.989	577
292.378	576
292.768	585
293.157	579.2
293.547	577.8
293.936	574.4
294.326	575.4
294.716	574.8
295.106	570
295.496	574.4
295.886	581.4
296.276	575.8
296.666	569.6
297.056	575.6
297.446	564.4
297.836	581.8
298.227	574
298.617	572.4
299.008	583.6
299.398	575.6
299.789	574.4
300.179	576.2
300.57	582.8
300.961	568.8
301.352	565
301.742	577.6
302.133	578.4
302.524	574.2
302.915	579.2
303.307	567.8
303.698	583.6
304.089	574.4
304.48	581.4
304.872	578.6
305.263	575.2
305.655	572.2
306.046	580.6
306.438	578.4
306.829	566.8
307.221	577.8
307.613	579.4
308.005	576.6
308.397	584.8
308.789	587.6
309.181	594.2
309.573	587.4
309.965	584.8
310.357	569.6
310.749	585.4
311.142	580
311.534	565.8
311.926	581.4
312.319	574
312.711	571.4
313.104	585.2
313.497	574.2
313.889	602.2
314.282	587.4
314.675	590.2
315.068	587.6
315.461	580.6
315.854	593.6
316.247	580.2
316.64	579
317.033	573.8
317.405	585.4
317.798	572.2
318.192	572.2
318.585	572
318.979	581.6
319.372	569
319.766	570.2
320.16	573.8
320.553	580
320.947	589.6
321.341	569.4
321.735	575
322.129	565
322.523	591.4
322.917	570.2
323.311	584.4
323.705	574.6
324.099	577.2
324.494	591.8
324.888	581.2
325.282	575.6
325.677	577.8
326.071	575.6
326.466	581.2
326.861	581.8
327.255	583.4
327.65	586.4
328.045	588
328.44	582.6
328.835	569
329.23	567.8
329.625	598.2
330.02	568.8
330.415	587.6
330.81	574.4
331.206	571.4
331.601	566.2
331.996	588.2
332.37	587.8
332.766	569.4
333.161	587.8
333.557	566.6
333.953	579
334.348	781.2
334.744	578.2
335.14	571.4
335.536	566.4
335.932	586
336.328	575
336.724	581.6
337.12	577
337.516	578.8
337.913	573.6
338.309	584.2
338.705	574.6
339.102	590.4
339.498	569.4
339.895	587
340.291	570.2
340.688	572.6
341.085	567.4
341.481	577.8
341.878	573.4
342.275	592
342.672	571.6
343.069	572.8
343.466	563.8
343.842	579.8
344.239	567.6
344.636	573.6
345.033	572.6
345.431	564.6
345.828	572.8
346.225	571.2
346.623	596.4
347.02	573.8
347.418	588.2
347.816	590
348.213	567.4
348.611	579.4
349.009	571.8
349.407	587.4
349.805	570.6
350.203	565.2
350.601	576.6
350.999	573.6
351.397	620
351.795	576.6
352.193	576.6
352.57	576.8
352.969	582.6
353.367	567.6
353.766	570
354.164	563.4
354.563	571.2
354.961	565.2
355.36	575
355.759	559.8
356.158	556
356.557	560.8
356.956	559.2
357.355	565.2
357.754	572.2
358.153	568.2
358.552	581.6
358.951	569.2
359.35	574.6
359.75	562.4
360.149	563.6
360.527	561.6
360.926	564.8
361.326	570.6
361.726	570
362.125	564.8
362.525	574.2
362.925	566.4
363.325	570.2
363.724	565.2
364.124	562.8
364.524	560.8
364.924	570.2
365.324	577.4
365.725	558.8
366.125	571.2
366.525	570.2
366.904	562.6
367.304	563.2
367.705	582.8
368.105	582
368.506	569.2
368.906	563.2
369.307	564
369.708	569.8
370.108	556
370.509	579.8
370.91	563
371.311	573.2
371.712	566.6
372.113	567.4
372.514	557.8
372.894	565
373.295	564
373.696	576.4
374.097	575.8
374.499	592.2
374.9	568.8
375.301	559.2
375.703	576.4
376.105	564.6
376.506	574
376.908	571.4
377.309	565.4
377.711	562.8
378.113	566
378.493	573
378.895	560.4
379.297	569.8
379.699	557.8
380.102	577.4
380.504	569.8
380.906	568
381.308	580.6
381.71	568.4
382.113	575.2
382.515	558.6
382.918	572.6
383.299	560.6
383.701	579.4
384.104	572.2
384.507	553.4
384.909	561
385.312	557.2
385.715	556.4
386.118	565.6
386.521	561.4
386.924	574.2
387.327	560.6
387.709	558.8
388.112	559.2
388.515	563
388.918	568.4
389.322	569
389.725	560.4
390.129	580.6
390.532	571.8
390.936	567.4
391.339	557
391.743	554.8
392.125	562.2
392.529	572.6
392.933	575.8
393.337	566.6
393.74	566.8
394.144	567.8
394.548	560
394.953	557.4
395.357	568.2
395.761	568
396.144	561.8
396.548	565.6
396.952	561.4
397.357	574.8
397.761	565.6
398.166	565.6
398.57	567.6
398.975	555.2
399.379	571
399.763	599.8
400.168	564.4
400.572	565.6
400.977	567.4
401.382	579.6
401.787	574
402.192	584.4
402.597	585
403.002	558.8
403.386	572.6
403.791	576.2
404.197	555
404.602	565
405.007	566
405.413	568.2
405.818	564
406.224	563.6
406.608	566
407.014	557.6
407.42	573.4
407.825	563
408.231	575.8
408.637	567.2
409.043	581.4
409.449	561.4
409.834	556
410.24	566.8
410.646	573.8
411.052	579.6
411.458	567.2
411.865	574
412.271	576.2
412.677	575.8
413.062	574
413.469	564.4
413.875	588.2
414.282	574.2
414.689	570.8
415.095	580.6
415.502	558.6
415.888	574.8
416.294	558.2
416.701	594.2
417.108	568
417.515	572.6
417.923	558.2
418.33	579
418.715	585.8
419.123	564.8
419.53	566.2
419.937	563.8
420.345	577.6
420.752	565
421.16	572.4
421.546	567
421.953	568.2
422.361	568.8
422.769	571.2
423.177	564.8
423.585	583.4
423.992	584.4
424.379	577.4
424.787	577
425.195	586.4
425.603	571
426.011	579.2
426.419	579
426.806	567.8
427.214	570.8
427.623	579.4
428.031	580.2
428.44	566.4
428.848	578
429.235	582.6
429.644	572.4
430.053	563
430.461	577.4
430.87	588.6
431.279	587
431.666	566.8
432.075	569.2
432.484	580
432.893	566
433.302	582.2
433.711	596.8
434.099	575.6
434.508	567.2
434.918	563.6
435.327	573.8
435.737	570.6
436.125	571.6
436.534	574.4
436.944	570.4
437.353	570
437.763	581.6
438.173	562.4
438.561	574.4
438.971	552.6
439.381	564.4
439.791	574.6
440.201	557.6
440.589	579
440.999	578
441.409	570.6
441.819	562
442.23	580.8
442.619	583
443.029	574.8
443.439	568.8
443.85	580.8
444.26	587.4
444.649	582.6
445.06	574.4
445.471	573.4
445.881	574.4
446.292	585.8
446.682	591.4
447.092	566
447.503	608.6
447.914	575.6
448.325	581.4
448.715	576.2
449.126	569.8
449.537	573.4
449.948	574.6
450.338	569.4
450.75	584.2
451.161	574.4
451.572	583.2
451.984	571.6
452.374	566
452.786	569.8
453.197	581
453.609	579.6
453.999	559.6
454.411	568.2
454.823	582.4
455.235	578.2
455.647	567.4
456.037	575.6
456.449	554.6
456.862	574.6
457.274	570
457.665	571
458.077	572.6
458.489	591.8
458.902	566.2
459.293	572.8
459.705	564.6
460.118	558.6
460.53	573
460.921	569
461.334	565.4
461.747	568.8
462.16	579
462.551	571.2
462.964	573.2
463.377	556.4
463.79	563
464.182	577
464.595	563.2
465.008	567.4
465.421	566.6
465.813	561.6
466.226	573.6
466.64	566
467.053	600.6
467.445	586.8
467.859	577.4
468.272	560.4
468.686	575.6
469.078	570.4
469.492	561
469.906	562.4
470.298	568.4
470.712	559.2
471.126	595.8
471.54	559
471.933	556.4
472.347	570.2
472.761	559
473.175	557.8
473.568	561.4
473.982	558.2
474.397	560.4
474.79	560.4
475.204	564.6
475.619	564.8
476.033	574
476.426	558.8
476.841	560.2
477.256	578.8
477.649	558.8
478.064	556.6
478.479	560
478.872	560.4
479.287	557.6
479.702	558.8
480.118	565.8
480.511	557.6
480.927	560.8
481.342	560.4
481.736	561
482.151	560
482.566	568
482.96	557
483.376	562.4
483.792	564.2
484.186	561.4
484.602	568.6
485.017	566.6
485.412	566.2
485.827	562.2
486.243	559
486.638	578.4
487.054	568.6
487.47	575.6
487.865	559.4
488.281	561
488.697	561.4
489.092	558
489.508	559.8
489.925	557
490.32	556.2
490.736	560.8
491.153	562.2
491.548	560
491.964	564.8
492.381	549.2
492.776	567
493.193	560.8
493.61	568
494.006	562.4
494.422	565
494.84	563.6
495.235	571
495.652	561
496.069	565.2
496.465	561.6
496.883	559
497.3	580.8
497.696	562.4
498.113	567.2
498.509	555.4
498.927	554.2
499.344	552
499.741	564.4
500.158	573
500.576	572.8
500.973	568.4
501.39	559.6
501.787	548.4
502.205	565.6
502.623	556.6
503.02	550.2
503.438	550.4
503.856	562.8
504.253	561.6
504.671	562
505.068	551.8
505.486	564.2
505.905	570.4
506.302	558.6
506.72	567
507.118	557
507.536	567.2
507.955	562.4
508.352	568
508.771	575.4
509.169	567.8
509.587	557.2
510.006	567.4
510.404	558
510.823	555.2
511.221	561.6
511.64	562
512.038	570.6
512.457	565.8
512.877	558
513.275	555.8
513.694	563.8
514.092	556.4
514.512	563.6
514.91	570.6
515.33	560.4
515.749	559.4
516.148	562.4
516.568	571.2
516.966	563.4
517.386	561
517.785	567.6
518.205	556.8
518.603	562.6
519.024	563.4
519.444	565.6
519.843	570.6
520.263	567.6
520.662	565
521.082	559
521.481	566
521.902	565.8
522.301	562.8
522.722	561.8
523.121	562.6
523.542	558.6
523.963	562.2
524.362	571
524.783	567.4
525.183	559.4
525.604	568.6
526.003	556.8
526.425	565.4
526.824	566.2
527.246	569.4
527.646	569
528.067	560.8
528.467	563.8
528.888	563.8
529.289	569.8
529.71	559.4
530.11	559.4
530.532	563.8
530.932	558
531.354	560.6
531.755	587.8
532.176	568.6
532.577	564.4
532.999	561.4
533.4	565.8
533.822	575.8
534.223	574.2
534.645	563
535.046	565.8
535.468	574
535.869	575.2
536.292	557.4
536.693	583.6
537.115	569.4
537.516	560.8
537.939	562
538.34	574.2
538.742	575
539.165	563.8
539.566	563.4
539.989	559.6
540.391	560
540.814	569
541.216	570.4
541.639	569.6
542.041	570
542.464	557.2
542.866	558.6
543.268	554.4
543.691	562.2
544.093	568.4
544.517	583
544.919	557.8
545.343	572.6
545.745	565
546.147	563.2
546.571	561.2
546.974	553.2
547.398	560.6
547.8	563.8
548.224	556
548.627	552.2
549.03	563.8
549.454	548.8
549.857	554
550.281	561.4
550.684	559.4
551.087	569.2
551.512	560.8
551.915	565.6
552.34	562.8
552.743	558.8
553.146	562.2
553.571	557.4
553.975	575
554.399	557.8
554.803	591.8
555.207	557.8
555.632	550
556.036	567
556.461	558.2
556.865	555.6
557.268	552
557.694	559.8
558.098	567
558.502	562.2
558.927	555
559.332	562
559.736	562.6
560.162	563.4
560.566	554.6
560.992	568
561.396	567.4
561.801	554
562.227	556.2
562.631	556.2
563.036	563.8
563.462	565.6
563.867	561
564.272	548.6
564.698	554.4
565.103	549.6
565.508	574.2
565.935	563
566.34	557.6
566.745	574
567.172	560.4
567.577	572.2
567.982	567.8
568.409	567.2
568.815	547.6
569.22	557.2
569.626	558.6
570.053	550.4
570.459	556.8
570.865	558
571.292	568.8
571.698	563.4
572.104	552.8
572.531	565.6
572.937	565.2
573.343	559.2
573.75	551.6
574.177	563
574.583	563.2
574.99	554.8
575.396	561.8
575.824	560.6
576.231	566.8
576.637	557.2
577.065	575.8
577.472	554.4
577.879	555.2
578.286	571.4
578.714	548.8
579.121	553.8
579.528	558
579.935	562.6
580.364	555.6
580.771	552.8
581.178	550.2
581.585	560
582.014	555.6
582.421	554
582.829	558.8
583.236	564.2
583.644	549.4
584.073	555
584.481	558.6
584.889	558.2
585.296	559.6
585.726	558
586.134	541.6
586.542	549
586.95	570.4
587.358	549.2
587.787	557.4
588.196	566.4
588.604	552.8
589.012	562.2
589.421	548
589.851	551.8
590.259	561.6
590.668	558.2
591.076	582.8
591.485	557
591.894	557
592.324	568.2
592.733	569.2
593.142	553.2
593.551	564.2
593.96	561
594.369	556.4
594.8	557.6
595.209	562.2
595.618	555.6
596.028	562.8
596.437	553
596.847	568.6
597.256	574
597.687	569
598.097	561.2
598.507	562.2
598.917	568.8
599.327	569
599.736	564.4
600.146	575.6
600.556	561.4
600.988	572
601.398	566.4
601.808	583.4
602.219	559.2
602.629	569.4
603.039	574
603.45	587.2
603.86	562.8
604.271	575.6
604.703	570
605.114	572.6
605.525	575.6
605.935	575.2
606.346	587.6
606.757	570.2
607.168	569.8
607.579	563.6
607.99	584
608.402	574.4
608.813	582
609.224	573
609.636	564.4
610.047	565.6
610.48	570
610.892	580
611.303	575.6
611.715	568.6
612.127	567.8
612.539	568.8
612.95	570.2
613.362	564.8
613.774	570.4
614.186	558.4
614.599	567.2
615.011	580.8
615.423	573.4
615.835	569.6
616.248	559.8
616.66	572.2
617.073	566.8
617.485	569.4
617.898	576.4
618.311	565
618.723	572.2
619.136	592.6
619.549	579.4
619.962	592.6
620.375	571.2
620.788	576.4
621.201	570.4
621.614	580.4
622.028	570.6
622.441	569.8
622.854	573.8
623.268	567.4
623.681	572.4
624.095	575
624.509	577.2
624.922	575.4
625.336	569.6
625.728	571.2
626.142	583
626.556	580.4
626.97	579.4
627.384	566.8
627.799	560.2
628.213	579.4
628.627	571
629.041	571.2
629.456	564.4
629.87	577.2
630.285	573.6
630.699	571
631.093	574
631.507	567.4
631.922	580
632.337	576.4
632.752	569.2
633.167	567.4
633.582	563.2
633.997	567
634.412	565.6
634.806	572.4
635.221	564.2
635.637	580.6
636.052	564.6
636.468	564.8
636.883	581.2
637.299	573
637.715	556.2
638.109	566.6
638.525	561
638.941	575
639.357	572.6
639.773	573.4
640.189	561
640.584	563.8
641	567.8
641.416	555.6
641.832	563.8
642.249	556.8
642.665	566
643.06	572.8
643.477	576.8
643.894	553.8
644.31	562.8
644.727	567.6
645.123	572.4
645.54	565
645.957	567.8
646.374	570.6
646.77	572.6
647.187	591
647.604	567.8
648.021	548
648.439	556.8
648.835	560.4
649.252	562
649.67	567.4
650.088	567.4
650.484	567
650.902	567.6
651.32	567
651.738	559.8
652.134	565.6
652.552	577.8
652.971	568.8
653.389	568.2
653.786	571.2
654.204	580.4
654.622	553.4
655.019	565.2
655.438	562
655.857	562
656.275	573.8
656.673	551.6
657.091	566.6
657.51	562.4
657.908	570.8
658.327	576.8
658.746	554
659.144	559.4
659.563	568.8
659.982	569.2
660.38	553
660.8	560.6
661.219	573.4
661.617	566
662.037	554.4
662.457	573
662.855	550.6
663.275	587.8
663.695	554.4
664.094	567.2
664.514	565
664.934	549.6
665.333	568
665.753	554.4
666.152	557.8
666.572	555.4
666.993	568.2
667.392	553.6
667.812	559.6
668.212	556.2
668.632	562.4
669.053	559.4
669.453	555.6
669.874	558.2
670.273	563
670.694	550.2
671.116	566.2
671.515	569.4
671.937	556.4
672.337	552.2
672.758	560.6
673.158	559.6
673.58	550.6
673.98	563.2
674.402	567.4
674.824	552.8
675.224	552.6
675.646	547.8
676.047	556.8
676.469	560.2
676.869	564.2
677.292	550.4
677.693	555.2
678.115	550
678.516	553.6
678.939	560.8
679.34	550.6
679.762	563.8
680.164	556.2
680.586	544.6
680.988	554.8
681.411	569.2
681.812	558.4
682.236	546.4
682.637	551
683.061	555.2
683.462	559.2
683.864	551
684.288	559.6
684.69	549.6
685.114	565
685.516	560.2
685.94	551.6
686.342	560
686.766	553
687.168	556.4
687.571	558.2
687.995	561.6
688.398	549.6
688.822	555.6
689.225	567.2
689.628	569.2
690.052	552.2
690.456	559
690.88	558
691.284	543
691.687	555
692.112	544.8
692.515	553
692.919	559.4
693.344	550.2
693.747	552.2
694.173	551
694.577	561.2
694.98	558
695.406	545.6
695.81	554
696.214	557
696.64	561.4
697.044	555.8
697.448	556.6
697.874	551.6
698.279	545.8
698.684	540.6
699.11	546.6
699.514	549.4
699.919	551.6
700.324	550.6
700.75	552.8
701.156	558.8
701.561	565
701.987	550.4
702.393	560.8
702.798	565
703.203	553.8
703.63	551.2
704.036	550.2
704.442	559.2
704.847	553.6
705.274	554.8
705.68	553.8
706.086	560
706.492	545.4
706.92	553.4
707.326	558.8
707.732	548.2
708.139	548.4
708.545	548.4
708.973	553.4
709.38	554.6
709.786	548.8
710.193	562.6
710.6	550.4
711.028	552
711.435	554.8
711.842	559
712.249	557
712.656	555.4
713.064	558.6
713.492	547.4
713.9	557.6
714.307	552.6
714.715	550.8
715.123	549.8
715.53	552.8
715.938	558.4
716.367	554.6
716.775	550.2
717.184	548
717.592	548.2
718	561.2
718.408	570
718.816	584.4
719.225	557.2
719.633	549.2
720.042	541.4
720.472	549.4
720.881	561.4
721.29	552.4
721.699	544.4
722.108	550.2
722.517	555
722.926	544.4
723.335	552.8
723.744	544.4
724.154	544.8
724.563	549.8
724.973	556.4
725.382	544.8
725.792	548.2
726.202	544.4
726.612	566.2
727.022	559.2
727.432	548.6
779.813	548.6
780.223	583.6
780.634	548.6
781.044	550.6
781.454	555
781.865	556
782.276	538.8
782.686	560.2
783.097	552
783.508	553.6
783.919	548.6
784.33	556
784.741	552.8
785.152	549.4
785.563	539.2
785.974	545.8
786.386	559.4
786.776	557.4
787.188	552
787.599	545
788.011	550.8
788.423	553.8
788.835	543
789.247	547
789.659	549
790.071	553.6
790.483	575.6
790.874	552.6
791.286	553.2
791.699	550.2
792.111	545.8
792.524	548.8
792.937	546.6
793.349	546.4
793.741	542
794.154	546.4
794.567	563.4
794.98	548.6
795.393	540
795.785	555.4
796.198	550.4
796.612	547.4
797.026	543
797.439	534.2
797.831	544.2
798.245	542.2
798.659	544.6
799.073	546.6
799.487	542.2
799.88	536.8
800.294	546.4
800.708	541.2
801.123	551.6
801.516	561.2
801.93	535.4
802.345	533.8
802.76	550.4
803.153	556.4
803.568	549.4
803.983	551.8
804.377	549.6
804.792	541.6
805.207	543.2
805.601	547.6
806.016	569.6
806.432	538.6
806.826	564.2
807.242	555.8
807.658	547
808.052	539.4
808.468	538.4
808.884	541.4
809.279	545.4
809.695	563.2
810.111	562.8
810.506	553.4
810.922	561.6
811.339	542.6
811.734	550.2
812.151	543.4
812.546	544.8
812.963	544.2
813.38	548.4
813.776	552
814.193	556.4
814.589	541
815.006	548.8
815.402	536.2
815.82	546.6
816.237	547.4
816.633	557.4
817.051	539.6
817.448	550.6
817.866	540
818.262	556.8
818.68	542.2
819.077	550.6
819.495	552.6
819.892	578
820.311	543.6
820.708	550.6
821.127	545.2
821.524	557.8
821.943	556.2
822.34	563
822.759	548.4
823.157	541.2
823.576	560
823.974	550.8
824.393	580
824.791	541.8
825.189	538.2
825.609	540.2
826.007	544.4
826.427	537
826.826	542.6
827.246	548.8
827.644	535
828.043	554.6
828.463	545
828.862	550.8
829.261	546.6
829.682	539.2
830.081	549.8
830.502	538.2
830.901	550.4
831.301	554.6
831.722	535.4
832.121	546.6
832.521	534.6
832.943	547.6
833.342	547.6
833.742	546
834.164	539.4
834.564	535.4
834.965	542
835.386	541.2
835.787	550.4
836.188	537.6
836.588	536
837.01	548
837.411	542.2
837.812	552
838.213	547.2
838.636	550.4
839.037	597.6
839.438	554.6
839.84	543.4
840.263	559.8
840.664	554.6
841.066	546.4
841.468	549.6
841.891	542.8
842.293	553.6
842.695	544.8
843.098	550.4
843.5	543.8
843.902	545.4
844.326	542.2
844.729	549
845.131	555.2
845.534	547.8
845.937	555.2
846.34	556.4
846.764	549.8
847.167	538.6
847.571	536
847.974	544
848.377	546
848.781	580.4
849.184	549.4
849.588	551.4
849.992	540
850.396	546.8
850.821	566
851.225	545.4
851.63	546.6
852.034	561.8
852.438	545.2
852.843	560.2
853.247	539.6
853.652	546.2
854.057	566.2
854.462	550
854.867	554.6
855.272	576
855.677	550.4
856.082	542.2
856.487	544.6
