#lambda/nm	C1
208.295	559.6
208.67	496.6
209.045	460.2
209.419	460.2
209.794	589.2
210.169	574.4
210.544	674
210.919	602
211.295	580.6
211.67	587
212.045	585.4
212.421	583.4
212.796	618.4
213.172	579.2
213.547	586
213.923	584
214.299	587.2
214.675	602
215.051	596.4
215.427	596.6
215.803	606.4
216.179	589.4
216.555	582.2
216.932	587.6
217.308	597.2
217.684	587.8
218.061	591
218.438	586.6
218.814	584.2
219.191	591.2
219.568	584.6
219.945	586.2
220.322	589
220.699	588
221.076	593
221.453	587.2
221.83	578.8
222.208	582.2
222.585	579.6
222.962	581.6
223.34	590
223.717	586.4
224.095	582.2
224.473	585
224.851	580.4
225.229	578
225.607	599.6
225.985	586
226.363	596
226.741	589.2
227.119	587.4
227.497	595.6
227.876	577.6
228.254	588.6
228.633	588.4
229.011	589.2
229.39	601.8
229.769	590.8
230.148	592
230.527	607.8
230.905	581.4
231.284	594
231.664	582.4
232.043	601.4
232.422	600.4
232.801	586.4
233.181	590.4
233.56	582.8
233.94	585.4
234.319	581.2
234.699	588
235.079	622.8
235.458	621.2
235.838	602.6
236.218	582.8
236.598	577
236.978	570.2
237.358	584.8
237.738	580
238.119	597
238.499	579.2
238.88	583.6
239.26	600.6
239.641	578.2
240.021	588.4
240.402	590.6
240.783	588.6
241.163	589.6
241.544	583.4
241.925	593.6
242.306	602.2
242.687	587.6
243.069	592.2
243.45	595
243.831	577.2
244.212	583.4
244.594	610.2
244.975	590.6
245.357	593.8
245.739	582.2
246.12	586.6
246.502	601
246.884	589.8
247.266	581.2
247.648	592.6
248.03	604.8
248.412	590.4
248.794	590
249.176	580.6
249.559	594.4
249.941	578
250.323	573.4
250.706	589.6
251.089	584.4
251.471	587.8
251.854	590
252.237	586
252.62	593.4
253.002	586.4
253.385	588.4
253.769	596.4
254.152	590.2
254.535	586.4
254.918	586.8
255.301	590.8
255.685	585.4
256.068	579.8
256.452	610
256.835	589.8
257.219	596.2
257.603	597.6
257.986	577.8
258.37	587.4
258.754	580.6
259.138	591
259.522	592.2
259.906	587.6
260.29	593.8
260.675	585.8
261.059	591.2
261.443	571
261.828	591
262.212	588.8
262.597	578
262.981	578.2
263.366	588.8
263.751	581.4
264.136	580.4
264.521	591
264.906	588
265.291	592.6
265.676	585.2
266.061	593
266.446	603
266.831	581
267.217	604.8
267.602	590.4
267.987	590.6
268.373	585.6
268.759	594
269.144	587.8
269.53	596.8
269.916	588.6
270.302	582.6
270.688	596
271.074	585.6
271.46	590
271.846	613.2
272.232	583.6
272.618	586.4
273.004	590.4
273.391	603
273.777	597
274.164	590
274.55	601.2
274.937	592.4
275.324	587.2
275.71	592.4
276.097	591.4
276.484	578.2
276.871	590.8
277.258	592.6
277.645	573.8
278.032	589
278.419	581.6
278.807	591.6
279.194	576.4
279.581	580.6
279.969	591.2
280.356	588.8
280.744	587
281.131	608.8
281.519	594.2
281.907	592.8
282.295	587.6
282.682	593.2
283.07	589
283.458	594
283.846	593
284.235	598.8
284.623	592.6
285.011	580.8
285.399	586.2
285.788	586.8
286.176	576.6
286.565	592.4
286.953	581.2
287.342	577.2
287.731	581
288.119	575
288.508	581.2
288.897	580.6
289.286	576.8
289.675	582.6
290.064	594.4
290.453	584.2
290.821	585.6
291.21	597.8
291.599	586.4
291.989	589.2
292.378	591.8
292.768	601
293.157	589.8
293.547	601.4
293.936	588
294.326	583.8
294.716	593.2
295.106	586.2
295.496	581.8
295.886	589
296.276	594
296.666	582.6
297.056	585
297.446	572
297.836	602.8
298.227	581.8
298.617	581.8
299.008	595.2
299.398	583.4
299.789	585.8
300.179	597.8
300.57	597.2
300.961	579.6
301.352	580.6
301.742	599.8
302.133	587.8
302.524	586.8
302.915	590.8
303.307	582.2
303.698	596.2
304.089	587
304.48	585.4
304.872	590.6
305.263	585.6
305.655	581.6
306.046	590.2
306.438	590.4
306.829	580.8
307.221	597.8
307.613	586
308.005	604.8
308.397	595
308.789	608.6
309.181	615
309.573	594.6
309.965	603
310.357	586.2
310.749	592.8
311.142	582.8
311.534	584
311.926	595.8
312.319	585.4
312.711	575.8
313.104	594.4
313.497	588.8
313.889	617.6
314.282	596.8
314.675	610
315.068	587.2
315.461	599
315.854	610.8
316.247	592
316.64	582.4
317.033	588.6
317.405	592.6
317.798	584.4
318.192	589
318.585	580.6
318.979	599
319.372	589.8
319.766	582.8
320.16	601.2
320.553	604
320.947	596.2
321.341	591.8
321.735	586.6
322.129	582.2
322.523	609.6
322.917	588.8
323.311	599.6
323.705	596.2
324.099	591.6
324.494	599.4
324.888	589.6
325.282	588.6
325.677	603.2
326.071	595.6
326.466	599.2
326.861	588
327.255	602.2
327.65	600
328.045	601.2
328.44	596
328.835	589.8
329.23	584.8
329.625	606
330.02	587.2
330.415	606.8
330.81	591.8
331.206	591
331.601	582.8
331.996	598
332.37	607.4
332.766	587.8
333.161	610.6
333.557	585.6
333.953	589
334.348	885.8
334.744	592.6
335.14	587
335.536	580.6
335.932	598.4
336.328	584.8
336.724	602.4
337.12	590.6
337.516	588
337.913	588.8
338.309	602
338.705	589.6
339.102	600.2
339.498	579.2
339.895	595.4
340.291	586
340.688	595.2
341.085	580.8
341.481	578.4
341.878	592.2
342.275	605
342.672	583.6
343.069	584.6
343.466	573.4
343.842	588
344.239	582
344.636	583
345.033	578.8
345.431	580.4
345.828	587.6
346.225	573.8
346.623	608.4
347.02	592.2
347.418	593.4
347.816	592.4
348.213	578.6
348.611	594.2
349.009	577
349.407	587.4
349.805	575.6
350.203	577.2
350.601	597.8
350.999	582.6
351.397	635.6
351.795	585
352.193	599
352.57	589.2
352.969	596.4
353.367	575.4
353.766	579.2
354.164	585.2
354.563	596.6
354.961	578.8
355.36	580.4
355.759	583.6
356.158	576.8
356.557	585.6
356.956	577
357.355	581.8
357.754	585.2
358.153	589
358.552	606
358.951	583
359.35	590.8
359.75	572.2
360.149	575.2
360.527	577.6
360.926	577.2
361.326	577.8
361.726	590.4
362.125	569.8
362.525	592.4
362.925	579.8
363.325	584.2
363.724	586.2
364.124	574.8
364.524	577
364.924	585
365.324	585.8
365.725	569
366.125	589
366.525	577.8
366.904	576.2
367.304	563.8
367.705	596.4
368.105	591.6
368.506	583.8
368.906	580.4
369.307	585.2
369.708	585.8
370.108	571.2
370.509	586.8
370.91	580.6
371.311	581
371.712	587.8
372.113	584.6
372.514	572.2
372.894	577.4
373.295	578.4
373.696	588.2
374.097	591
374.499	603.4
374.9	589.6
375.301	583.6
375.703	586.4
376.105	577.2
376.506	590
376.908	590
377.309	579
377.711	576.6
378.113	577.2
378.493	576.4
378.895	573.6
379.297	572.6
379.699	570.2
380.102	579.2
380.504	577.6
380.906	576
381.308	601
381.71	573.6
382.113	589.8
382.515	574.6
382.918	590
383.299	576.2
383.701	581.4
384.104	581.8
384.507	566.2
384.909	570
385.312	578.6
385.715	579
386.118	569.4
386.521	566.6
386.924	590.2
387.327	571.6
387.709	573.2
388.112	566.4
388.515	582
388.918	580.8
389.322	584.8
389.725	571
390.129	602.4
390.532	580.4
390.936	577
391.339	581
391.743	580.8
392.125	575.4
392.529	590.4
392.933	593.6
393.337	586.2
393.74	579.2
394.144	584.6
394.548	574.4
394.953	577
395.357	596
395.761	581.2
396.144	578.8
396.548	583.8
396.952	583
397.357	572.2
397.761	575
398.166	583.2
398.57	580.8
398.975	576.2
399.379	576.6
399.763	615.2
400.168	589.2
400.572	582
400.977	583.4
401.382	598
401.787	588.8
402.192	592.2
402.597	594.4
403.002	577.4
403.386	583
403.791	600
404.197	576.2
404.602	581.4
405.007	579.8
405.413	574.4
405.818	578.6
406.224	579.8
406.608	576
407.014	573.6
407.42	591
407.825	575.8
408.231	589.8
408.637	586.6
409.043	587.8
409.449	571.2
409.834	572.6
410.24	574.8
410.646	594.4
411.052	590.6
411.458	590.8
411.865	585.2
412.271	579.6
412.677	582.4
413.062	585.4
413.469	578
413.875	588.4
414.282	583.4
414.689	586
415.095	579.8
415.502	572.8
415.888	569.6
416.294	565.8
416.701	610.6
417.108	582.4
417.515	582
417.923	577.4
418.33	596.4
418.715	586.6
419.123	576.4
419.53	578.2
419.937	586.8
420.345	590.8
420.752	580.6
421.16	584.8
421.546	582.4
421.953	586.2
422.361	575.4
422.769	583.8
423.177	581.4
423.585	607.8
423.992	595.8
424.379	589.6
424.787	591.6
425.195	597
425.603	575
426.011	600.2
426.419	597.8
426.806	588.6
427.214	584.4
427.623	595.6
428.031	597.6
428.44	582.8
428.848	592.6
429.235	598.8
429.644	577.6
430.053	576.8
430.461	597.6
430.87	612.6
431.279	592
431.666	577.6
432.075	578.2
432.484	585.4
432.893	591.4
433.302	601
433.711	619.4
434.099	585.8
434.508	580
434.918	586.4
435.327	588.2
435.737	579.4
436.125	579
436.534	594.8
436.944	585.4
437.353	585.2
437.763	597
438.173	578.6
438.561	588.8
438.971	568.6
439.381	581.6
439.791	581.2
440.201	562.4
440.589	583.4
440.999	587.4
441.409	574.2
441.819	571.4
442.23	588
442.619	580.2
443.029	579.2
443.439	578.6
443.85	575.4
444.26	590.4
444.649	586.2
445.06	578
445.471	576.8
445.881	583.8
446.292	592.8
446.682	590.8
447.092	570.6
447.503	614
447.914	570
448.325	575
448.715	580.8
449.126	580
449.537	574.8
449.948	569.4
450.338	575.6
450.75	582.6
451.161	586
451.572	578.4
451.984	579.6
452.374	570.8
452.786	581.4
453.197	582.8
453.609	581.6
453.999	574.4
454.411	578
454.823	586.2
455.235	578.8
455.647	580.6
456.037	584.4
456.449	564.2
456.862	580.6
457.274	579.6
457.665	576.2
458.077	581.4
458.489	599.2
458.902	582.4
459.293	582.4
459.705	582.2
460.118	571.8
460.53	577.8
460.921	570.4
461.334	586.2
461.747	586
462.16	595.4
462.551	585.2
462.964	580
463.377	570.6
463.79	573.6
464.182	591.6
464.595	571.2
465.008	575.2
465.421	585.4
465.813	580
466.226	580.6
466.64	573.6
467.053	613
467.445	585.2
467.859	587.2
468.272	578.4
468.686	586.4
469.078	581.2
469.492	570.8
469.906	578.6
470.298	579.6
470.712	575
471.126	614.4
471.54	568
471.933	573
472.347	568.2
472.761	579.4
473.175	563.4
473.568	584.8
473.982	571.6
474.397	576.4
474.79	577.4
475.204	577.4
475.619	570.6
476.033	577.2
476.426	577
476.841	572.6
477.256	591
477.649	565.4
478.064	568.6
478.479	563.4
478.872	577.4
479.287	563.4
479.702	565.8
480.118	570
480.511	567
480.927	569
481.342	569.8
481.736	574.2
482.151	563.6
482.566	583.8
482.96	574
483.376	581
483.792	562.4
484.186	574.6
484.602	574.8
485.017	565.4
485.412	572.4
485.827	575.4
486.243	575.8
486.638	594
487.054	577.2
487.47	587
487.865	577.4
488.281	568.4
488.697	569.6
489.092	574.6
489.508	567.2
489.925	580.6
490.32	560.6
490.736	579.6
491.153	565
491.548	578.6
491.964	584.6
492.381	566.6
492.776	575.8
493.193	571.4
493.61	579.8
494.006	567.2
494.422	567.2
494.84	563.6
495.235	582.8
495.652	573.6
496.069	569.8
496.465	563.8
496.883	568.4
497.3	591.2
497.696	574.2
498.113	580.4
498.509	560.2
498.927	557.4
499.344	568.6
499.741	568.4
500.158	578.6
500.576	590.6
500.973	571.6
501.39	570
501.787	569
502.205	577.4
502.623	565.6
503.02	565.4
503.438	569.4
503.856	572
504.253	578
504.671	565.6
505.068	569.8
505.486	568.4
505.905	583
506.302	568.2
506.72	582.6
507.118	570
507.536	569.2
507.955	579.2
508.352	572.8
508.771	577.4
509.169	575.4
509.587	561.8
510.006	573.2
510.404	558.4
510.823	565
511.221	570
511.64	568.8
512.038	583.4
512.457	560.4
512.877	567.8
513.275	560.4
513.694	567.8
514.092	564.6
514.512	568.6
514.91	582
515.33	572.2
515.749	561.4
516.148	570.4
516.568	574.8
516.966	564.8
517.386	570.6
517.785	568
518.205	565.6
518.603	570.4
519.024	573.2
519.444	571.2
519.843	575.6
520.263	579
520.662	572.4
521.082	574.2
521.481	574.2
521.902	563.6
522.301	574.8
522.722	574
523.121	567.2
523.542	572
523.963	574.4
524.362	569.6
524.783	578
525.183	565.8
525.604	581.8
526.003	568.8
526.425	565.8
526.824	570.2
527.246	573
527.646	584.6
528.067	576
528.467	576.4
528.888	569.6
529.289	570.8
529.71	569.8
530.11	572
530.532	569.6
530.932	565.6
531.354	563.6
531.755	602
532.176	580.4
532.577	574
532.999	568.4
533.4	568.4
533.822	572.6
534.223	578.8
534.645	568
535.046	569
535.468	572.6
535.869	580
536.292	566
536.693	603.4
537.115	572.4
537.516	567
537.939	561.8
538.34	584
538.742	577.2
539.165	567.2
539.566	570.6
539.989	558.6
540.391	568
540.814	570
541.216	563.8
541.639	566
542.041	572.6
542.464	566.6
542.866	562.2
543.268	560.6
543.691	576
544.093	572.6
544.517	582.6
544.919	560.8
545.343	585.4
545.745	563
546.147	571.2
546.571	563
546.974	568
547.398	569.4
547.8	582.6
548.224	572.6
548.627	566.4
549.03	571
549.454	562.8
549.857	562
550.281	568.8
550.684	561.4
551.087	584.4
551.512	572.6
551.915	570.2
552.34	569.6
552.743	576.6
553.146	570.6
553.571	563.8
553.975	577.2
554.399	560.2
554.803	608.6
555.207	566.8
555.632	560.6
556.036	576
556.461	557.4
556.865	573
557.268	567.8
557.694	568.2
558.098	572.8
558.502	578.4
558.927	567.6
559.332	573.8
559.736	568
560.162	570
560.566	568.8
560.992	571.6
561.396	566.8
561.801	570.8
562.227	568.6
562.631	567.2
563.036	576.6
563.462	574.8
563.867	575.8
564.272	565.6
564.698	574.8
565.103	561.6
565.508	584
565.935	572.4
566.34	569.6
566.745	575.4
567.172	566.8
567.577	587
567.982	573.4
568.409	579.4
568.815	558
569.22	568.4
569.626	581.2
570.053	555.6
570.459	575.2
570.865	572.4
571.292	582.2
571.698	570.2
572.104	564
572.531	567
572.937	581.2
573.343	568.8
573.75	573.4
574.177	566.2
574.583	576.6
574.99	565
575.396	574
575.824	562.8
576.231	575.8
576.637	565.2
577.065	591.8
577.472	557.6
577.879	559.8
578.286	590.2
578.714	562.6
579.121	568.2
579.528	564.6
579.935	570.8
580.364	565
580.771	554.4
581.178	565
581.585	571.4
582.014	573.8
582.421	557.8
582.829	575
583.236	571.4
583.644	557.6
584.073	561.6
584.481	573.2
584.889	563.4
585.296	569.6
585.726	560.8
586.134	556.8
586.542	566
586.95	587.4
587.358	557
587.787	567.2
588.196	573
588.604	565.4
589.012	574.4
589.421	565.4
589.851	565
590.259	567.2
590.668	571.6
591.076	597.8
591.485	556
591.894	567
592.324	575.4
592.733	578
593.142	562.6
593.551	562.4
593.96	564.4
594.369	554.6
594.8	559.6
595.209	573.4
595.618	548
596.028	566
596.437	560.4
596.847	574.4
597.256	569.8
597.687	571
598.097	568.8
598.507	560.2
598.917	569.4
599.327	571.2
599.736	561.8
600.146	580.8
600.556	569.8
600.988	578.4
601.398	563.4
601.808	573.2
602.219	562.4
602.629	570.2
603.039	564.2
603.45	588
603.86	566
604.271	574.2
604.703	558.6
605.114	561
605.525	564.4
605.935	574.4
606.346	583.2
606.757	573.8
607.168	566.2
607.579	568
607.99	581.8
608.402	576.2
608.813	574
609.224	552.4
609.636	559.4
610.047	563.6
610.48	573.6
610.892	571.4
611.303	574.8
611.715	565
612.127	562.2
612.539	567
612.95	576.2
613.362	553.4
613.774	556
614.186	567.8
614.599	571.2
615.011	571
615.423	570.6
615.835	562.4
616.248	564.2
616.66	577
617.073	565.4
617.485	571.4
617.898	581.4
618.311	568.8
618.723	571.2
619.136	599
619.549	585.2
619.962	593.2
620.375	568.6
620.788	574.6
621.201	573.8
621.614	574.2
622.028	573.6
622.441	576
622.854	581.8
623.268	568.8
623.681	570.8
624.095	563
624.509	576.4
624.922	576.4
625.336	567
625.728	570.2
626.142	577.8
626.556	590.4
626.97	575
627.384	569.8
627.799	575.2
628.213	581.8
628.627	571.8
629.041	565.6
629.456	572.2
629.87	571.6
630.285	583.8
630.699	580.6
631.093	570.6
631.507	576.8
631.922	574
632.337	583.2
632.752	566.2
633.167	565.6
633.582	569.4
633.997	564
634.412	567.6
634.806	566.6
635.221	564.8
635.637	564.8
636.052	558
636.468	567.4
636.883	584.8
637.299	570.4
637.715	561.4
638.109	568.4
638.525	558.4
638.941	580.2
639.357	567.8
639.773	574.4
640.189	571.8
640.584	566.2
641	561.4
641.416	564.2
641.832	562
642.249	566
642.665	568.8
643.06	567
643.477	572.6
643.894	557.2
644.31	564.8
644.727	572.2
645.123	565.4
645.54	554.4
645.957	567.2
646.374	579
646.77	570.8
647.187	588.6
647.604	568.4
648.021	551.8
648.439	559.4
648.835	570
649.252	572.6
649.67	573.4
650.088	568.8
650.484	576
650.902	570.4
651.32	573.2
651.738	568.2
652.134	565.6
652.552	578.2
652.971	573.2
653.389	564.6
653.786	576.8
654.204	585
654.622	562.6
655.019	571.6
655.438	570.4
655.857	562.6
656.275	569
656.673	564.8
657.091	565.8
657.51	562.6
657.908	579.6
658.327	580.2
658.746	561
659.144	559.2
659.563	579.2
659.982	562.6
660.38	562
660.8	571
661.219	577.6
661.617	569
662.037	559
662.457	580.4
662.855	556.6
663.275	589.2
663.695	563.8
664.094	567
664.514	571.2
664.934	556.8
665.333	571
665.753	557.8
666.152	562
666.572	560.4
666.993	580.8
667.392	562.4
667.812	561.6
668.212	563
668.632	576.6
669.053	568.2
669.453	565.8
669.874	571.4
670.273	565.2
670.694	561.8
671.116	572
671.515	575.6
671.937	562.8
672.337	561
672.758	562.6
673.158	567.4
673.58	551.2
673.98	564.8
674.402	566.6
674.824	562.2
675.224	557.8
675.646	551.6
676.047	558
676.469	563.4
676.869	565.8
677.292	558.4
677.693	557.6
678.115	561
678.516	570.6
678.939	564.6
679.34	557.2
679.762	566
680.164	562.8
680.586	560
680.988	564
681.411	581.2
681.812	559
682.236	556.6
682.637	554.6
683.061	559.4
683.462	560.2
683.864	554.6
684.288	568.8
684.69	564.2
685.114	572.8
685.516	575.6
685.94	560.4
686.342	569.6
686.766	556.8
687.168	559.4
687.571	574.2
687.995	563.2
688.398	560.6
688.822	556.6
689.225	568.8
689.628	583.8
690.052	572.2
690.456	561.4
690.88	568.8
691.284	553.4
691.687	562.8
692.112	561
692.515	554.2
692.919	559.6
693.344	564
693.747	554.8
694.173	563
694.577	575.2
694.98	559.8
695.406	563
695.81	565.2
696.214	570
696.64	564.2
697.044	565.4
697.448	577
697.874	561.8
698.279	564
698.684	559.8
699.11	553.4
699.514	556.8
699.919	564.4
700.324	552.6
700.75	559.2
701.156	557.6
701.561	569.4
701.987	559.2
702.393	572.4
702.798	567.6
703.203	569.6
703.63	551.6
704.036	561
704.442	560.8
704.847	554.2
705.274	561
705.68	560.6
706.086	568.4
706.492	548.2
706.92	560.6
707.326	568.6
707.732	561.6
708.139	554.6
708.545	556.2
708.973	553.6
709.38	567.4
709.786	555.2
710.193	581
710.6	564.6
711.028	556.2
711.435	564.2
711.842	567.2
712.249	558.4
712.656	567.2
713.064	565.4
713.492	554.8
713.9	562.2
714.307	565.2
714.715	568.6
715.123	562
715.53	570.2
715.938	577.4
716.367	556.6
716.775	564.4
717.184	554.2
717.592	565.2
718	566.6
718.408	586.2
718.816	594
719.225	564.8
719.633	568.2
720.042	555.6
720.472	562.6
720.881	581.8
721.29	562.2
721.699	555.6
722.108	560.2
722.517	564.4
722.926	558.4
723.335	570.8
723.744	559
724.154	561.8
724.563	558.4
724.973	561.6
725.382	564.2
725.792	559.4
726.202	555
726.612	581.6
727.022	562.8
727.432	563.2
779.813	556.8
780.223	588.2
780.634	556.8
781.044	552.2
781.454	560.2
781.865	567
782.276	553.8
782.686	562.2
783.097	553.2
783.508	553.4
783.919	566
784.33	564.6
784.741	576
785.152	553.8
785.563	542.8
785.974	559
786.386	566.4
786.776	562.6
787.188	558.6
787.599	553
788.011	568.2
788.423	561.6
788.835	559.2
789.247	554.6
789.659	550.2
790.071	550.6
790.483	592
790.874	563.2
791.286	570.8
791.699	557.4
792.111	557.8
792.524	562.8
792.937	552
793.349	552.2
793.741	549
794.154	550.2
794.567	574.2
794.98	556.6
795.393	556.8
795.785	575
796.198	552.8
796.612	560.2
797.026	553.4
797.439	539
797.831	552
798.245	551.2
798.659	555
799.073	556
799.487	552.8
799.88	552.6
800.294	560
800.708	564
801.123	565
801.516	567.8
801.93	550.6
802.345	547.6
802.76	564.8
803.153	574.6
803.568	566.6
803.983	574.8
804.377	558.8
804.792	550.8
805.207	552.6
805.601	557.4
806.016	589.4
806.432	549.2
806.826	585.6
807.242	573.4
807.658	565
808.052	553
808.468	553.6
808.884	555.4
809.279	559.4
809.695	572.4
810.111	577.8
810.506	561.8
810.922	573
811.339	554.8
811.734	560.6
812.151	564.4
812.546	554.8
812.963	552.4
813.38	560.6
813.776	557.4
814.193	572.2
814.589	547.6
815.006	565.6
815.402	556.2
815.82	556.2
816.237	556
816.633	557.2
817.051	547.8
817.448	554.6
817.866	554.2
818.262	574
818.68	548.8
819.077	556
819.495	563.8
819.892	593.8
820.311	551.4
820.708	562.8
821.127	550.6
821.524	564.8
821.943	556.6
822.34	570.4
822.759	546
823.157	555.2
823.576	560.8
823.974	559.6
824.393	593.2
824.791	554.8
825.189	553.2
825.609	547
826.007	557.4
826.427	548
826.826	558.2
827.246	561.6
827.644	543.8
828.043	565.2
828.463	554.6
828.862	562.8
829.261	559.6
829.682	548
830.081	570.4
830.502	547.8
830.901	554
831.301	566
831.722	548.8
832.121	554.8
832.521	558.6
832.943	560.2
833.342	561.6
833.742	552
834.164	563.2
834.564	554.6
834.965	556.4
835.386	559.6
835.787	554.4
836.188	551.6
836.588	556.8
837.01	562.6
837.411	549.2
837.812	554.6
838.213	555.4
838.636	558.2
839.037	613.2
839.438	557.8
839.84	559
840.263	569.4
840.664	564.8
841.066	555.8
841.468	558.2
841.891	551.2
842.293	566.4
842.695	564.8
843.098	566
843.5	560
843.902	561.8
844.326	563.2
844.729	555.8
845.131	560.8
845.534	557.4
845.937	562.6
846.34	568.4
846.764	556.2
847.167	550.4
847.571	554.8
847.974	556
848.377	555.4
848.781	600.8
849.184	563
849.588	550.2
849.992	554.8
850.396	555.6
850.821	572.6
851.225	565
851.63	558.2
852.034	567.2
852.438	558
852.843	614.4
853.247	548.6
853.652	549.4
854.057	571.2
854.462	555.4
854.867	558.2
855.272	582.2
855.677	558.8
856.082	551.8
856.487	553.6
856.893	562.2
857.298	562.4
