#lambda/nm	C1
208.295	541.6
208.67	486
209.045	445.8
209.419	447
209.794	604.8
210.169	591.8
210.544	687.4
210.919	601.2
211.295	587.8
211.67	604.4
212.045	598
212.421	594.8
212.796	626.8
213.172	595.4
213.547	598.2
213.923	598.8
214.299	593.8
214.675	607.6
215.051	605
215.427	604
215.803	614.8
216.179	606.2
216.555	599.6
216.932	610.4
217.308	603.4
217.684	607.6
218.061	596
218.438	607.2
218.814	600.4
219.191	606.4
219.568	596.2
219.945	599.6
220.322	615
220.699	609.4
221.076	605
221.453	608.4
221.83	595
222.208	597
222.585	598
222.962	605.4
223.34	604.4
223.717	608.4
224.095	594.8
224.473	607.4
224.851	594.6
225.229	588.6
225.607	614.2
225.985	593.6
226.363	604
226.741	602.8
227.119	602.6
227.497	613.2
227.876	594
228.254	610.4
228.633	607
229.011	599
229.39	604.4
229.769	607.6
230.148	604
230.527	622
230.905	602.6
231.284	601
231.664	597.4
232.043	605.8
232.422	607.2
232.801	597
233.181	607.4
233.56	601
233.94	599.8
234.319	588.6
234.699	598.6
235.079	639
235.458	641.6
235.838	621.6
236.218	590.8
236.598	583.4
236.978	598.8
237.358	595.6
237.738	601.6
238.119	603.6
238.499	593.8
238.88	601.8
239.26	613.8
239.641	589.4
240.021	598.8
240.402	607.6
240.783	600.4
241.163	603
241.544	606.2
241.925	600.6
242.306	615.4
242.687	614.2
243.069	607.6
243.45	603
243.831	592
244.212	590
244.594	634.8
244.975	611.2
245.357	604.6
245.739	595.2
246.12	602.8
246.502	616.8
246.884	602.4
247.266	598
247.648	601.6
248.03	614.4
248.412	601
248.794	599.8
249.176	587.8
249.559	598.8
249.941	596
250.323	584.6
250.706	596
251.089	594.6
251.471	600.6
251.854	607.8
252.237	597.6
252.62	610
253.002	595.6
253.385	602.2
253.769	619.2
254.152	603.4
254.535	604
254.918	591.6
255.301	593
255.685	600.6
256.068	598.2
256.452	625.8
256.835	608.8
257.219	606.4
257.603	609.2
257.986	597.2
258.37	602.2
258.754	586.4
259.138	607.2
259.522	602.4
259.906	592
260.29	596.6
260.675	602.8
261.059	589.2
261.443	595.6
261.828	606.8
262.212	603
262.597	584.8
262.981	590.2
263.366	610.4
263.751	597.6
264.136	600.4
264.521	597.4
264.906	593.8
265.291	612.4
265.676	595.6
266.061	607.4
266.446	622.8
266.831	599.6
267.217	619.6
267.602	602.4
267.987	604.6
268.373	599.6
268.759	614.4
269.144	618.2
269.53	601
269.916	597.2
270.302	601.2
270.688	605.2
271.074	604
271.46	609.4
271.846	638.2
272.232	603
272.618	597.4
273.004	598.8
273.391	612.6
273.777	611.4
274.164	611.6
274.55	616.4
274.937	606.2
275.324	595.6
275.71	607.4
276.097	607.2
276.484	591.8
276.871	601.8
277.258	606.2
277.645	592.4
278.032	599
278.419	594.8
278.807	603.4
279.194	594
279.581	596.4
279.969	604
280.356	604.8
280.744	593.8
281.131	628
281.519	609.8
281.907	598
282.295	599.4
282.682	611
283.07	602.8
283.458	610.6
283.846	610.8
284.235	611.2
284.623	624.8
285.011	594.6
285.399	610
285.788	606.8
286.176	601.4
286.565	606.4
286.953	593.4
287.342	596
287.731	598.6
288.119	597.4
288.508	600.6
288.897	610
289.286	592.6
289.675	596.4
290.064	613.8
290.453	601.8
290.821	597.2
291.21	606.6
291.599	594.6
291.989	599.4
292.378	602
292.768	614
293.157	605.8
293.547	604.8
293.936	605.2
294.326	600.6
294.716	602.2
295.106	603.2
295.496	608.2
295.886	612
296.276	606.2
296.666	593.8
297.056	598
297.446	583.4
297.836	619.4
298.227	603.2
298.617	602.6
299.008	617
299.398	592.8
299.789	589.8
300.179	606
300.57	615.4
300.961	594.4
301.352	597.2
301.742	616.4
302.133	596.6
302.524	600
302.915	597.6
303.307	593
303.698	610.6
304.089	603.6
304.48	600.8
304.872	616.2
305.263	599
305.655	596.4
306.046	607.6
306.438	594.6
306.829	597.2
307.221	612
307.613	610.8
308.005	605
308.397	612.2
308.789	620.2
309.181	622
309.573	617
309.965	615.4
310.357	597.4
310.749	616.2
311.142	592.8
311.534	592.6
311.926	608.4
312.319	595
312.711	596.2
313.104	618
313.497	599.4
313.889	632.6
314.282	623.2
314.675	621.2
315.068	604
315.461	610.2
315.854	630.6
316.247	608
316.64	599.6
317.033	599.8
317.405	611.6
317.798	597
318.192	612
318.585	598.6
318.979	615
319.372	590.4
319.766	607.2
320.16	612.6
320.553	616.8
320.947	621.2
321.341	599.2
321.735	593.6
322.129	590.8
322.523	622.8
322.917	602.2
323.311	614.8
323.705	599.8
324.099	607.8
324.494	617.4
324.888	616.8
325.282	606.6
325.677	610
326.071	612.2
326.466	613.4
326.861	615
327.255	614.6
327.65	617.2
328.045	624.6
328.44	603.6
328.835	604
329.23	600.6
329.625	619.6
330.02	600.6
330.415	622.6
330.81	606.8
331.206	599
331.601	599.8
331.996	607.4
332.37	621
332.766	589.6
333.161	628.4
333.557	595.8
333.953	608
334.348	929.8
334.744	604
335.14	599.8
335.536	599.2
335.932	613.8
336.328	607.2
336.724	610.8
337.12	601.8
337.516	606.2
337.913	597
338.309	618.8
338.705	608.6
339.102	605
339.498	597
339.895	613.8
340.291	601.8
340.688	607.8
341.085	600.4
341.481	596.6
341.878	601
342.275	616.4
342.672	596.2
343.069	589.6
343.466	591.6
343.842	607
344.239	595.8
344.636	600.2
345.033	589.6
345.431	590.6
345.828	600.4
346.225	590.6
346.623	625.6
347.02	595.8
347.418	605.4
347.816	619.2
348.213	586.8
348.611	606.6
349.009	596
349.407	617.4
349.805	590.8
350.203	585.8
350.601	605
350.999	598.2
351.397	651.4
351.795	602
352.193	609
352.57	606.4
352.969	605.6
353.367	589
353.766	596.8
354.164	600
354.563	613
354.961	596.4
355.36	603
355.759	598
356.158	593.8
356.557	599
356.956	586.2
357.355	583.4
357.754	603.6
358.153	599.2
358.552	616.2
358.951	597
359.35	609
359.75	593.2
360.149	591.6
360.527	578.2
360.926	593.4
361.326	600.6
361.726	601.4
362.125	593.6
362.525	597.6
362.925	595.2
363.325	597
363.724	596.4
364.124	587.4
364.524	587.4
364.924	589
365.324	602.2
365.725	583.8
366.125	599.2
366.525	590.4
366.904	590.8
367.304	581
367.705	617.6
368.105	603.4
368.506	593.8
368.906	597.6
369.307	605.8
369.708	602.8
370.108	589
370.509	600
370.91	584
371.311	591.8
371.712	593.8
372.113	596.6
372.514	588
372.894	592.2
373.295	586.4
373.696	611.8
374.097	600.6
374.499	620.6
374.9	601.6
375.301	585.8
375.703	597.6
376.105	582.2
376.506	602.2
376.908	599.2
377.309	599.4
377.711	593.6
378.113	592.4
378.493	602.2
378.895	589.6
379.297	603
379.699	582
380.102	603.2
380.504	598.6
380.906	590.2
381.308	617.6
381.71	600.8
382.113	608.2
382.515	597.2
382.918	595.4
383.299	594.2
383.701	599
384.104	591
384.507	578.6
384.909	589.4
385.312	584.4
385.715	585.8
386.118	598.2
386.521	590.2
386.924	609.4
387.327	587.8
387.709	585
388.112	579.8
388.515	589
388.918	591.4
389.322	601
389.725	588.2
390.129	615.2
390.532	597.8
390.936	591.2
391.339	591.8
391.743	594.8
392.125	588.2
392.529	612.2
392.933	609.8
393.337	597.6
393.74	598.6
394.144	594.2
394.548	591.6
394.953	593.6
395.357	595.4
395.761	589.6
396.144	593
396.548	593.8
396.952	587
397.357	594.4
397.761	586.4
398.166	587.8
398.57	592.6
398.975	585.4
399.379	591.4
399.763	638.2
400.168	597
400.572	595.4
400.977	590.8
401.382	611
401.787	602.8
402.192	613.4
402.597	600.8
403.002	585.2
403.386	604.6
403.791	612.4
404.197	588.8
404.602	595.6
405.007	590.4
405.413	595.4
405.818	585.6
406.224	588.2
406.608	593
407.014	578.4
407.42	611.6
407.825	587.2
408.231	601
408.637	602
409.043	603
409.449	586.6
409.834	590
410.24	592
410.646	601.6
411.052	593.2
411.458	597.4
411.865	594.2
412.271	596.2
412.677	595.8
413.062	593.6
413.469	587.8
413.875	619.6
414.282	601.4
414.689	598.4
415.095	591.2
415.502	585.6
415.888	597.8
416.294	584.6
416.701	619.6
417.108	585.6
417.515	607
417.923	595.6
418.33	615.4
418.715	607.8
419.123	593.2
419.53	591
419.937	597.2
420.345	612.6
420.752	593.6
421.16	614
421.546	605.4
421.953	604
422.361	594.4
422.769	590.2
423.177	584.8
423.585	615.8
423.992	617.6
424.379	602.6
424.787	602.2
425.195	610.4
425.603	603.8
426.011	600.8
426.419	617.8
426.806	601.2
427.214	607.2
427.623	609
428.031	605
428.44	602.6
428.848	609.6
429.235	609.2
429.644	604
430.053	599.8
430.461	621
430.87	622.4
431.279	607.8
431.666	597
432.075	599.2
432.484	605.4
432.893	594.6
433.302	615.2
433.711	626
434.099	599.6
434.508	588.4
434.918	596.4
435.327	603.8
435.737	600.6
436.125	599.4
436.534	600.6
436.944	602
437.353	603.4
437.763	610.4
438.173	587.8
438.561	607
438.971	580
439.381	589.8
439.791	593.6
440.201	575.8
440.589	593.8
440.999	600.4
441.409	601.2
441.819	580.6
442.23	602.4
442.619	593
443.029	594.8
443.439	592.2
443.85	603
444.26	603.2
444.649	601.4
445.06	598
445.471	586.2
445.881	586.4
446.292	605.8
446.682	612.2
447.092	579.8
447.503	639
447.914	592.2
448.325	598
448.715	595
449.126	581.6
449.537	599.2
449.948	591.8
450.338	598.2
450.75	599.4
451.161	594
451.572	604
451.984	587
452.374	579.2
452.786	591.2
453.197	593
453.609	594.4
453.999	575.6
454.411	585.6
454.823	595.8
455.235	596.2
455.647	586.8
456.037	593.8
456.449	577.6
456.862	599
457.274	585.8
457.665	584.8
458.077	595.6
458.489	613.6
458.902	584.2
459.293	588.6
459.705	591.8
460.118	587.6
460.53	595
460.921	594
461.334	593.8
461.747	594
462.16	603
462.551	609.8
462.964	591.6
463.377	583
463.79	590.8
464.182	599.2
464.595	588.4
465.008	591.2
465.421	597.4
465.813	590.4
466.226	595.4
466.64	583.4
467.053	639.2
467.445	596.8
467.859	617.6
468.272	589.2
468.686	606
469.078	589.6
469.492	580.4
469.906	591
470.298	594.8
470.712	581.2
471.126	631.4
471.54	574.8
471.933	581.2
472.347	582.2
472.761	588.2
473.175	591.4
473.568	590.2
473.982	586
474.397	584.6
474.79	597.6
475.204	592
475.619	592.6
476.033	596.4
476.426	588.2
476.841	582.6
477.256	604.2
477.649	583.8
478.064	578.6
478.479	581
478.872	582
479.287	580.4
479.702	578.8
480.118	591.4
480.511	587
480.927	591
481.342	581.2
481.736	589
482.151	582.6
482.566	598.8
482.96	590.8
483.376	595.4
483.792	582.8
484.186	587.4
484.602	586.2
485.017	595
485.412	580.6
485.827	591.8
486.243	594.6
486.638	605.4
487.054	595.6
487.47	600.6
487.865	583.6
488.281	589.2
488.697	579.6
489.092	585.8
489.508	578.6
489.925	590
490.32	579
490.736	596.6
491.153	584.4
491.548	592.2
491.964	601.6
492.381	572.8
492.776	593.8
493.193	587.2
493.61	587.8
494.006	585.4
494.422	590
494.84	580.8
495.235	589.8
495.652	587.8
496.069	583.6
496.465	581.4
496.883	587.2
497.3	606.8
497.696	580.6
498.113	592.6
498.509	579.8
498.927	575
499.344	581.4
499.741	578.8
500.158	588
500.576	591.6
500.973	581
501.39	579.6
501.787	572.8
502.205	584.6
502.623	580
503.02	569.4
503.438	573.4
503.856	573.4
504.253	582.2
504.671	585.2
505.068	570.4
505.486	578.6
505.905	602.4
506.302	578.6
506.72	590.8
507.118	579.8
507.536	581.4
507.955	583.6
508.352	597.8
508.771	590
509.169	594.6
509.587	584
510.006	586
510.404	576.4
510.823	578.6
511.221	575.6
511.64	589.4
512.038	601.2
512.457	589.4
512.877	579.2
513.275	582
513.694	583.6
514.092	584
514.512	585
514.91	591.2
515.33	587.8
515.749	584.4
516.148	587.2
516.568	584.8
516.966	582
517.386	577.2
517.785	580
518.205	582.6
518.603	579.2
519.024	574.6
519.444	587.2
519.843	597
520.263	598.6
520.662	598.4
521.082	582.6
521.481	589.2
521.902	578.6
522.301	590
522.722	588.6
523.121	590.4
523.542	581.6
523.963	588
524.362	585.2
524.783	590.6
525.183	581.6
525.604	584.2
526.003	578.6
526.425	582.4
526.824	583.6
527.246	587.8
527.646	593.2
528.067	588.2
528.467	591.4
528.888	583
529.289	580
529.71	588
530.11	576.2
530.532	575.6
530.932	570
531.354	584.6
531.755	616.4
532.176	594.2
532.577	590.2
532.999	587.4
533.4	574.8
533.822	597.4
534.223	589.8
534.645	588.2
535.046	576.4
535.468	588.6
535.869	592.6
536.292	583
536.693	609.2
537.115	582.2
537.516	576.4
537.939	578.6
538.34	600.2
538.742	592
539.165	584.8
539.566	579.4
539.989	575.2
540.391	573.8
540.814	575.4
541.216	577.8
541.639	576.4
542.041	582.8
542.464	574.8
542.866	570.8
543.268	579
543.691	584.8
544.093	589.2
544.517	600.8
544.919	576
545.343	602.2
545.745	574.6
546.147	579.6
546.571	583.2
546.974	565.6
547.398	584.6
547.8	600.2
548.224	586.4
548.627	576.6
549.03	591
549.454	577.6
549.857	569
550.281	575.4
550.684	571
551.087	582.6
551.512	581.8
551.915	586.8
552.34	584
552.743	573
553.146	579.6
553.571	581.8
553.975	603.6
554.399	566
554.803	627.6
555.207	581.2
555.632	574
556.036	588
556.461	582.8
556.865	581.8
557.268	577.2
557.694	582.2
558.098	591.4
558.502	589.6
558.927	577
559.332	582.6
559.736	585
560.162	587.6
560.566	582.2
560.992	584.4
561.396	589.8
561.801	584.8
562.227	578.2
562.631	579.8
563.036	576.4
563.462	593.8
563.867	586.2
564.272	576.8
564.698	587.4
565.103	572.6
565.508	609.2
565.935	584.6
566.34	584.4
566.745	601.2
567.172	577.4
567.577	599.6
567.982	593.8
568.409	580.6
568.815	574.4
569.22	581.4
569.626	596.4
570.053	576.2
570.459	578.8
570.865	594.8
571.292	586.4
571.698	588.4
572.104	571
572.531	580
572.937	585.4
573.343	584.2
573.75	578
574.177	580.4
574.583	583.2
574.99	576.6
575.396	587.6
575.824	582
576.231	581.8
576.637	580.2
577.065	602
577.472	576.8
577.879	586.4
578.286	591
578.714	575.6
579.121	584.4
579.528	587.4
579.935	585.4
580.364	575.4
580.771	573.2
581.178	575.4
581.585	586.8
582.014	588.4
582.421	575.6
582.829	580.2
583.236	587
583.644	575.8
584.073	586.4
584.481	570.8
584.889	581
585.296	589
585.726	585.2
586.134	579
586.542	573.2
586.95	589.2
587.358	566.6
587.787	580.8
588.196	592.8
588.604	576.2
589.012	579
589.421	575.6
589.851	573.6
590.259	580.6
590.668	577.4
591.076	613.6
591.485	570
591.894	579.4
592.324	593.6
592.733	590
593.142	563
593.551	576.6
593.96	610.4
594.369	572.6
594.8	567
595.209	571.4
595.618	569.2
596.028	575.4
596.437	576
596.847	581.6
597.256	577.6
597.687	579
598.097	582.2
598.507	566
598.917	585
599.327	580.2
599.736	575.2
600.146	585
600.556	580.2
600.988	584.4
601.398	571.6
601.808	585.2
602.219	568.4
602.629	576.4
603.039	583.8
603.45	592.8
603.86	573.6
604.271	593.4
604.703	575
605.114	576.8
605.525	586.2
605.935	583.6
606.346	605.2
606.757	576.4
607.168	583.2
607.579	577
607.99	597.2
608.402	583.6
608.813	584.8
609.224	580
609.636	575.6
610.047	576.4
610.48	589.8
610.892	593.6
611.303	587.6
611.715	580.2
612.127	574.6
612.539	575.8
612.95	581.8
613.362	567.8
613.774	573.2
614.186	575.8
614.599	573.2
615.011	586
615.423	583
615.835	576
616.248	578.6
616.66	583.8
617.073	578.8
617.485	582
617.898	587.4
618.311	584.2
618.723	575.6
619.136	605.2
619.549	594.6
619.962	602.4
620.375	579.8
620.788	588.2
621.201	577.8
621.614	585.8
622.028	590.8
622.441	590.4
622.854	600.6
623.268	569.6
623.681	581.4
624.095	584.4
624.509	588.2
624.922	595.8
625.336	575
625.728	580.8
626.142	590.6
626.556	598.2
626.97	588.4
627.384	581.8
627.799	575
628.213	597.2
628.627	586
629.041	578.4
629.456	578.2
629.87	583
630.285	582.4
630.699	583.8
631.093	577.8
631.507	589
631.922	578.4
632.337	585.4
632.752	572.6
633.167	583.8
633.582	572.6
633.997	568.8
634.412	571.2
634.806	572.2
635.221	576.2
635.637	591.6
636.052	574
636.468	580.6
636.883	602.6
637.299	575.8
637.715	565
638.109	574.2
638.525	566.8
638.941	586.8
639.357	571.6
639.773	585.4
640.189	581.8
640.584	578.6
641	579
641.416	570.2
641.832	584.2
642.249	571
642.665	577.4
643.06	577.8
643.477	587
643.894	570.4
644.31	574.8
644.727	573
645.123	569.2
645.54	568
645.957	582
646.374	588
646.77	578.8
647.187	604.6
647.604	584.8
648.021	566.6
648.439	568
648.835	577.6
649.252	580.6
649.67	577.2
650.088	575.8
650.484	576
650.902	578.8
651.32	580.8
651.738	578.6
652.134	583.4
652.552	598.4
652.971	583.8
653.389	579.6
653.786	591.6
654.204	598
654.622	578.6
655.019	583.6
655.438	584.4
655.857	579
656.275	583.2
656.673	572.4
657.091	581.4
657.51	578.8
657.908	582.6
658.327	592.6
658.746	563
659.144	576.8
659.563	585.8
659.982	578.8
660.38	581.2
660.8	579.2
661.219	577.6
661.617	584.2
662.037	586.2
662.457	590.6
662.855	566.2
663.275	606.2
663.695	579.8
664.094	577.4
664.514	579.4
664.934	575.8
665.333	582.2
665.753	575.8
666.152	557.2
666.572	570.8
666.993	594.6
667.392	575.8
667.812	578.2
668.212	574.6
668.632	585.6
669.053	575.2
669.453	582.4
669.874	582.8
670.273	573.4
670.694	571.4
671.116	583.4
671.515	589
671.937	569.4
672.337	576.6
672.758	577
673.158	581.4
673.58	564.2
673.98	584
674.402	591.4
674.824	576.8
675.224	569.8
675.646	572.6
676.047	580
676.469	578.8
676.869	575.4
677.292	582.2
677.693	566.4
678.115	580.8
678.516	582.4
678.939	575
679.34	579.2
679.762	593.4
680.164	580
680.586	570.2
680.988	578.2
681.411	601.4
681.812	570.8
682.236	575.4
682.637	572.2
683.061	574.8
683.462	574.8
683.864	572.8
684.288	582.6
684.69	567.4
685.114	581.2
685.516	582.6
685.94	567.2
686.342	580.2
686.766	572.4
687.168	570.2
687.571	594.8
687.995	574.2
688.398	562.4
688.822	564.2
689.225	587.6
689.628	592.6
690.052	572.2
690.456	579.2
690.88	574.6
691.284	570
691.687	573.2
692.112	565
692.515	562.4
692.919	570.6
693.344	575.2
693.747	568
694.173	565
694.577	573.8
694.98	572.2
695.406	574
695.81	575
696.214	579.6
696.64	575.8
697.044	574
697.448	579.4
697.874	566
698.279	569
698.684	573.2
699.11	566.4
699.514	567.8
699.919	571
700.324	562
700.75	570.4
701.156	572.8
701.561	581.4
701.987	577.8
702.393	575
702.798	580.2
703.203	582.2
703.63	571
704.036	580.8
704.442	575.4
704.847	569.4
705.274	579.8
705.68	573
706.086	584.6
706.492	573
706.92	572.6
707.326	582.8
707.732	572.2
708.139	561.2
708.545	567.6
708.973	574.8
709.38	576.2
709.786	564
710.193	584.4
710.6	575
711.028	564.8
711.435	568.6
711.842	573.2
712.249	581
712.656	572.6
713.064	583
713.492	570.2
713.9	577.4
714.307	581.8
714.715	574.2
715.123	584
715.53	577.6
715.938	580.2
716.367	580.6
716.775	581.4
717.184	572
717.592	572.4
718	583.2
718.408	606.4
718.816	612.4
719.225	583.8
719.633	574.2
720.042	574.2
720.472	570.6
720.881	591.2
721.29	581.8
721.699	566
722.108	579.4
722.517	583.2
722.926	563.8
723.335	587.6
723.744	577.6
724.154	572.2
724.563	578.6
724.973	577.4
725.382	573.4
725.792	567
726.202	565.4
726.612	597.2
727.022	570.8
727.432	573.6
779.813	577
780.223	614.6
780.634	566
781.044	568.6
781.454	577.8
781.865	584.6
782.276	567.2
782.686	576.6
783.097	573
783.508	577.8
783.919	576.4
784.33	582.6
784.741	582.8
785.152	565.6
785.563	562.8
785.974	565.8
786.386	586.6
786.776	564.4
787.188	574
787.599	559.8
788.011	573
788.423	577
788.835	567.2
789.247	564.4
789.659	566
790.071	570
790.483	611.2
790.874	573
791.286	581.2
791.699	566.2
792.111	570.2
792.524	569
792.937	570.2
793.349	568.4
793.741	563.8
794.154	558
794.567	581.6
794.98	564.2
795.393	558.4
795.785	587.8
796.198	564.8
796.612	576
797.026	565.4
797.439	558.4
797.831	572.4
798.245	566
798.659	572.8
799.073	569.8
799.487	571.8
799.88	571.2
800.294	569.4
800.708	584.2
801.123	574.4
801.516	594
801.93	557
802.345	558.6
802.76	571
803.153	589.4
803.568	577
803.983	578.2
804.377	576.4
804.792	560.2
805.207	563.4
805.601	571.4
806.016	603.4
806.432	562.8
806.826	601.6
807.242	579.8
807.658	577.6
808.052	573.6
808.468	563.2
808.884	570
809.279	577.6
809.695	585.6
810.111	595.6
810.506	572.8
810.922	589.8
811.339	567.2
811.734	582.6
812.151	565.8
812.546	569.6
812.963	568.2
813.38	583.6
813.776	570.2
814.193	584.6
814.589	571.8
815.006	563.6
815.402	560.2
815.82	570.8
816.237	573.4
816.633	575.2
817.051	566.8
817.448	573.8
817.866	563.6
818.262	587.4
818.68	565.6
819.077	568
819.495	574
819.892	609.8
820.311	565.2
820.708	570
821.127	565.8
821.524	579.4
821.943	579.6
822.34	587.8
822.759	571.8
823.157	566.4
823.576	574.4
823.974	574.6
824.393	614.2
824.791	564.6
825.189	565
825.609	569
826.007	573.4
826.427	556.4
826.826	566.6
827.246	571.6
827.644	554.8
828.043	578.6
828.463	568
828.862	583.2
829.261	575.8
829.682	561.8
830.081	571.4
830.502	560.6
830.901	580.8
831.301	588.6
831.722	558.8
832.121	580.4
832.521	565.8
832.943	569.2
833.342	570.4
833.742	559.8
834.164	570
834.564	559.6
834.965	564.2
835.386	561.2
835.787	556.8
836.188	570.2
836.588	571
837.01	567.8
837.411	567
837.812	583
838.213	576.2
838.636	566.6
839.037	627.2
839.438	568
839.84	568.4
840.263	581.6
840.664	575.6
841.066	569.6
841.468	572.6
841.891	565.6
842.293	578.8
842.695	577.2
843.098	569.6
843.5	571.6
843.902	563.8
844.326	567.8
844.729	576.8
845.131	579.6
845.534	569.8
845.937	579.4
846.34	581.6
846.764	559.8
847.167	568.6
847.571	567.8
847.974	565.2
848.377	564.8
848.781	607
849.184	584.6
849.588	564.6
849.992	573.6
850.396	565.6
850.821	574.6
851.225	572.4
851.63	567.6
852.034	580.2
852.438	571
852.843	637.8
853.247	563.2
853.652	570.8
854.057	572.4
854.462	571.8
854.867	577.8
855.272	601.6
855.677	577.6
856.082	551.4
856.487	564.4
