#lambda/nm	DC	C1
208.295	638.2	641
208.67	561	559.4
209.045	528.2	523.2
209.419	517.4	517.2
209.794	611.4	613.2
210.169	612	608.6
210.544	689.4	692.8
210.919	638.2	635.2
211.295	623.2	626
211.67	630.6	638.6
212.045	626.6	629.2
212.421	623	621.2
212.796	646.2	650.4
213.172	620.6	623.4
213.547	626.6	630.2
213.923	635.2	633.4
214.299	623.4	628.4
214.675	634.4	637.8
215.051	640.8	643.2
215.427	637	646.6
215.803	645.8	654.4
216.179	644	643.2
216.555	642.6	642.6
216.932	648.8	645.6
217.308	650	659.8
217.684	652	648.4
218.061	647.2	651
218.438	652.4	655.4
218.814	655.6	659
219.191	661	668.2
219.568	670	669.8
219.945	661.2	670
220.322	671.4	675
220.699	662.6	672.6
221.076	664	679.8
221.453	663.4	671.8
221.83	668	673.2
222.208	669.6	665.6
222.585	664.4	668.2
222.962	670.8	678.4
223.34	671.4	683.2
223.717	667.6	678.8
224.095	674.6	680.8
224.473	667.6	677.4
224.851	669.6	676.8
225.229	675.8	668.8
225.607	686.6	696
225.985	681	690
226.363	684.6	693
226.741	697.6	686
227.119	691	690.6
227.497	705.8	704.4
227.876	694.6	695
228.254	701	709.8
228.633	693.2	709.2
229.011	704.4	703.2
229.39	702.4	708
229.769	716.2	719.2
230.148	705	708.6
230.527	733.2	728.2
230.905	713.2	723.6
231.284	719.4	721.8
231.664	716.6	721.8
232.043	730.8	733.6
232.422	726.8	733.4
232.801	726	736
233.181	734.4	734
233.56	728.8	733.4
233.94	747.2	748.6
234.319	750.2	739.4
234.699	747.2	742.2
235.079	785	779.4
235.458	781.6	784.2
235.838	780.2	779.8
236.218	766.6	761.4
236.598	766.6	771.6
236.978	775.6	776.6
237.358	777.8	778
237.738	777	772
238.119	785.6	778.2
238.499	792.6	789.6
238.88	796.6	783.8
239.26	808.4	802.4
239.641	781.6	797.8
240.021	807	803.2
240.402	805	804.4
240.783	812	808.8
241.163	815	804.4
241.544	825.8	817.2
241.925	824	823.8
242.306	831.2	820.4
242.687	819.8	812.2
243.069	815	814.6
243.45	815.2	817.6
243.831	801.6	807.6
244.212	804	802.8
244.594	822	824
244.975	802	799.6
245.357	794.8	797.8
245.739	782	790.6
246.12	789.4	791.6
246.502	777.2	786.2
246.884	763.8	763.6
247.266	760.8	758
247.648	754.6	746
248.03	750.2	760
248.412	737.2	738.6
248.794	735.8	737.4
249.176	734	726.8
249.559	733.2	726.4
249.941	712	706.8
250.323	705.6	699.4
250.706	699.4	698
251.089	693.6	700.2
251.471	688.6	701.2
251.854	689.6	691.4
252.237	690	684
252.62	681.2	686
253.002	675.6	668.2
253.385	665.6	669
253.769	678.2	674.2
254.152	652	655.4
254.535	659.8	667.6
254.918	654	643.2
255.301	648.6	641
255.685	644.2	639.8
256.068	634.4	636.2
256.452	653.2	655.6
256.835	645	641.6
257.219	635.6	633.6
257.603	642.6	641.2
257.986	627.6	625.6
258.37	639.2	631.6
258.754	618.6	627
259.138	632.2	637.4
259.522	634	633.8
259.906	624.8	625.6
260.29	626.4	623.6
260.675	628.2	622.8
261.059	625.6	626.2
261.443	618.6	617.4
261.828	628.8	634
262.212	628.4	624.8
262.597	621.6	621.4
262.981	626.2	625.8
263.366	631.4	632.6
263.751	624	616.6
264.136	627.2	625.6
264.521	624.2	622.4
264.906	625.6	618.8
265.291	630.2	632.8
265.676	617.8	631
266.061	629.2	631.2
266.446	634	639
266.831	627.2	630.6
267.217	639.2	639.2
267.602	635.6	628.6
267.987	630.8	629
268.373	630.2	632.4
268.759	634.2	636.8
269.144	633.8	632.6
269.53	621	619.4
269.916	630.2	624.2
270.302	627.4	623.2
270.688	631.4	626.4
271.074	628.4	628.2
271.46	642.8	634.6
271.846	648.4	646.8
272.232	629.4	629.2
272.618	622.4	624.8
273.004	630	627.6
273.391	635.4	632
273.777	634	633.8
274.164	630	634.8
274.55	636	642.4
274.937	633.2	631.2
275.324	631.4	623.2
275.71	634.4	625.8
276.097	631.4	632.6
276.484	619.6	624.6
276.871	624.2	634.4
277.258	630.4	632.8
277.645	613.8	616.4
278.032	620.6	627.4
278.419	618.2	629.2
278.807	633.8	633.6
279.194	621.6	619
279.581	614	629.6
279.969	634	634.8
280.356	631.2	624.2
280.744	624.2	628.2
281.131	640.8	640.2
281.519	635	640.2
281.907	618.6	625.2
282.295	616	625
282.682	638	637.8
283.07	633.8	630
283.458	631.2	632.2
283.846	638.4	626.2
284.235	631.8	639.4
284.623	638.8	636.2
285.011	630	631.2
285.399	631	635
285.788	627.8	627.8
286.176	620.6	619.8
286.565	642.2	634.2
286.953	624.2	621.8
287.342	627.2	629
287.731	625.2	627
288.119	624.6	618.6
288.508	619.4	632.6
288.897	631	624.2
289.286	622	622
289.675	637.6	632.2
290.064	631.4	631.4
290.453	613.6	626
290.821	626	623.4
291.21	641	637
291.599	628.8	630.6
291.989	630.8	630
292.378	632.6	634.4
292.768	636.4	637.8
293.157	635.8	632
293.547	635.4	631
293.936	630	621.8
294.326	629.6	622.4
294.716	636	623.4
295.106	630.6	628.8
295.496	633	620.4
295.886	640.2	632.8
296.276	629.8	632.2
296.666	623	623.6
297.056	624	629
297.446	623.4	623.6
297.836	638	635
298.227	630.4	623.8
298.617	620.6	628.2
299.008	639.2	643.2
299.398	629.8	625.2
299.789	626.8	618
300.179	632.6	620.8
300.57	640.4	637.6
300.961	630.4	625.8
301.352	629.4	620
301.742	632.2	634.2
302.133	626.8	623.6
302.524	625	629
302.915	626.4	627.8
303.307	620.4	613
303.698	632	633.2
304.089	634.2	624.2
304.48	628.8	623.4
304.872	634.4	633
305.263	630.2	630.6
305.655	622	630.6
306.046	630	630.6
306.438	631.4	627.4
306.829	614	621
307.221	639	636.4
307.613	632.2	635.4
308.005	637.4	631.8
308.397	636.6	627.6
308.789	646.6	632.8
309.181	648.8	643
309.573	635.4	634
309.965	635.6	637.6
310.357	635.4	618.4
310.749	628.4	631
311.142	626.8	623.6
311.534	623.8	622.8
311.926	633.4	629.8
312.319	624.2	621
312.711	618	625.6
313.104	641	631.2
313.497	621	626.6
313.889	651.2	651
314.282	639.6	636
314.675	638.4	646.4
315.068	626.4	623.2
315.461	629.6	631.6
315.854	649.2	649
316.247	629.2	637.8
316.64	623.6	626.4
317.033	629.4	633.6
317.405	630.8	633.6
317.798	625.4	621.4
318.192	633.8	632.4
318.585	626.4	628
318.979	633.2	632.2
319.372	622	624.8
319.766	625.6	623.8
320.16	629.4	632.6
320.553	633.6	634
320.947	635.4	646
321.341	634.8	630.8
321.735	629	622.6
322.129	613	628.4
322.523	637	641.6
322.917	632	627.4
323.311	638.2	631.2
323.705	629.8	625.4
324.099	633	631.8
324.494	630.4	631.8
324.888	634.2	631.6
325.282	621.8	630.4
325.677	634.6	627.4
326.071	636.8	630
326.466	630	637
326.861	626.8	630
327.255	632.4	634
327.65	639.4	634.2
328.045	649.4	634.4
328.44	633.6	628
328.835	625.4	635.4
329.23	619.6	626.6
329.625	641	650.8
330.02	621.4	620.6
330.415	647.4	640
330.81	635	629
331.206	620.2	627
331.601	627.8	628.2
331.996	638.2	633.4
332.37	639.4	644.4
332.766	629.4	621.6
333.161	641.4	643
333.557	632.6	624.2
333.953	630.4	625
334.348	760.8	753
334.744	627.2	631.2
335.14	622.4	617.6
335.536	622.8	620.4
335.932	636.4	636.8
336.328	625.4	629.6
336.724	633	636.2
337.12	632.6	628.2
337.516	639.6	635
337.913	630	629.8
338.309	634.6	633
338.705	622.2	627.4
339.102	634.2	630.4
339.498	624.8	624.8
339.895	641.6	637.2
340.291	622.4	628.8
340.688	634.2	634.4
341.085	623.6	629.4
341.481	636.2	626.8
341.878	628.2	627.4
342.275	640.4	642.2
342.672	627.6	627.6
343.069	621.2	628
343.466	619.6	631.6
343.842	638.4	632
344.239	619.6	625.2
344.636	628.4	627.6
345.033	630	623.6
345.431	617.6	609.2
345.828	626.8	630
346.225	627.4	632.8
346.623	648.2	651.4
347.02	624.8	623.4
347.418	628.8	646.4
347.816	633	635.4
348.213	620.2	626.4
348.611	631.8	628.4
349.009	619	625.2
349.407	626.6	633.4
349.805	621.2	628.2
350.203	624.8	620.6
350.601	638	631.6
350.999	631.4	623.2
351.397	663.6	664.2
351.795	622.4	626.8
352.193	633	629.8
352.57	642.2	626
352.969	637.2	628
353.367	622.8	625
353.766	627.4	623.8
354.164	631.2	626.2
354.563	634.6	634.4
354.961	627	626
355.36	627	623.8
355.759	638	623
356.158	620.8	617.2
356.557	623	620.6
356.956	621.6	618.6
357.355	622.6	623
357.754	627.6	624.8
358.153	635	632
358.552	648.2	641
358.951	624	639.8
359.35	638.4	634
359.75	626.6	615.6
360.149	629.4	620
360.527	615.4	616.4
360.926	626.8	620.8
361.326	633.8	626.6
361.726	629.8	631.4
362.125	619.6	622.2
362.525	628.8	627.6
362.925	625.2	628.4
363.325	625.8	622.4
363.724	627.6	630.8
364.124	619.4	625.2
364.524	624.8	628.4
364.924	625	631.6
365.324	636.8	630
365.725	624.6	620.8
366.125	637.2	630.8
366.525	630	633.6
366.904	624.6	633
367.304	614	617.2
367.705	636.8	636.6
368.105	637.6	639.6
368.506	627	626.6
368.906	628.8	632.4
369.307	633.2	621.2
369.708	629.4	628.2
370.108	623.4	627.4
370.509	631.8	635.4
370.91	624	623
371.311	633.8	628.2
371.712	638.2	629.2
372.113	630.2	631
372.514	624.4	624.2
372.894	626.2	626.2
373.295	630.2	623.8
373.696	641	637.4
374.097	630.2	632.6
374.499	647.4	645.4
374.9	633.2	635.4
375.301	631.8	628
375.703	626.8	626.2
376.105	629.4	620.6
376.506	628.2	633
376.908	638.6	630.8
377.309	622	632.8
377.711	637.2	629
378.113	628.8	627
378.493	633	632
378.895	624.8	629.8
379.297	630.8	626.8
379.699	621.2	621.2
380.102	635.8	640.8
380.504	621.6	632
380.906	630.4	623
381.308	639.8	648.4
381.71	635.4	629.2
382.113	641.4	636.6
382.515	636	629.4
382.918	635	636.6
383.299	635.4	635.2
383.701	632.2	640
384.104	630.2	638.4
384.507	618.4	619.2
384.909	630.6	636.6
385.312	628.6	629.8
385.715	631.8	633
386.118	633.6	625.2
386.521	628.4	631.4
386.924	638.8	634.8
387.327	630	634
387.709	634.4	627.2
388.112	620.2	626.4
388.515	633.6	634.8
388.918	639.6	639
389.322	639	633.4
389.725	632.4	628.4
390.129	649.8	646.2
390.532	632.2	639
390.936	629.2	628.4
391.339	628	636
391.743	637.4	640.2
392.125	632.8	632.6
392.529	644.8	644.2
392.933	650.8	645
393.337	631.8	642
393.74	639.2	634.8
394.144	632.6	643.4
394.548	632.2	634.2
394.953	637.6	633.4
395.357	648	642.4
395.761	630.6	641.6
396.144	642.4	635.8
396.548	635.8	638.8
396.952	635	643.6
397.357	637.6	640.4
397.761	643.4	633.2
398.166	642.8	639
398.57	640.2	644.4
398.975	634.4	635.4
399.379	638.4	648.2
399.763	665.4	663.4
400.168	647.2	642.2
400.572	640.4	646.2
400.977	648.8	645.6
401.382	661.4	664.2
401.787	651	646.2
402.192	654	658.4
402.597	657.6	660.8
403.002	643.8	643
403.386	667.4	665.6
403.791	671.8	666
404.197	654.8	658.8
404.602	666	661.6
405.007	671	667.6
405.413	672.6	676.4
405.818	681.2	679.8
406.224	675.8	675.2
406.608	688	680.4
407.014	690.4	683.4
407.42	709.2	699.8
407.825	695.2	698
408.231	719.8	710.2
408.637	714	732.6
409.043	743.2	723.6
409.449	734.2	733.6
409.834	736.2	745.4
410.24	756.8	758.4
410.646	774.2	775.6
411.052	775.2	775.8
411.458	799.6	794.4
411.865	814.6	808.2
412.271	830.2	824.8
412.677	831	835.2
413.062	850.2	854.8
413.469	879.8	876.4
413.875	908.4	919.8
414.282	933.4	929.6
414.689	948	944.2
415.095	975.6	979.6
415.502	997.4	993.4
415.888	1033.6	1034.8
416.294	1053.2	1063.8
416.701	1121.8	1123
417.108	1128	1123
417.515	1169	1176.4
417.923	1208.8	1209.4
418.33	1265.6	1260.8
418.715	1308	1321.2
419.123	1340.2	1340.2
419.53	1393.2	1390.4
419.937	1428.2	1440.2
420.345	1501.8	1497.2
420.752	1538.8	1569.4
421.16	1610.2	1623.8
421.546	1665	1674
421.953	1745.6	1740.6
422.361	1798.4	1795.8
422.769	1886	1900.2
423.177	1949.8	1977.6
423.585	2053	2065.4
423.992	2131.2	2135
424.379	2217	2234.6
424.787	2329.4	2307.8
425.195	2409.2	2418.4
425.603	2519.2	2521.8
426.011	2635.2	2636
426.419	2765.8	2771.2
426.806	2889.6	2890.6
427.214	3009	3012
427.623	3151.6	3164.4
428.031	3289.2	3331.4
428.44	3456.6	3447
428.848	3650	3627
429.235	3784.4	3828
429.644	3983.2	3980.2
430.053	4140.2	4178.8
430.461	4386.8	4393.6
430.87	4602	4606.2
431.279	4778.6	4803.2
431.666	5025.6	5043.6
432.075	5266.2	5302
432.484	5512.2	5553.4
432.893	5768.8	5789
433.302	6068	6104.4
433.711	6352.2	6384
434.099	6615.6	6654
434.508	6915.4	6982.4
434.918	7200.2	7341.2
435.327	7543.8	7668.8
435.737	7916	8010.6
436.125	8256.8	8363.2
436.534	8630.8	8731.8
436.944	9043.6	9128.6
437.353	9372.8	9498.8
437.763	9825.2	9944
438.173	10201.6	10374.4
438.561	10610.4	10818.6
438.971	11069.4	11237.6
439.381	11546.6	11743.6
439.791	12080.8	12221.8
440.201	12515.2	12763.8
440.589	13091.8	13246.8
440.999	13628.4	13907.6
441.409	14178.4	14465.6
441.819	14783.2	15034
442.23	15487.6	15737.2
442.619	16137.6	16408.8
443.029	16814.2	17037.8
443.439	17578.2	17821.6
443.85	18304.6	18580.4
444.26	19178.4	19464.6
444.649	20007.4	20294.2
445.06	20945	21211.6
445.471	21857.6	22045.4
445.881	22866.6	23105
446.292	23931.8	24122.4
446.682	24930.4	25193.4
447.092	26032.6	26342.2
447.503	27211.4	27432.6
447.914	28366.2	28621
448.325	29536.8	29770.2
448.715	30790.8	31013.2
449.126	31903.2	32214.8
449.537	33087.4	33493.8
449.948	34258.4	34559.8
450.338	35376.2	35671.4
450.75	36622.4	36801.4
451.161	37563.6	37906
451.572	38484.4	38829.8
451.984	39361.8	39776.6
452.374	40235	40512.8
452.786	40897	41238.2
453.197	41529.8	41742.2
453.609	41861.8	42194
453.999	42093.8	42480.2
454.411	42152.6	42562.8
454.823	42254.4	42715.8
455.235	42164	42538
455.647	41832	42284.6
456.037	41504.8	41843.6
456.449	41067	41307.8
456.862	40399.6	40761.6
457.274	39682.2	40064.8
457.665	38820.2	39259
458.077	38062.8	38309
458.489	37116.2	37467.2
458.902	36155.4	36530.6
459.293	35124.6	35545
459.705	34130	34529.6
460.118	33171.8	33520
460.53	32215.8	32586.4
460.921	31295.4	31632.8
461.334	30433.2	30723.6
461.747	29535.8	29860.6
462.16	28743.6	29090
462.551	27977.2	28315.2
462.964	27195	27604
463.377	26593	26909.2
463.79	26019	26330.6
464.182	25472.8	25779
464.595	24970	25234.2
465.008	24473.6	24754.8
465.421	24005	24361.4
465.813	23582	23962
466.226	23252.6	23525.6
466.64	22881.4	23188.4
467.053	22516	22860.2
467.445	22227.8	22482.4
467.859	21773.8	22161.8
468.272	21471.4	21859
468.686	21106.2	21458.2
469.078	20840	21100.4
469.492	20434.8	20757.2
469.906	20091.2	20390.2
470.298	19647.4	20012.6
470.712	19326.4	19635.4
471.126	18948.8	19315.8
471.54	18532.8	18902.2
471.933	18122.8	18507.4
472.347	17738.4	18082
472.761	17265	17659
473.175	16900	17258.6
473.568	16538.4	16857.8
473.982	16160	16487.6
474.397	15780.6	16109.8
474.79	15421	15748.4
475.204	15080	15392.2
475.619	14737.4	15117.2
476.033	14469.2	14792.4
476.426	14152	14498.2
476.841	13914.4	14203.6
477.256	13635.4	13980.2
477.649	13398.6	13729.4
478.064	13183	13522
478.479	13024.6	13298.2
478.872	12867.4	13141.6
479.287	12745.6	12979.2
479.702	12564.6	12907.4
480.118	12525.4	12820.2
480.511	12450.4	12736.6
480.927	12359.2	12640.2
481.342	12336	12679.4
481.736	12274	12587.8
482.151	12207.4	12553
482.566	12261.4	12563
482.96	12268.6	12560
483.376	12301	12627.8
483.792	12305	12631.8
484.186	12363.4	12621
484.602	12375	12661
485.017	12417	12763.2
485.412	12521.2	12784.2
485.827	12551	12840.6
486.243	12626.8	12874.8
486.638	12710.4	12972.8
487.054	12730.8	13080.6
487.47	12845.2	13141.8
487.865	12989.2	13187.4
488.281	13097	13268.6
488.697	13172.4	13424.4
489.092	13270.2	13617.8
489.508	13358.6	13660
489.925	13483.8	13843.4
490.32	13648.6	13935
490.736	13800.8	14054.6
491.153	13931.2	14144.6
491.548	14150	14359
491.964	14284.6	14482.2
492.381	14428.4	14654.6
492.776	14598.2	14831
493.193	14794	15067.8
493.61	14995.6	15249.6
494.006	15192.8	15454.8
494.422	15411.4	15663.6
494.84	15656.6	15880.4
495.235	15805.6	16101.2
495.652	16072.2	16314.8
496.069	16269.4	16512
496.465	16539.2	16779.2
496.883	16793.4	17001
497.3	17088	17321
497.696	17348.8	17576.2
498.113	17661.4	17823.8
498.509	17937.2	18093.2
498.927	18122.4	18321.2
499.344	18404.8	18659.8
499.741	18667.4	18929.8
500.158	18941.6	19171.2
500.576	19160.8	19368.6
500.973	19446	19693.6
501.39	19790.2	19956.8
501.787	19979.8	20208.6
502.205	20272.6	20423.2
502.623	20492	20755.4
503.02	20775.6	20984
503.438	21051.6	21264.6
503.856	21313.8	21548
504.253	21532.4	21798.6
504.671	21859.8	22030.2
505.068	22077.2	22351
505.486	22400	22574.2
505.905	22624.8	22761.4
506.302	22854.8	23099.2
506.72	23112.2	23273.4
507.118	23338	23534
507.536	23616	23874.6
507.955	23847.6	24032.6
508.352	24066.8	24303
508.771	24346.4	24556.2
509.169	24603.6	24707
509.587	24770.4	25031.2
510.006	25076.4	25239.2
510.404	25256	25426
510.823	25549	25671
511.221	25714.8	25870.4
511.64	25970.6	26087.2
512.038	26146.4	26299
512.457	26395.4	26493.6
512.877	26577.8	26665.2
513.275	26745.8	26982
513.694	27013.8	27202.2
514.092	27204	27405.6
514.512	27441.8	27591.4
514.91	27668.6	27800
515.33	27801	27990.2
515.749	28008.6	28198.2
516.148	28217.2	28400.2
516.568	28411.6	28526
516.966	28602	28794.6
517.386	28807.8	28919.4
517.785	28979.6	29140.8
518.205	29190.4	29350.6
518.603	29389.6	29473.6
519.024	29541.4	29665.2
519.444	29759.4	29839
519.843	29916	29969
520.263	30012.6	30102.4
520.662	30204	30376.4
521.082	30403.6	30503.8
521.481	30530.8	30647
521.902	30674	30879.8
522.301	30901	30968.8
522.722	30979.8	31118.6
523.121	31163.2	31386.8
523.542	31382.4	31436
523.963	31450.8	31578.2
524.362	31492.2	31717.8
524.783	31686.2	31890.8
525.183	31801	31936.6
525.604	32063.4	32081.8
526.003	32204	32266.4
526.425	32215.8	32348.2
526.824	32383.4	32488.2
527.246	32497	32557.2
527.646	32590.8	32693.6
528.067	32698.4	32899.8
528.467	32910.8	33015.8
528.888	32991	33082.8
529.289	33060.6	33266.4
529.71	33251.4	33390
530.11	33366.8	33542.2
530.532	33458.2	33615.8
530.932	33613.6	33780.8
531.354	33776.6	33911.6
531.755	33877.6	34053
532.176	34054.6	34104.6
532.577	34141.8	34300.4
532.999	34383.2	34370.2
533.4	34444.6	34442
533.822	34517.2	34678.8
534.223	34719	34781.8
534.645	34861.4	34921.6
535.046	35028	35070.6
535.468	35113.2	35189.8
535.869	35361.6	35367.8
536.292	35471.8	35630
536.693	35717	35691.4
537.115	35779.4	35832.2
537.516	35962	36008
537.939	36060.6	36185.8
538.34	36247.2	36305
538.742	36368	36547.6
539.165	36549.6	36651.4
539.566	36687.6	36737.6
539.989	36925.6	36970.2
540.391	37013.6	37091
540.814	37106.4	37253
541.216	37252.8	37414
541.639	37534.8	37537.4
542.041	37658.6	37594.6
542.464	37697.6	37847.8
542.866	37918.6	38038.6
543.268	37943.8	38070.4
543.691	38061	38253
544.093	38323.6	38325.8
544.517	38437.8	38453.4
544.919	38483	38564
545.343	38647.8	38758.8
545.745	38772.6	38889.2
546.147	38888.8	38968
546.571	39003.6	39085.8
546.974	39108	39272
547.398	39347.6	39365.4
547.8	39514	39444
548.224	39493.6	39652.4
548.627	39739.4	39785.4
549.03	39868.2	39816
549.454	39981.2	40076
549.857	40072.4	40172.2
550.281	40138.2	40279
550.684	40293.2	40302
551.087	40480.6	40547.6
551.512	40567.2	40638.8
551.915	40735.2	40707.4
552.34	40783.4	40931.4
552.743	40954.6	40965.2
553.146	41141.6	41245.6
553.571	41227.6	41287.6
553.975	41367.8	41457.6
554.399	41479.8	41506
554.803	41625.6	41772.4
555.207	41744.4	41809
555.632	41849.2	41935.4
556.036	42099.6	42057.2
556.461	42171.4	42186.2
556.865	42167.4	42366.6
557.268	42435.4	42391.8
557.694	42667.4	42752.4
558.098	42654.2	42750.6
558.502	42858.6	42906.2
558.927	42973	43118.4
559.332	43082.6	43119.2
559.736	43193.2	43290
560.162	43404.4	43430.4
560.566	43515.2	43588
560.992	43700.2	43800.4
561.396	43904	43895
561.801	44100	44134.8
562.227	44107.2	44232.6
562.631	44331.2	44356.8
563.036	44374.6	44554.8
563.462	44566	44626.4
563.867	44808	44811.2
564.272	44912.6	45102.4
564.698	45053.4	45150.2
565.103	45292.6	45292.2
565.508	45452.2	45464.8
565.935	45621.8	45604.2
566.34	45730.2	45780.2
566.745	45980	45973
567.172	45964.8	46049.8
567.577	46137.8	46227.2
567.982	46310	46369.4
568.409	46487.2	46618.6
568.815	46643.2	46616.6
569.22	46679.8	46702.2
569.626	46885.6	46928
570.053	47025.4	47048.8
570.459	47129.2	47226.6
570.865	47380	47317.4
571.292	47511.4	47566
571.698	47576.8	47677
572.104	47667.6	47678.2
572.531	47844.8	47827.8
572.937	47964.2	48037.8
573.343	48100.8	48149.8
573.75	48221.8	48365.6
574.177	48406.8	48498.6
574.583	48409.6	48544.4
574.99	48657.2	48704.6
575.396	48805.2	48761.4
575.824	48746.4	48971.4
576.231	49028.6	49086.8
576.637	49155.6	49147.8
577.065	49207	49369.6
577.472	49394	49473.8
577.879	49476	49512
578.286	49597.4	49612.4
578.714	49681.2	49773
579.121	49785	49817.6
579.528	49876	49943.2
579.935	49999.2	50110.8
580.364	50310.2	50211
580.771	50278.8	50198.8
581.178	50415.2	50387.8
581.585	50358.4	50442.4
582.014	50541	50465.8
582.421	50663	50634.2
582.829	50710	50630.8
583.236	50753.8	50936.6
583.644	50872.2	50872.8
584.073	50867.2	50939.8
584.481	50908.8	51021.6
584.889	51048.8	51134.8
585.296	51039.6	51195.8
585.726	51204	51164
586.134	51359.4	51211.6
586.542	51273.8	51314.6
586.95	51335.2	51538.8
587.358	51474.4	51426.2
587.787	51526.4	51461.6
588.196	51570.2	51484
588.604	51534.8	51499.8
589.012	51502.2	51626.6
589.421	51665.6	51637.6
589.851	51699.4	51703.8
590.259	51706.8	51581.4
590.668	51685.4	51826.2
591.076	51676.6	51715.4
591.485	51772.4	51718
591.894	51716.8	51836.4
592.324	51807.4	51743.4
